Timestamp,OriginalTimestamp,EEG.Counter,EEG.Interpolated,EEG.AF3,EEG.F7,EEG.F3,EEG.FC5,EEG.T7,EEG.P7,EEG.O1,EEG.O2,EEG.P8,EEG.T8,EEG.FC6,EEG.F4,EEG.F8,EEG.AF4,EEG.RawCq,EEG.Battery,EEG.BatteryPercent,MarkerIndex,MarkerType,MarkerValueInt,EEG.MarkerHardware,CQ.AF3,CQ.F7,CQ.F3,CQ.FC5,CQ.T7,CQ.P7,CQ.O1,CQ.O2,CQ.P8,CQ.T8,CQ.FC6,CQ.F4,CQ.F8,CQ.AF4,CQ.Overall,EQ.SampleRateQuality,EQ.OVERALL,EQ.AF3,EQ.F7,EQ.F3,EQ.FC5,EQ.T7,EQ.P7,EQ.O1,EQ.O2,EQ.P8,EQ.T8,EQ.FC6,EQ.F4,EQ.F8,EQ.AF4,MOT.CounterMems,MOT.InterpolatedMems,MOT.Q0,MOT.Q1,MOT.Q2,MOT.Q3,MOT.AccX,MOT.AccY,MOT.AccZ,MOT.MagX,MOT.MagY,MOT.MagZ,PM.Attention.IsActive,PM.Attention.Scaled,PM.Attention.Raw,PM.Attention.Min,PM.Attention.Max,PM.Engagement.IsActive,PM.Engagement.Scaled,PM.Engagement.Raw,PM.Engagement.Min,PM.Engagement.Max,PM.Excitement.IsActive,PM.Excitement.Scaled,PM.Excitement.Raw,PM.Excitement.Min,PM.Excitement.Max,PM.LongTermExcitement,PM.Stress.IsActive,PM.Stress.Scaled,PM.Stress.Raw,PM.Stress.Min,PM.Stress.Max,PM.Relaxation.IsActive,PM.Relaxation.Scaled,PM.Relaxation.Raw,PM.Relaxation.Min,PM.Relaxation.Max,PM.Interest.IsActive,PM.Interest.Scaled,PM.Interest.Raw,PM.Interest.Min,PM.Interest.Max,PM.Focus.IsActive,PM.Focus.Scaled,PM.Focus.Raw,PM.Focus.Min,PM.Focus.Max,POW.AF3.Theta,POW.AF3.Alpha,POW.AF3.BetaL,POW.AF3.BetaH,POW.AF3.Gamma,POW.F7.Theta,POW.F7.Alpha,POW.F7.BetaL,POW.F7.BetaH,POW.F7.Gamma,POW.F3.Theta,POW.F3.Alpha,POW.F3.BetaL,POW.F3.BetaH,POW.F3.Gamma,POW.FC5.Theta,POW.FC5.Alpha,POW.FC5.BetaL,POW.FC5.BetaH,POW.FC5.Gamma,POW.T7.Theta,POW.T7.Alpha,POW.T7.BetaL,POW.T7.BetaH,POW.T7.Gamma,POW.P7.Theta,POW.P7.Alpha,POW.P7.BetaL,POW.P7.BetaH,POW.P7.Gamma,POW.O1.Theta,POW.O1.Alpha,POW.O1.BetaL,POW.O1.BetaH,POW.O1.Gamma,POW.O2.Theta,POW.O2.Alpha,POW.O2.BetaL,POW.O2.BetaH,POW.O2.Gamma,POW.P8.Theta,POW.P8.Alpha,POW.P8.BetaL,POW.P8.BetaH,POW.P8.Gamma,POW.T8.Theta,POW.T8.Alpha,POW.T8.BetaL,POW.T8.BetaH,POW.T8.Gamma,POW.FC6.Theta,POW.FC6.Alpha,POW.FC6.BetaL,POW.FC6.BetaH,POW.FC6.Gamma,POW.F4.Theta,POW.F4.Alpha,POW.F4.BetaL,POW.F4.BetaH,POW.F4.Gamma,POW.F8.Theta,POW.F8.Alpha,POW.F8.BetaL,POW.F8.BetaH,POW.F8.Gamma,POW.AF4.Theta,POW.AF4.Alpha,POW.AF4.BetaL,POW.AF4.BetaH,POW.AF4.Gamma
,,,,,,,,,,,,,,,,,,,,,,,,,,,,,,,,,,,,,,,,,,,,,,,,,,,,,,,,,,,,,,,,,,,,,,,,,,,,,,,,,,,,,,,,,,,,,,,,,,,,,,,,,,,,,,,,,,,,,,,,,,,,,,,,,,,,,,,,,,,,,,,,,,,,,,,,,,,,,,,,,,,,,,,,,,,,,
1702363029,1702363029,49,0,4247.563965,4385,4283.205078,4202.820313,4229.871582,4246.410156,4246.666504,4249.615234,4236.410156,4233.974121,4450.512695,4419.487305,4298.589844,4388.205078,0,2,51,,,,0,4,4,4,4,4,4,4,4,4,4,4,4,4,4,100,,,,,,,,,,,,,,,,,,,,,,,,,,,,,,,,,,,,,,,,,,,,,,,,,,,,,,,,,,,,,,,,,,,,,,,,,,,,,,,,,,,,,,,,,,,,,,,,,,,,,,,,,,,,,,,,,,,,,,,,,,,,,,,,,,,,,,
1702363029,1702363029,50,0,4238.333496,4378.461426,4278.846191,4204.102539,4226.794922,4257.05127,4243.077148,4246.794922,4233.205078,4231.666504,4445,4412.820313,4290.897461,4383.077148,0,2,51,,,,0,4,4,4,4,4,4,4,4,4,4,4,4,4,4,100,,,,,,,,,,,,,,,,,,,,,,,,,,,,,,,,,,,,,,,,,,,,,,,,,,,,,,,,,,,,,,,,,,,,,,,,,,,,,,,,,,,,,,,,,,,,,,,,,,,,,,,,,,,,,,,,,,,,,,,,,,,,,,,,,,,,,,
1702363029,1702363029,51,0,4237.820313,4377.692383,4278.461426,4226.025879,4233.717773,4263.974121,4254.487305,4250.512695,4238.077148,4230.256348,4450.512695,4414.487305,4286.025879,4380.641113,0,2,51,,,,0,4,4,4,4,4,4,4,4,4,4,4,4,4,4,100,,,,,,,,,,,,,,,,,,,,,,,,,,,,,,,,,,,,,,,,,,,,,,,,,,,,,,,,,,,,,,,,,,,,,,,,,,,,,,,,,,,,,,,,,,,,,,,,,,,,,,,,,,,,,,,,,,,,,,,,,,,,,,,,,,,,,,
1702363029,1702363029,52,0,4251.153809,4377.05127,4288.333496,4239.358887,4245.384766,4264.615234,4267.94873,4258.333496,4245.641113,4231.025879,4458.205078,4425.641113,4287.436035,4387.94873,0,2,51,,,,0,4,4,4,4,4,4,4,4,4,4,4,4,4,4,100,,,,,,,,,,,,,,,,,13,0,0.4802,0.199341,-0.692627,0.499939,0.85362,-0.45318,-0.078135,-27.6877,-14.520701,88.405975,,,,,,,,,,,,,,,,,,,,,,,,,,,,,,,,,,,,,,,,,,,,,,,,,,,,,,,,,,,,,,,,,,,,,,,,,,,,,,,,,,,,,,,,,,,,,,,,,,,,,,,,,,
1702363029,1702363029,53,0,4265.512695,4384.230957,4299.743652,4247.436035,4252.94873,4270,4268.589844,4264.487305,4250,4245.641113,4471.538574,4436.666504,4298.461426,4403.717773,0,2,51,,,,0,4,4,4,4,4,4,4,4,4,4,4,4,4,4,100,,,,,,,,,,,,,,,,,,,,,,,,,,,,,,,,,,,,,,,,,,,,,,,,,,,,,,,,,,,,,,,,,,,,,,,,,,,,,,,,,,,,,,,,,,,,,,,,,,,,,,,,,,,,,,,,,,,,,,,,,,,,,,,,,,,,,,
1702363029,1702363029,54,0,4262.820313,4378.589844,4294.487305,4250.256348,4245.512695,4265.641113,4254.871582,4259.102539,4244.102539,4250.256348,4465.256348,4431.922852,4290.256348,4403.461426,0,2,51,,,,0,4,4,4,4,4,4,4,4,4,4,4,4,4,4,100,,,,,,,,,,,,,,,,,,,,,,,,,,,,,,,,,,,,,,,,,,,,,,,,,,,,,,,,,,,,,,,,,,,,,,,,,,,,,,,,,,,,,,,,,,,,,,,,,,,,,,,,,,,,,,,,,,,,,,,,,,,,,,,,,,,,,,
1702363029,1702363029,55,0,4249.102539,4347.436035,4284.102539,4246.794922,4231.666504,4255.512695,4249.230957,4255.769043,4238.589844,4232.179688,4441.922852,4423.205078,4252.436035,4386.025879,0,2,51,,,,0,4,4,4,4,4,4,4,4,4,4,4,4,4,4,100,,,,,,,,,,,,,,,,,,,,,,,,,,,,,,,,,,,,,,,,,,,,,,,,,,,,,,,,,,,,,,,,,,,,,,,,,,,,,,,,,,,,,,,,,,,,,,,,,,,,,,,,,,,,,,,,,,,,,,,,,,,,,,,,,,,,,,
1702363029,1702363029,56,0,4250.384766,4334.743652,4293.461426,4258.461426,4237.307617,4261.153809,4266.025879,4264.871582,4246.410156,4228.589844,4449.102539,4431.794922,4241.410156,4392.307617,0,2,51,,,,0,4,4,4,4,4,4,4,4,4,4,4,4,4,4,100,,,,,,,,,,,,,,,,,14,0,0.480036,0.199158,-0.692749,0.5,0.858992,-0.455622,-0.07667,-27.735598,-14.718631,88.465378,,,,,,,,,,,,,,,,,,,,,,,,,,,,,,,,,,,,,,,,,,,,,,,,,,,,,,,,,,,,,,,,,,,,,,,,,,,,,,,,,,,,,,,,,,,,,,,,,,,,,,,,,,
1702363029,1702363029,57,0,4258.846191,4335.897461,4298.589844,4267.179688,4246.282227,4264.358887,4265.256348,4261.666504,4246.282227,4235.897461,4464.358887,4433.077148,4256.666504,4406.538574,0,2,51,,,,0,4,4,4,4,4,4,4,4,4,4,4,4,4,4,100,,,,,,,,,,,,,,,,,,,,,,,,,,,,,,,,,,,,,,,,,,,,,,,,,,,,,,,,,,,,,,,,,,,,,,,,,,,,,,,,,,,,,,,,,,,,,,,,,,,,,,,,,,,,,,,,,,,,,,,,,,,,,,,,,,,,,,
1702363029,1702363029,58,0,4264.230957,4329.743652,4291.153809,4261.922852,4247.820313,4260.384766,4256.282227,4255.512695,4242.563965,4237.05127,4466.538574,4429.615234,4265.512695,4408.205078,0,2,51,,,,0,4,4,4,4,4,4,4,4,4,4,4,4,4,4,100,,,,,,,,,,,,,,,,,,,,,,,,,,,,,,,,,,,,,,,,,,,,,,,,,,,,,,,,,,,,,,,,,,,,,,,,,,,,,,,,,,,,,,,,,,,,,,,,,,,,,,,,,,,,,,,,,,,,,,,,,,,,,,,,,,,,,,
1702363029,1702363029,59,0,4271.025879,4331.666504,4295.897461,4270.897461,4260.128418,4266.538574,4272.05127,4265.256348,4256.410156,4249.358887,4474.615234,4443.974121,4272.307617,4415.769043,0,2,51,,,,0,4,4,4,4,4,4,4,4,4,4,4,4,4,4,100,,,,,,,,,,,,,,,,,,,,,,,,,,,,,,,,,,,,,,,,,,,,,,,,,,,,,,,,,,,,,,,,,,,,,,,,,,,,,,,,,,,,,,,,,,,,,,,,,,,,,,,,,,,,,,,,,,,,,,,,,,,,,,,,,,,,,,
1702363029,1702363029,60,0,4262.179688,4327.05127,4295.769043,4272.436035,4256.153809,4266.282227,4269.358887,4266.666504,4259.743652,4250.512695,4471.794922,4444.615234,4272.05127,4412.94873,0,2,51,,,,0,4,4,4,4,4,4,4,4,4,4,4,4,4,4,100,,,,,,,,,,,,,,,,,15,0,0.47996,0.199036,-0.692749,0.500122,0.878525,-0.479062,-0.074228,-27.64537,-14.896768,88.352173,,,,,,,,,,,,,,,,,,,,,,,,,,,,,,,,,,,,,,,,,,,,,,,,,,,,,,,,,,,,,,,,,,,,,,,,,,,,,,,,,,,,,,,,,,,,,,,,,,,,,,,,,,
1702363029,1702363029,61,0,4246.153809,4310.641113,4280.128418,4257.179688,4227.563965,4257.05127,4244.743652,4257.179688,4246.922852,4236.025879,4456.538574,4425.641113,4257.94873,4397.820313,0,2,51,,,,0,4,4,4,4,4,4,4,4,4,4,4,4,4,4,100,,,,,,,,,,,,,,,,,,,,,,,,,,,,,,,,,,,,,,,,,,,,,,,,,,,,,,,,,,,,,,,,,,,,,,,,,,,,,,,,,,,,,,,,,,,,,,,,,,,,,,,,,,,,,,,,,,,,,,,,,,,,,,,,,,,,,,
1702363029,1702363029,62,0,4252.05127,4312.05127,4279.743652,4265.256348,4228.974121,4262.563965,4250.512695,4259.615234,4254.358887,4241.025879,4457.94873,4425.769043,4257.436035,4402.692383,0,2,51,,,,0,4,4,4,4,4,4,4,4,4,4,4,4,4,4,100,,,,,,,,,,,,,,,,,,,,,,,,,,,,,,,,,,,,,,,,,,,,,,,,,,,,,,,,,,,,,,,,,10.640665,2.287453,2.54132,1.353611,0.661834,89.221863,40.307613,19.874159,3.939944,1.00056,6.396712,1.13125,1.445982,0.964805,0.409247,21.616743,3.124701,3.404773,1.390577,0.728151,10.165889,1.65232,1.85641,2.380489,0.786066,5.047082,1.137914,0.509291,0.812181,0.409587,8.844589,2.541197,1.454915,1.176662,0.621702,3.377324,1.074307,0.412143,0.486674,0.279791,5.352496,1.579809,1.064721,0.853548,0.395638,10.059175,2.050073,1.501753,1.370508,0.682725,15.148323,3.267327,2.598552,1.997884,0.898401,13.132934,3.052186,2.875152,2.02665,0.8553,27.696278,4.241972,2.730211,1.887266,0.708255,11.00186,3.014825,3.073218,1.655621,0.76995
1702363029,1702363029,63,0,4264.230957,4328.205078,4293.846191,4283.589844,4255.256348,4268.974121,4267.436035,4267.563965,4268.333496,4253.589844,4467.94873,4438.717773,4273.205078,4414.358887,0,2,51,,,,0,4,4,4,4,4,4,4,4,4,4,4,4,4,4,100,,,,,,,,,,,,,,,,,,,,,,,,,,,,,,,,,,,,,,,,,,,,,,,,,,,,,,,,,,,,,,,,,,,,,,,,,,,,,,,,,,,,,,,,,,,,,,,,,,,,,,,,,,,,,,,,,,,,,,,,,,,,,,,,,,,,,,
1702363029,1702363029,64,0,4254.615234,4320.128418,4293.205078,4277.05127,4251.282227,4260.256348,4262.307617,4263.717773,4259.743652,4246.922852,4463.461426,4431.538574,4269.487305,4402.692383,4301,2,51,,,,0,4,4,4,4,4,4,4,4,4,4,4,4,4,4,100,,,,,,,,,,,,,,,,,16,0,0.479513,0.199097,-0.692688,0.50061,0.882432,-0.439018,-0.074716,-27.830833,-14.907091,88.366959,,,,,,,,,,,,,,,,,,,,,,,,,,,,,,,,,,,,,,,,,,,,,,,,,,,,,,,,,,,,,,,,,,,,,,,,,,,,,,,,,,,,,,,,,,,,,,,,,,,,,,,,,,
1702363029,1702363029,65,0,4251.922852,4309.871582,4289.230957,4278.589844,4249.871582,4263.589844,4265.897461,4263.077148,4256.282227,4245.641113,4461.153809,4429.871582,4269.743652,4401.666504,5485,2,51,,,,0,4,4,4,4,4,4,4,4,4,4,4,4,4,4,100,,,,,,,,,,,,,,,,,,,,,,,,,,,,,,,,,,,,,,,,,,,,,,,,,,,,,,,,,,,,,,,,,,,,,,,,,,,,,,,,,,,,,,,,,,,,,,,,,,,,,,,,,,,,,,,,,,,,,,,,,,,,,,,,,,,,,,
1702363029,1702363029,66,0,4268.461426,4322.436035,4296.282227,4300.128418,4270.128418,4279.871582,4278.205078,4269.230957,4265.512695,4256.794922,4466.282227,4446.025879,4288.589844,4416.282227,5512,2,51,,,,0,4,4,4,4,4,4,4,4,4,4,4,4,4,4,100,,,,,,,,,,,,,,,,,,,,,,,,,,,,,,,,,,,,,,,,,,,,,,,,,,,,,,,,,,,,,,,,,,,,,,,,,,,,,,,,,,,,,,,,,,,,,,,,,,,,,,,,,,,,,,,,,,,,,,,,,,,,,,,,,,,,,,
1702363029,1702363029,67,0,4263.077148,4320.641113,4294.743652,4301.282227,4262.179688,4275.897461,4267.179688,4265.897461,4257.563965,4253.333496,4462.179688,4442.94873,4289.102539,4406.794922,5504,2,51,,,,0,4,4,4,4,4,4,4,4,4,4,4,4,4,4,100,,,,,,,,,,,,,,,,,,,,,,,,,,,,,,,,,,,,,,,,,,,,,,,,,,,,,,,,,,,,,,,,,,,,,,,,,,,,,,,,,,,,,,,,,,,,,,,,,,,,,,,,,,,,,,,,,,,,,,,,,,,,,,,,,,,,,,
1702363029,1702363029,68,0,4253.589844,4313.205078,4290.512695,4295.256348,4247.820313,4263.333496,4256.538574,4261.794922,4246.922852,4245.769043,4459.743652,4433.846191,4280.897461,4397.94873,5404,2,51,,,,0,4,4,4,4,4,4,4,4,4,4,4,4,4,4,100,,,,,,,,,,,,,,,,,17,0,0.478431,0.19928,-0.69281,0.501404,0.878525,-0.439995,-0.07667,-27.864416,-14.916382,88.346924,,,,,,,,,,,,,,,,,,,,,,,,,,,,,,,,,,,,,,,,,,,,,,,,,,,,,,,,,,,,,,,,,,,,,,,,,,,,,,,,,,,,,,,,,,,,,,,,,,,,,,,,,,
1702363029,1702363029,69,0,4257.179688,4316.282227,4292.820313,4296.282227,4248.846191,4262.563965,4262.05127,4263.717773,4247.692383,4245.128418,4457.820313,4434.615234,4278.974121,4404.358887,4188,2,51,,,,0,4,4,4,4,4,4,4,4,4,4,4,4,4,4,100,,,,,,,,,,,,,,,,,,,,,,,,,,,,,,,,,,,,,,,,,,,,,,,,,,,,,,,,,,,,,,,,,,,,,,,,,,,,,,,,,,,,,,,,,,,,,,,,,,,,,,,,,,,,,,,,,,,,,,,,,,,,,,,,,,,,,,
1702363029,1702363029,70,0,4254.871582,4323.333496,4292.563965,4295.769043,4250.897461,4265.641113,4259.871582,4264.487305,4250.641113,4244.487305,4458.333496,4435.897461,4278.717773,4406.538574,5262,2,51,,,,0,4,4,4,4,4,4,4,4,4,4,4,4,4,4,100,,,,,,,,,,,,,,,,,,,,,,,,,,,,,,,,,,,,,,,,,,,,,,,,,,,,,,,,,,,,,,,,,,,,,,,,,,,,,,,,,,,,,,,,,,,,,,,,,,,,,,,,,,,,,,,,,,,,,,,,,,,,,,,,,,,,,,
1702363029,1702363029,71,0,4258.333496,4338.589844,4294.615234,4303.589844,4261.153809,4271.410156,4257.563965,4265,4258.333496,4255.641113,4471.666504,4442.692383,4283.333496,4408.589844,3789,2,51,,,,0,4,4,4,4,4,4,4,4,4,4,4,4,4,4,100,,,,,,,,,,,,,,,,,,,,,,,,,,,,,,,,,,,,,,,,,,,,,,,,,,,,,,,,,,,,,,,,,,,,,,,,,,,,,,,,,,,,,,,,,,,,,,,,,,,,,,,,,,,,,,,,,,,,,,,,,,,,,,,,,,,,,,
1702363029,1702363029,72,0,4260.512695,4342.179688,4295.256348,4302.436035,4262.563965,4272.563965,4264.230957,4266.410156,4261.922852,4259.743652,4467.692383,4444.102539,4278.717773,4406.794922,4412,2,51,,,,0,4,4,4,4,4,4,4,4,4,4,4,4,4,4,100,,,,,,,,,,,,,,,,,18,0,0.476626,0.198853,-0.693115,0.502869,0.85069,-0.455622,-0.072763,-27.961308,-15.024744,88.29557,,,,,,,,,,,,,,,,,,,,,,,,,,,,,,,,,,,,,,,,,,,,,,,,,,,,,,,,,,,,,,,,,,,,,,,,,,,,,,,,,,,,,,,,,,,,,,,,,,,,,,,,,,
1702363029,1702363029,73,0,4250.512695,4335.769043,4290.769043,4289.615234,4238.333496,4265.641113,4263.205078,4266.666504,4253.589844,4241.794922,4447.436035,4432.692383,4265,4396.666504,5507,2,51,,,,0,4,4,4,4,4,4,4,4,4,4,4,4,4,4,100,,,,,,,,,,,,,,,,,,,,,,,,,,,,,,,,,,,,,,,,,,,,,,,,,,,,,,,,,,,,,,,,,,,,,,,,,,,,,,,,,,,,,,,,,,,,,,,,,,,,,,,,,,,,,,,,,,,,,,,,,,,,,,,,,,,,,,
1702363029,1702363029,74,0,4253.461426,4347.179688,4290.897461,4295.641113,4233.717773,4263.974121,4252.05127,4263.589844,4248.205078,4238.205078,4452.436035,4431.794922,4273.974121,4399.230957,6017,2,51,,,,0,4,4,4,4,4,4,4,4,4,4,4,4,4,4,100,,,,,,,,,,,,,,,,,,,,,,,,,,,,,,,,,,,,,,,,,,,,,,,,,,,,,,,,,,,,,,,,,,,,,,,,,,,,,,,,,,,,,,,,,,,,,,,,,,,,,,,,,,,,,,,,,,,,,,,,,,,,,,,,,,,,,,
1702363029,1702363029,75,0,4259.487305,4355.128418,4290.641113,4303.333496,4248.205078,4256.410156,4240.256348,4252.820313,4246.794922,4249.487305,4463.205078,4431.666504,4287.563965,4402.820313,6137,2,51,,,,0,4,4,4,4,4,4,4,4,4,4,4,4,4,4,100,,,,,,,,,,,,,,,,,,,,,,,,,,,,,,,,,,,,,,,,,,,,,,,,,,,,,,,,,,,,,,,,,,,,,,,,,,,,,,,,,,,,,,,,,,,,,,,,,,,,,,,,,,,,,,,,,,,,,,,,,,,,,,,,,,,,,,
1702363029,1702363029,76,0,4238.974121,4344.102539,4277.307617,4288.717773,4238.077148,4243.205078,4229.615234,4244.230957,4234.358887,4235.512695,4445.384766,4410.256348,4269.102539,4381.410156,6501,2,51,,,,0,4,4,4,4,4,4,4,4,4,4,4,4,4,4,100,,,,,,,,,,,,,,,,,19,0,0.474854,0.198181,-0.693237,0.504639,0.848248,-0.484434,-0.076181,-27.881844,-14.955603,88.216011,,,,,,,,,,,,,,,,,,,,,,,,,,,,,,,,,,,,,,,,,,,,,,,,,,,,,,,,,,,,,,,,,,,,,,,,,,,,,,,,,,,,,,,,,,,,,,,,,,,,,,,,,,
1702363029,1702363029,77,0,4225.769043,4357.94873,4267.94873,4284.871582,4233.205078,4249.487305,4228.333496,4252.307617,4228.333496,4218.333496,4433.461426,4401.666504,4257.436035,4367.179688,6693,2,51,,,,0,4,4,4,4,4,4,4,4,4,4,4,4,4,4,100,,,,,,,,,,,,,,,,,,,,,,,,,,,,,,,,,,,,,,,,,,,,,,,,,,,,,,,,,,,,,,,,,,,,,,,,,,,,,,,,,,,,,,,,,,,,,,,,,,,,,,,,,,,,,,,,,,,,,,,,,,,,,,,,,,,,,,
1702363029,1702363029,78,0,4237.436035,4387.179688,4274.615234,4300,4240.769043,4255.769043,4236.538574,4259.102539,4236.794922,4228.205078,4443.077148,4413.846191,4267.94873,4377.436035,6017,2,51,,,,0,4,4,4,4,4,4,4,4,4,4,4,4,4,4,100,,,,,,,,,,,,,,,,,,,,,,,,,,,,,,,,,,,,,,,,,,,,,,,,,,,,,,,,,,,,,,,,,8.856763,2.08528,2.595963,1.375878,0.667788,72.695969,31.943987,15.332537,3.56007,0.863212,4.874082,1.042324,1.533255,0.992841,0.399893,19.300653,2.741788,3.439284,1.507334,0.699266,8.071205,1.524294,1.836386,2.628106,0.783195,4.046493,1.081265,0.458861,0.833009,0.403466,6.576005,2.388834,1.404562,1.174227,0.637783,2.624997,0.899438,0.361376,0.503304,0.292301,4.262942,1.241643,0.923046,0.859533,0.413828,7.777034,1.644862,1.282972,1.292487,0.70777,13.267335,2.867564,2.754856,2.036572,0.867619,10.144542,2.584686,3.035258,2.148134,0.855358,20.058044,3.228336,2.631781,1.806773,0.682143,9.038895,2.511848,3.203834,1.685989,0.762404
1702363029,1702363029,79,0,4236.153809,4385,4278.077148,4299.743652,4222.563965,4244.871582,4237.05127,4248.974121,4236.025879,4235.769043,4443.205078,4413.589844,4260.641113,4375.512695,6137,2,51,,,,0,4,4,4,4,4,4,4,4,4,4,4,4,4,4,100,,,,,,,,,,,,,,,,,,,,,,,,,,,,,,,,,,,,,,,,,,,,,,,,,,,,,,,,,,,,,,,,,,,,,,,,,,,,,,,,,,,,,,,,,,,,,,,,,,,,,,,,,,,,,,,,,,,,,,,,,,,,,,,,,,,,,,
1702363029,1702363029,80,0,4227.179688,4381.153809,4276.153809,4290.769043,4215.128418,4245,4230.128418,4245.256348,4231.410156,4230.384766,4436.794922,4407.820313,4241.666504,4363.974121,6501,2,51,,,,0,4,4,4,4,4,4,4,4,4,4,4,4,4,4,100,,,,,,,,,,,,,,,,,20,0,0.473657,0.197388,-0.693481,0.505737,0.854108,-0.491271,-0.067879,-27.926992,-14.893375,88.177742,,,,,,,,,,,,,,,,,,,,,,,,,,,,,,,,,,,,,,,,,,,,,,,,,,,,,,,,,,,,,,,,,,,,,,,,,,,,,,,,,,,,,,,,,,,,,,,,,,,,,,,,,,
1702363029,1702363029,81,0,4234.230957,4397.179688,4277.436035,4295.384766,4238.846191,4252.436035,4230.384766,4257.94873,4239.230957,4232.820313,4438.333496,4412.05127,4240.897461,4370.512695,6693,2,51,,,,0,4,4,4,4,4,4,4,4,4,4,4,4,4,4,100,,,,,,,,,,,,,,,,,,,,,,,,,,,,,,,,,,,,,,,,,,,,,,,,,,,,,,,,,,,,,,,,,,,,,,,,,,,,,,,,,,,,,,,,,,,,,,,,,,,,,,,,,,,,,,,,,,,,,,,,,,,,,,,,,,,,,,
1702363029,1702363029,82,0,4241.538574,4402.05127,4279.358887,4305.641113,4245.769043,4246.922852,4234.743652,4262.820313,4245.384766,4234.102539,4443.717773,4415.897461,4248.205078,4381.922852,6017,2,51,,,,0,4,4,4,4,4,4,4,4,4,4,4,4,4,4,100,,,,,,,,,,,,,,,,,,,,,,,,,,,,,,,,,,,,,,,,,,,,,,,,,,,,,,,,,,,,,,,,,,,,,,,,,,,,,,,,,,,,,,,,,,,,,,,,,,,,,,,,,,,,,,,,,,,,,,,,,,,,,,,,,,,,,,
1702363029,1702363029,83,0,4236.794922,4393.846191,4279.230957,4307.179688,4227.436035,4243.974121,4232.179688,4253.333496,4236.538574,4223.461426,4440.641113,4414.871582,4245.384766,4377.307617,6137,2,51,,,,0,4,4,4,4,4,4,4,4,4,4,4,4,4,4,100,,,,,,,,,,,,,,,,,,,,,,,,,,,,,,,,,,,,,,,,,,,,,,,,,,,,,,,,,,,,,,,,,,,,,,,,,,,,,,,,,,,,,,,,,,,,,,,,,,,,,,,,,,,,,,,,,,,,,,,,,,,,,,,,,,,,,,
1702363029,1702363029,84,0,4230.769043,4399.102539,4271.794922,4303.974121,4219.102539,4245.256348,4219.358887,4247.436035,4229.230957,4214.358887,4434.615234,4410.769043,4243.589844,4368.717773,6501,2,51,,,,0,4,4,4,4,4,4,4,4,4,4,4,4,4,4,100,,,,,,,,,,,,,,,,,21,0,0.473177,0.196411,-0.693909,0.505981,0.852155,-0.507874,-0.089855,-27.817627,-14.770705,88.0933,,,,,,,,,,,,,,,,,,,,,,,,,,,,,,,,,,,,,,,,,,,,,,,,,,,,,,,,,,,,,,,,,,,,,,,,,,,,,,,,,,,,,,,,,,,,,,,,,,,,,,,,,,
1702363029,1702363029,85,0,4232.436035,4413.205078,4267.307617,4308.461426,4219.615234,4244.358887,4217.05127,4250.512695,4233.717773,4218.717773,4440.128418,4405.256348,4254.358887,4373.461426,6693,2,51,,,,0,4,4,4,4,4,4,4,4,4,4,4,4,4,4,100,,,,,,,,,,,,,,,,,,,,,,,,,,,,,,,,,,,,,,,,,,,,,,,,,,,,,,,,,,,,,,,,,,,,,,,,,,,,,,,,,,,,,,,,,,,,,,,,,,,,,,,,,,,,,,,,,,,,,,,,,,,,,,,,,,,,,,
1702363029,1702363029,86,0,4232.436035,4411.153809,4270.641113,4310.256348,4215.512695,4242.692383,4224.230957,4249.615234,4228.717773,4218.333496,4439.358887,4403.717773,4260.256348,4378.461426,6017,2,51,,,,0,4,4,4,4,4,4,4,4,4,4,4,4,4,4,100,,,,,,,,,,,,,,,,,,,,,,,,,,,,,,,,,,,,,,,,,,,,,,,,,,,,,,,,,,,,,,,,,,,,,,,,,,,,,,,,,,,,,,,,,,,,,,,,,,,,,,,,,,,,,,,,,,,,,,,,,,,,,,,,,,,,,,
1702363029,1702363029,87,0,4236.538574,4412.179688,4277.692383,4308.461426,4222.307617,4239.743652,4224.615234,4245.641113,4220.128418,4210.641113,4433.205078,4413.333496,4260.128418,4382.179688,6137,2,51,,,,0,4,4,4,4,4,4,4,4,4,4,4,4,4,4,100,,,,,,,,,,,,,,,,,,,,,,,,,,,,,,,,,,,,,,,,,,,,,,,,,,,,,,,,,,,,,,,,,,,,,,,,,,,,,,,,,,,,,,,,,,,,,,,,,,,,,,,,,,,,,,,,,,,,,,,,,,,,,,,,,,,,,,
1702363029,1702363029,88,0,4255.384766,4434.487305,4286.410156,4318.205078,4235.512695,4240.256348,4227.179688,4249.230957,4229.102539,4220.641113,4448.333496,4428.589844,4272.563965,4396.538574,6501,2,51,,,,0,4,4,4,4,4,4,4,4,4,4,4,4,4,4,100,,,,,,,,,,,,,,,,,22,0,0.473149,0.195496,-0.694275,0.505859,0.849225,-0.488341,-0.077646,-28.035864,-14.843635,88.033974,,,,,,,,,,,,,,,,,,,,,,,,,,,,,,,,,,,,,,,,,,,,,,,,,,,,,,,,,,,,,,,,,,,,,,,,,,,,,,,,,,,,,,,,,,,,,,,,,,,,,,,,,,
1702363029,1702363029,89,0,4265.769043,4448.077148,4288.846191,4329.102539,4229.743652,4245.256348,4232.179688,4252.692383,4238.077148,4235.897461,4463.717773,4431.666504,4287.563965,4405.897461,6693,2,51,,,,0,4,4,4,4,4,4,4,4,4,4,4,4,4,4,100,,,,,,,,,,,,,,,,,,,,,,,,,,,,,,,,,,,,,,,,,,,,,,,,,,,,,,,,,,,,,,,,,,,,,,,,,,,,,,,,,,,,,,,,,,,,,,,,,,,,,,,,,,,,,,,,,,,,,,,,,,,,,,,,,,,,,,
1702363029,1702363029,90,0,4258.974121,4443.333496,4282.05127,4326.153809,4223.974121,4248.589844,4231.794922,4250.641113,4233.717773,4235.897461,4460.512695,4425.384766,4289.102539,4399.230957,6017,2,51,,,,0,4,4,4,4,4,4,4,4,4,4,4,4,4,4,100,,,,,,,,,,,,,,,,,,,,,,,,,,,,,,,,,,,,,,,,,,,,,,,,,,,,,,,,,,,,,,,,,,,,,,,,,,,,,,,,,,,,,,,,,,,,,,,,,,,,,,,,,,,,,,,,,,,,,,,,,,,,,,,,,,,,,,
1702363029,1702363029,91,0,4257.179688,4442.436035,4280.512695,4316.025879,4232.179688,4247.05127,4229.743652,4250.512695,4232.436035,4232.563965,4456.666504,4425.897461,4287.436035,4393.333496,6137,2,51,,,,0,4,4,4,4,4,4,4,4,4,4,4,4,4,4,100,,,,,,,,,,,,,,,,,,,,,,,,,,,,,,,,,,,,,,,,,,,,,,,,,,,,,,,,,,,,,,,,,,,,,,,,,,,,,,,,,,,,,,,,,,,,,,,,,,,,,,,,,,,,,,,,,,,,,,,,,,,,,,,,,,,,,,
1702363029,1702363029,92,0,4266.153809,4445.512695,4289.743652,4316.922852,4231.538574,4244.743652,4229.230957,4254.615234,4237.563965,4234.743652,4457.94873,4435.769043,4295.897461,4404.230957,6501,2,51,,,,0,4,4,4,4,4,4,4,4,4,4,4,4,4,4,100,,,,,,,,,,,,,,,,,23,0,0.473316,0.19519,-0.694336,0.505737,0.85655,-0.485899,-0.083018,-27.965611,-14.775938,87.91391,,,,,,,,,,,,,,,,,,,,,,,,,,,,,,,,,,,,,,,,,,,,,,,,,,,,,,,,,,,,,,,,,,,,,,,,,,,,,,,,,,,,,,,,,,,,,,,,,,,,,,,,,,
1702363029,1702363029,93,0,4268.974121,4439.615234,4291.538574,4327.94873,4230.512695,4245.256348,4229.487305,4257.820313,4237.05127,4234.102539,4463.846191,4443.461426,4303.205078,4412.436035,6693,2,51,,,,0,4,4,4,4,4,4,4,4,4,4,4,4,4,4,100,,,,,,,,,,,,,,,,,,,,,,,,,,,,,,,,,,,,,,,,,,,,,,,,,,,,,,,,,,,,,,,,,,,,,,,,,,,,,,,,,,,,,,,,,,,,,,,,,,,,,,,,,,,,,,,,,,,,,,,,,,,,,,,,,,,,,,
1702363029,1702363029,94,0,4257.436035,4430.128418,4283.717773,4329.358887,4237.94873,4246.794922,4229.871582,4257.179688,4233.846191,4232.307617,4464.102539,4437.436035,4300.384766,4402.307617,6017,2,51,,,,0,4,4,4,4,4,4,4,4,4,4,4,4,4,4,100,,,,,,,,,,,,,,,,,,,,,,,,,,,,,,,,,,,,,,,,,,,,,,,,,,,,,,,,,,,,,,,,,7.251864,1.867486,2.41995,1.357241,0.670983,55.846706,22.399147,10.445522,3.055522,0.7166,3.676576,0.957236,1.504737,0.968308,0.378171,16.386658,2.454846,3.229368,1.591231,0.676269,6.33007,1.333787,1.641699,2.662142,0.796113,3.170389,0.960685,0.404247,0.806951,0.407807,4.806667,2.133896,1.299026,1.12605,0.647375,1.989728,0.748456,0.316135,0.512621,0.309793,3.346086,1.015457,0.760486,0.810228,0.430328,5.884768,1.377629,1.10743,1.193878,0.730199,11.369554,2.504002,2.758517,1.970842,0.843398,7.741708,2.181138,2.981879,2.132644,0.86651,15.126714,2.454332,2.44342,1.701107,0.6737,7.212778,2.071294,3.057414,1.645889,0.74966
1702363029,1702363029,95,0,4242.179688,4418.846191,4278.205078,4319.615234,4228.205078,4243.461426,4223.461426,4250.641113,4230.897461,4231.153809,4446.538574,4420.384766,4290.256348,4385,6137,2,51,,,,0,4,4,4,4,4,4,4,4,4,4,4,4,4,4,100,,,,,,,,,,,,,,,,,,,,,,,,,,,,,,,,,,,,,,,,,,,,,,,,,,,,,,,,,,,,,,,,,,,,,,,,,,,,,,,,,,,,,,,,,,,,,,,,,,,,,,,,,,,,,,,,,,,,,,,,,,,,,,,,,,,,,,
1702363029,1702363029,96,0,4237.94873,4409.871582,4276.025879,4321.410156,4219.102539,4236.282227,4216.153809,4249.871582,4231.282227,4228.205078,4436.794922,4416.538574,4286.538574,4378.077148,6501,2,51,,,,0,4,4,4,4,4,4,4,4,4,4,4,4,4,4,100,,,,,,,,,,,,,,,,,24,0,0.473548,0.194885,-0.694397,0.505554,0.857038,-0.474179,-0.068368,-27.969049,-14.765011,87.905853,,,,,,,,,,,,,,,,,,,,,,,,,,,,,,,,,,,,,,,,,,,,,,,,,,,,,,,,,,,,,,,,,,,,,,,,,,,,,,,,,,,,,,,,,,,,,,,,,,,,,,,,,,
1702363029,1702363029,97,0,4245.512695,4415.897461,4278.205078,4334.230957,4231.666504,4233.846191,4220.897461,4253.974121,4238.589844,4235.641113,4452.307617,4427.179688,4300.256348,4387.05127,6693,2,51,,,,0,4,4,4,4,4,4,4,4,4,4,4,4,4,4,100,,,,,,,,,,,,,,,,,,,,,,,,,,,,,,,,,,,,,,,,,,,,,,,,,,,,,,,,,,,,,,,,,,,,,,,,,,,,,,,,,,,,,,,,,,,,,,,,,,,,,,,,,,,,,,,,,,,,,,,,,,,,,,,,,,,,,,
1702363029,1702363029,98,0,4244.230957,4410.641113,4278.846191,4331.282227,4234.743652,4234.871582,4223.717773,4255.256348,4244.743652,4247.94873,4462.692383,4430.769043,4312.307617,4394.358887,6017,2,51,,,,0,4,4,4,4,4,4,4,4,4,4,4,4,4,4,100,,,,,,,,,,,,,,,,,,,,,,,,,,,,,,,,,,,,,,,,,,,,,,,,,,,,,,,,,,,,,,,,,,,,,,,,,,,,,,,,,,,,,,,,,,,,,,,,,,,,,,,,,,,,,,,,,,,,,,,,,,,,,,,,,,,,,,
1702363029,1702363029,99,0,4236.922852,4397.436035,4277.307617,4322.692383,4228.846191,4241.922852,4219.615234,4256.538574,4249.487305,4248.333496,4459.871582,4431.538574,4306.666504,4390.384766,6137,2,51,,,,0,4,4,4,4,4,4,4,4,4,4,4,4,4,4,100,,,,,,,,,,,,,,,,,,,,,,,,,,,,,,,,,,,,,,,,,,,,,,,,,,,,,,,,,,,,,,,,,,,,,,,,,,,,,,,,,,,,,,,,,,,,,,,,,,,,,,,,,,,,,,,,,,,,,,,,,,,,,,,,,,,,,,
1702363029,1702363029,100,0,4243.846191,4417.563965,4278.333496,4329.743652,4239.743652,4245.128418,4217.436035,4252.94873,4247.563965,4247.179688,4459.358887,4433.205078,4301.282227,4387.307617,6501,2,51,,,,0,4,4,4,4,4,4,4,4,4,4,4,4,4,4,100,,,,,,,,,,,,,,,,,25,0,0.473753,0.194702,-0.694397,0.505432,0.86534,-0.487364,-0.082041,-27.922146,-14.671843,88.065269,,,,,,,,,,,,,,,,,,,,,,,,,,,,,,,,,,,,,,,,,,,,,,,,,,,,,,,,,,,,,,,,,,,,,,,,,,,,,,,,,,,,,,,,,,,,,,,,,,,,,,,,,,
1702363029,1702363029,101,0,4259.615234,4451.794922,4280.897461,4341.922852,4253.077148,4238.589844,4216.666504,4247.179688,4236.025879,4246.922852,4456.282227,4431.153809,4303.205078,4395.512695,6693,2,51,,,,0,4,4,4,4,4,4,4,4,4,4,4,4,4,4,100,,,,,,,,,,,,,,,,,,,,,,,,,,,,,,,,,,,,,,,,,,,,,,,,,,,,,,,,,,,,,,,,,,,,,,,,,,,,,,,,,,,,,,,,,,,,,,,,,,,,,,,,,,,,,,,,,,,,,,,,,,,,,,,,,,,,,,
1702363029,1702363029,102,0,4262.94873,4451.153809,4280.128418,4344.487305,4252.436035,4237.179688,4220.641113,4252.820313,4234.102539,4236.666504,4446.538574,4428.846191,4300.512695,4399.743652,6017,2,51,,,,0,4,4,4,4,4,4,4,4,4,4,4,4,4,4,100,,,,,,,,,,,,,,,,,,,,,,,,,,,,,,,,,,,,,,,,,,,,,,,,,,,,,,,,,,,,,,,,,,,,,,,,,,,,,,,,,,,,,,,,,,,,,,,,,,,,,,,,,,,,,,,,,,,,,,,,,,,,,,,,,,,,,,
1702363029,1702363029,103,0,4258.974121,4435.641113,4279.615234,4342.179688,4240.384766,4246.538574,4231.025879,4263.077148,4243.717773,4231.153809,4438.846191,4429.615234,4301.282227,4395,6137,2,51,,,,0,4,4,4,4,4,4,4,4,4,4,4,4,4,4,100,,,,,,,,,,,,,,,,,,,,,,,,,,,,,,,,,,,,,,,,,,,,,,,,,,,,,,,,,,,,,,,,,,,,,,,,,,,,,,,,,,,,,,,,,,,,,,,,,,,,,,,,,,,,,,,,,,,,,,,,,,,,,,,,,,,,,,
1702363029,1702363029,104,0,4268.461426,4441.922852,4291.153809,4352.692383,4249.743652,4257.692383,4241.025879,4263.205078,4249.871582,4248.461426,4446.794922,4438.589844,4316.538574,4401.666504,6501,2,51,,,,0,4,4,4,4,4,4,4,4,4,4,4,4,4,4,100,,,,,,,,,,,,,,,,,26,0,0.473922,0.194885,-0.694275,0.505371,0.870712,-0.478574,-0.090831,-27.979931,-14.821325,88.19207,,,,,,,,,,,,,,,,,,,,,,,,,,,,,,,,,,,,,,,,,,,,,,,,,,,,,,,,,,,,,,,,,,,,,,,,,,,,,,,,,,,,,,,,,,,,,,,,,,,,,,,,,,
1702363029,1702363029,105,0,4280.769043,4447.179688,4305.128418,4367.94873,4277.179688,4263.333496,4248.974121,4265.256348,4254.871582,4264.230957,4465.512695,4455.256348,4330.769043,4415.512695,6693,2,51,,,,0,4,4,4,4,4,4,4,4,4,4,4,4,4,4,100,,,,,,,,,,,,,,,,,,,,,,,,,,,,,,,,,,,,,,,,,,,,,,,,,,,,,,,,,,,,,,,,,,,,,,,,,,,,,,,,,,,,,,,,,,,,,,,,,,,,,,,,,,,,,,,,,,,,,,,,,,,,,,,,,,,,,,
1702363029,1702363029,106,0,4279.487305,4442.05127,4305,4368.846191,4276.922852,4263.333496,4251.538574,4272.94873,4261.794922,4262.436035,4473.717773,4463.846191,4338.461426,4418.077148,6017,2,51,,,,0,4,4,4,4,4,4,4,4,4,4,4,4,4,4,100,,,,,,,,,,,,,,,,,,,,,,,,,,,,,,,,,,,,,,,,,,,,,,,,,,,,,,,,,,,,,,,,,,,,,,,,,,,,,,,,,,,,,,,,,,,,,,,,,,,,,,,,,,,,,,,,,,,,,,,,,,,,,,,,,,,,,,
1702363029,1702363029,107,0,4278.974121,4449.615234,4304.615234,4368.846191,4266.538574,4262.563965,4251.538574,4274.743652,4264.871582,4267.692383,4473.205078,4461.922852,4347.820313,4416.282227,6137,2,51,,,,0,4,4,4,4,4,4,4,4,4,4,4,4,4,4,100,,,,,,,,,,,,,,,,,,,,,,,,,,,,,,,,,,,,,,,,,,,,,,,,,,,,,,,,,,,,,,,,,,,,,,,,,,,,,,,,,,,,,,,,,,,,,,,,,,,,,,,,,,,,,,,,,,,,,,,,,,,,,,,,,,,,,,
1702363029,1702363029,108,0,4279.358887,4458.077148,4309.743652,4375.384766,4274.358887,4268.333496,4256.922852,4274.743652,4266.410156,4278.333496,4475.256348,4461.153809,4355.384766,4417.307617,6501,2,51,,,,0,4,4,4,4,4,4,4,4,4,4,4,4,4,4,100,,,,,,,,,,,,,,,,,27,0,0.473897,0.194946,-0.694275,0.505371,0.844341,-0.480527,-0.072763,-28.065271,-14.772526,88.122864,,,,,,,,,,,,,,,,,,,,,,,,,,,,,,,,,,,,,,,,,,,,,,,,,,,,,,,,,,,,,,,,,,,,,,,,,,,,,,,,,,,,,,,,,,,,,,,,,,,,,,,,,,
1702363029,1702363029,109,0,4274.743652,4457.563965,4307.436035,4376.282227,4286.025879,4274.743652,4260.769043,4275.897461,4272.179688,4278.717773,4480.256348,4466.666504,4364.615234,4418.589844,6693,2,51,,,,0,4,4,4,4,4,4,4,4,4,4,4,4,4,4,100,,,,,,,,,,,,,,,,,,,,,,,,,,,,,,,,,,,,,,,,,,,,,,,,,,,,,,,,,,,,,,,,,,,,,,,,,,,,,,,,,,,,,,,,,,,,,,,,,,,,,,,,,,,,,,,,,,,,,,,,,,,,,,,,,,,,,,
1702363029,1702363029,110,0,4286.410156,4466.025879,4307.692383,4385.128418,4295.256348,4279.102539,4268.461426,4279.487305,4279.487305,4287.179688,4489.358887,4479.615234,4382.563965,4429.102539,6017,2,51,,,,0,4,4,4,4,4,4,4,4,4,4,4,4,4,4,100,1,41.666668,4,1,4,1,3,4,3,4,4,3,4,3,4,4,,,,,,,,,,,,,,,,,,,,,,,,,,,,,,,,,,,,,,,,,,,,,,,,,5.993537,1.639494,2.066344,1.293521,0.681881,42.075439,14.112108,6.529507,2.577632,0.611127,2.960579,0.864224,1.361478,0.891644,0.356014,14.452499,2.272974,2.870017,1.630077,0.677353,5.044572,1.104065,1.327232,2.498271,0.829938,2.524523,0.800157,0.357551,0.742002,0.426371,3.654396,1.801812,1.163065,1.046461,0.652092,1.554082,0.636005,0.285515,0.511311,0.329203,2.742342,0.896606,0.609903,0.719068,0.443613,4.638153,1.243659,0.984512,1.086148,0.74826,9.740414,2.212945,2.567647,1.817419,0.841378,6.165124,1.837587,2.707456,1.975026,0.895845,12.37952,2.034842,2.14395,1.593913,0.689953,5.832409,1.717034,2.669876,1.524037,0.742134
1702363029,1702363029,111,0,4298.077148,4472.820313,4314.871582,4397.05127,4300.897461,4282.692383,4277.563965,4280.897461,4280,4299.102539,4496.666504,4485.256348,4391.666504,4440.256348,6137,2,51,,,,0,4,4,4,4,4,4,4,4,4,4,4,4,4,4,100,,,,,,,,,,,,,,,,,,,,,,,,,,,,,,,,,,,,,,,,,,,,,,,,,,,,,,,,,,,,,,,,,,,,,,,,,,,,,,,,,,,,,,,,,,,,,,,,,,,,,,,,,,,,,,,,,,,,,,,,,,,,,,,,,,,,,,
1702363029,1702363029,112,0,4285,4455.641113,4310.769043,4385.256348,4290.384766,4277.692383,4268.077148,4277.94873,4272.94873,4288.205078,4490.512695,4475.769043,4385.384766,4431.922852,6501,2,51,,,,0,4,4,4,4,4,4,4,4,4,4,4,4,4,4,100,,,,,,,,,,,,,,,,,28,0,0.47399,0.19458,-0.694092,0.505676,0.850201,-0.486876,-0.066903,-28.092077,-14.81194,88.143913,,,,,,,,,,,,,,,,,,,,,,,,,,,,,,,,,,,,,,,,,,,,,,,,,,,,,,,,,,,,,,,,,,,,,,,,,,,,,,,,,,,,,,,,,,,,,,,,,,,,,,,,,,
1702363029,1702363029,113,0,4283.846191,4445.384766,4306.410156,4377.692383,4279.358887,4276.410156,4260.769043,4276.410156,4273.077148,4274.615234,4486.794922,4473.461426,4385.641113,4428.205078,6693,2,51,,,,0,4,4,4,4,4,4,4,4,4,4,4,4,4,4,100,,,,,,,,,,,,,,,,,,,,,,,,,,,,,,,,,,,,,,,,,,,,,,,,,,,,,,,,,,,,,,,,,,,,,,,,,,,,,,,,,,,,,,,,,,,,,,,,,,,,,,,,,,,,,,,,,,,,,,,,,,,,,,,,,,,,,,
1702363029,1702363029,114,0,4298.077148,4454.743652,4311.666504,4392.94873,4279.871582,4279.743652,4270.769043,4278.333496,4277.94873,4286.538574,4496.922852,4481.153809,4392.94873,4441.410156,6017,2,51,,,,0,4,4,4,4,4,4,4,4,4,4,4,4,4,4,100,,,,,,,,,,,,,,,,,,,,,,,,,,,,,,,,,,,,,,,,,,,,,,,,,,,,,,,,,,,,,,,,,,,,,,,,,,,,,,,,,,,,,,,,,,,,,,,,,,,,,,,,,,,,,,,,,,,,,,,,,,,,,,,,,,,,,,
1702363029,1702363029,115,0,4298.077148,4459.871582,4311.666504,4397.05127,4287.692383,4278.589844,4276.025879,4280.128418,4279.358887,4294.487305,4507.307617,4486.794922,4393.589844,4448.205078,6137,2,51,,,,0,4,4,4,4,4,4,4,4,4,4,4,4,4,4,100,,,,,,,,,,,,,,,,,,,,,,,,,,,,,,,,,,,,,,,,,,,,,,,,,,,,,,,,,,,,,,,,,,,,,,,,,,,,,,,,,,,,,,,,,,,,,,,,,,,,,,,,,,,,,,,,,,,,,,,,,,,,,,,,,,,,,,
1702363029,1702363029,116,0,4296.153809,4460.897461,4311.538574,4392.563965,4303.974121,4279.743652,4277.307617,4281.025879,4279.615234,4282.179688,4506.282227,4489.871582,4389.871582,4441.922852,6501,2,51,,,,0,4,4,4,4,4,4,4,4,4,4,4,4,4,4,100,,,,,,,,,,,,,,,,,29,0,0.473963,0.19397,-0.69397,0.506104,0.863387,-0.492248,-0.072763,-28.116203,-14.880746,88.19619,,,,,,,,,,,,,,,,,,,,,,,,,,,,,,,,,,,,,,,,,,,,,,,,,,,,,,,,,,,,,,,,,,,,,,,,,,,,,,,,,,,,,,,,,,,,,,,,,,,,,,,,,,
1702363029,1702363029,117,0,4300.128418,4451.282227,4313.333496,4395.512695,4300.512695,4279.871582,4280.256348,4279.230957,4272.307617,4272.94873,4497.820313,4484.743652,4380.128418,4433.846191,6693,2,51,,,,0,4,4,4,4,4,4,4,4,4,4,4,4,4,4,100,,,,,,,,,,,,,,,,,,,,,,,,,,,,,,,,,,,,,,,,,,,,,,,,,,,,,,,,,,,,,,,,,,,,,,,,,,,,,,,,,,,,,,,,,,,,,,,,,,,,,,,,,,,,,,,,,,,,,,,,,,,,,,,,,,,,,,
1702363029,1702363029,118,0,4290.897461,4421.794922,4309.230957,4386.538574,4280.769043,4266.282227,4265.384766,4275.641113,4265.256348,4273.974121,4496.025879,4472.692383,4367.820313,4425.384766,6017,2,51,,,,0,4,4,4,4,4,4,4,4,4,4,4,4,4,4,100,,,,,,,,,,,,,,,,,,,,,,,,,,,,,,,,,,,,,,,,,,,,,,,,,,,,,,,,,,,,,,,,,,,,,,,,,,,,,,,,,,,,,,,,,,,,,,,,,,,,,,,,,,,,,,,,,,,,,,,,,,,,,,,,,,,,,,
1702363029,1702363029,119,0,4286.666504,4410.128418,4307.94873,4373.077148,4274.487305,4260.128418,4258.205078,4278.846191,4273.717773,4280.128418,4503.333496,4473.589844,4372.307617,4424.871582,6137,2,51,,,,0,4,4,4,4,4,4,4,4,4,4,4,4,4,4,100,,,,,,,,,,,,,,,,,,,,,,,,,,,,,,,,,,,,,,,,,,,,,,,,,,,,,,,,,,,,,,,,,,,,,,,,,,,,,,,,,,,,,,,,,,,,,,,,,,,,,,,,,,,,,,,,,,,,,,,,,,,,,,,,,,,,,,
1702363029,1702363029,120,0,4300.384766,4425.897461,4313.974121,4378.717773,4280,4276.922852,4273.974121,4282.94873,4282.436035,4284.487305,4508.846191,4486.282227,4385,4435.512695,6501,2,51,,,,0,4,4,4,4,4,4,4,4,4,4,4,4,4,4,100,,,,,,,,,,,,,,,,,30,0,0.474107,0.193298,-0.69397,0.506226,0.852155,-0.491271,-0.083506,-28.104582,-14.942672,88.293236,,,,,,,,,,,,,,,,,,,,,,,,,,,,,,,,,,,,,,,,,,,,,,,,,,,,,,,,,,,,,,,,,,,,,,,,,,,,,,,,,,,,,,,,,,,,,,,,,,,,,,,,,,
1702363029,1702363029,121,0,4302.692383,4426.666504,4312.436035,4385.128418,4288.077148,4280.512695,4274.743652,4280.512695,4276.666504,4283.717773,4510,4485.256348,4379.615234,4435.128418,6693,2,51,,,,0,4,4,4,4,4,4,4,4,4,4,4,4,4,4,100,,,,,,,,,,,,,,,,,,,,,,,,,,,,,,,,,,,,,,,,,,,,,,,,,,,,,,,,,,,,,,,,,,,,,,,,,,,,,,,,,,,,,,,,,,,,,,,,,,,,,,,,,,,,,,,,,,,,,,,,,,,,,,,,,,,,,,
1702363029,1702363029,122,0,4293.974121,4410.256348,4306.538574,4377.436035,4291.410156,4269.230957,4266.538574,4278.205078,4270.897461,4278.333496,4506.282227,4476.666504,4371.666504,4425.256348,6017,2,51,,,,0,4,4,4,4,4,4,4,4,4,4,4,4,4,4,100,,,,,,,,,,,,,,,,,,,,,,,,,,,,,,,,,,,,,,,,,,,,,,,,,,,,,,,,,,,,,,,,,,,,,,,,,,,,,,,,,,,,,,,,,,,,,,,,,,,,,,,,,,,,,,,,,,,,,,,,,,,,,,,,,,,,,,
1702363029,1702363029,123,0,4301.794922,4404.615234,4315,4377.307617,4295,4270.897461,4275.897461,4281.153809,4274.358887,4276.538574,4503.589844,4484.871582,4380.897461,4432.05127,6137,2,51,,,,0,4,4,4,4,4,4,4,4,4,4,4,4,4,4,100,,,,,,,,,,,,,,,,,,,,,,,,,,,,,,,,,,,,,,,,,,,,,,,,,,,,,,,,,,,,,,,,,,,,,,,,,,,,,,,,,,,,,,,,,,,,,,,,,,,,,,,,,,,,,,,,,,,,,,,,,,,,,,,,,,,,,,
1702363029,1702363029,124,0,4313.205078,4402.307617,4321.538574,4380.256348,4297.05127,4276.153809,4280.769043,4283.589844,4278.974121,4277.692383,4506.794922,4493.717773,4379.487305,4442.179688,6501,2,51,,,,0,4,4,4,4,4,4,4,4,4,4,4,4,4,4,100,,,,,,,,,,,,,,,,,31,0,0.474233,0.192871,-0.694092,0.506104,0.862898,-0.474667,-0.081553,-28.127457,-14.798405,88.130577,,,,,,,,,,,,,,,,,,,,,,,,,,,,,,,,,,,,,,,,,,,,,,,,,,,,,,,,,,,,,,,,,,,,,,,,,,,,,,,,,,,,,,,,,,,,,,,,,,,,,,,,,,
1702363029,1702363029,125,0,4308.846191,4393.077148,4313.461426,4373.205078,4281.025879,4274.358887,4273.333496,4278.461426,4276.153809,4274.230957,4505,4485.256348,4361.153809,4434.871582,6693,2,51,,,,0,4,4,4,4,4,4,4,4,4,4,4,4,4,4,100,,,,,,,,,,,,,,,,,,,,,,,,,,,,,,,,,,,,,,,,,,,,,,,,,,,,,,,,,,,,,,,,,,,,,,,,,,,,,,,,,,,,,,,,,,,,,,,,,,,,,,,,,,,,,,,,,,,,,,,,,,,,,,,,,,,,,,
1702363029,1702363029,126,0,4310,4392.179688,4315.128418,4374.743652,4277.94873,4275.769043,4276.538574,4276.794922,4273.717773,4277.179688,4506.666504,4488.846191,4360.256348,4436.922852,6017,2,51,,,,0,4,4,4,4,4,4,4,4,4,4,4,4,4,4,100,,,,,,,,,,,,,,,,,,,,,,,,,,,,,,,,,,,,,,,,,,,,,,,,,,,,,,,,,,,,,,,,,4.979765,1.406796,1.635732,1.189051,0.701903,34.285217,8.418861,4.14089,2.203077,0.573798,2.524245,0.750679,1.140344,0.778766,0.341539,13.755572,2.129174,2.46974,1.610852,0.706286,4.05357,0.864363,0.981051,2.213434,0.880833,2.037413,0.632417,0.323332,0.655983,0.453048,2.957087,1.431216,1.014167,0.95555,0.652188,1.2469,0.554438,0.272197,0.494141,0.345422,2.286081,0.835193,0.506346,0.606027,0.450034,3.724118,1.171937,0.91156,0.978639,0.761727,8.120261,1.972933,2.20956,1.617865,0.863498,5.105405,1.513322,2.270296,1.711454,0.935387,10.86385,1.921032,1.760564,1.499803,0.727968,4.741506,1.432946,2.143221,1.334613,0.74342
1702363029,1702363029,127,0,4325.128418,4405.769043,4330.769043,4386.025879,4300,4278.717773,4284.358887,4285.256348,4283.077148,4287.05127,4517.436035,4504.230957,4370.512695,4454.615234,51,2,51,,,,0,4,4,4,4,4,4,4,4,4,4,4,4,4,4,100,,,,,,,,,,,,,,,,,,,,,,,,,,,,,,,,,,,,,,,,,,,,,,,,,,,,,,,,,,,,,,,,,,,,,,,,,,,,,,,,,,,,,,,,,,,,,,,,,,,,,,,,,,,,,,,,,,,,,,,,,,,,,,,,,,,,,,
1702363029,1702363029,0,0,4338.717773,4423.461426,4336.538574,4393.205078,4312.563965,4283.461426,4285.256348,4292.05127,4293.333496,4300.384766,4525.897461,4506.794922,4375.897461,4463.333496,4286,2,51,,,,0,4,4,4,4,4,4,4,4,4,4,4,4,4,4,100,,,,,,,,,,,,,,,,,0,0,0.474218,0.192627,-0.694214,0.506042,0.869735,-0.481504,-0.075693,-28.214712,-14.818563,88.000854,,,,,,,,,,,,,,,,,,,,,,,,,,,,,,,,,,,,,,,,,,,,,,,,,,,,,,,,,,,,,,,,,,,,,,,,,,,,,,,,,,,,,,,,,,,,,,,,,,,,,,,,,,
1702363029,1702363029,1,0,4345.128418,4430.512695,4334.743652,4398.205078,4320.384766,4290.897461,4291.922852,4293.717773,4298.974121,4309.358887,4524.230957,4508.077148,4370.128418,4465.641113,5449,2,51,,,,0,4,4,4,4,4,4,4,4,4,4,4,4,4,4,100,,,,,,,,,,,,,,,,,,,,,,,,,,,,,,,,,,,,,,,,,,,,,,,,,,,,,,,,,,,,,,,,,,,,,,,,,,,,,,,,,,,,,,,,,,,,,,,,,,,,,,,,,,,,,,,,,,,,,,,,,,,,,,,,,,,,,,
1702363029,1702363029,2,0,4333.461426,4422.692383,4332.820313,4391.666504,4314.487305,4283.333496,4292.05127,4291.538574,4291.410156,4296.922852,4511.025879,4502.05127,4342.692383,4454.615234,5494,2,51,,,,0,4,4,4,4,4,4,4,4,4,4,4,4,4,4,100,,,,,,,,,,,,,,,,,,,,,,,,,,,,,,,,,,,,,,,,,,,,,,,,,,,,,,,,,,,,,,,,,,,,,,,,,,,,,,,,,,,,,,,,,,,,,,,,,,,,,,,,,,,,,,,,,,,,,,,,,,,,,,,,,,,,,,
1702363029,1702363029,3,0,4321.410156,4428.333496,4325.641113,4383.461426,4289.102539,4275.769043,4285.641113,4286.666504,4278.461426,4282.820313,4506.410156,4490.384766,4340.769043,4446.153809,5487,2,51,,,,0,4,4,4,4,4,4,4,4,4,4,4,4,4,4,100,,,,,,,,,,,,,,,,,,,,,,,,,,,,,,,,,,,,,,,,,,,,,,,,,,,,,,,,,,,,,,,,,,,,,,,,,,,,,,,,,,,,,,,,,,,,,,,,,,,,,,,,,,,,,,,,,,,,,,,,,,,,,,,,,,,,,,
1702363029,1702363029,4,0,4330.641113,4440.128418,4324.743652,4385,4295.512695,4287.563965,4292.436035,4287.692383,4281.410156,4291.025879,4518.974121,4496.794922,4375.897461,4462.307617,5375,2,51,,,,0,4,4,4,4,4,4,4,4,4,4,4,4,4,4,100,,,,,,,,,,,,,,,,,1,0,0.474308,0.192566,-0.694214,0.505981,0.855085,-0.480039,-0.081065,-28.109907,-14.970041,87.950768,,,,,,,,,,,,,,,,,,,,,,,,,,,,,,,,,,,,,,,,,,,,,,,,,,,,,,,,,,,,,,,,,,,,,,,,,,,,,,,,,,,,,,,,,,,,,,,,,,,,,,,,,,
1702363029,1702363029,5,0,4344.871582,4444.358887,4337.820313,4391.025879,4328.205078,4298.461426,4306.282227,4299.615234,4296.666504,4306.666504,4534.102539,4515.512695,4387.179688,4478.333496,4146,2,51,,,,0,4,4,4,4,4,4,4,4,4,4,4,4,4,4,100,,,,,,,,,,,,,,,,,,,,,,,,,,,,,,,,,,,,,,,,,,,,,,,,,,,,,,,,,,,,,,,,,,,,,,,,,,,,,,,,,,,,,,,,,,,,,,,,,,,,,,,,,,,,,,,,,,,,,,,,,,,,,,,,,,,,,,
1702363029,1702363029,6,0,4358.589844,4463.974121,4351.794922,4402.692383,4336.794922,4302.05127,4314.743652,4312.563965,4306.538574,4320,4547.692383,4532.692383,4387.436035,4485.256348,5212,2,51,,,,0,4,4,4,4,4,4,4,4,4,4,4,4,4,4,100,,,,,,,,,,,,,,,,,,,,,,,,,,,,,,,,,,,,,,,,,,,,,,,,,,,,,,,,,,,,,,,,,,,,,,,,,,,,,,,,,,,,,,,,,,,,,,,,,,,,,,,,,,,,,,,,,,,,,,,,,,,,,,,,,,,,,,
1702363029,1702363029,7,0,4389.358887,4503.077148,4368.205078,4433.461426,4357.436035,4322.94873,4341.410156,4330.769043,4328.461426,4353.846191,4581.410156,4565.256348,4428.461426,4515.256348,3759,2,51,,,,0,4,4,4,4,4,4,4,4,4,4,4,4,4,4,100,,,,,,,,,,,,,,,,,,,,,,,,,,,,,,,,,,,,,,,,,,,,,,,,,,,,,,,,,,,,,,,,,,,,,,,,,,,,,,,,,,,,,,,,,,,,,,,,,,,,,,,,,,,,,,,,,,,,,,,,,,,,,,,,,,,,,,
1702363029,1702363029,8,0,4417.05127,4535.128418,4387.692383,4460.641113,4388.717773,4350.769043,4378.846191,4351.153809,4362.692383,4388.846191,4618.846191,4599.743652,4463.461426,4551.922852,4377,2,51,,,,0,4,4,4,4,4,4,4,4,4,4,4,4,4,4,100,,,,,,,,,,,,,,,,,2,0,0.474339,0.19281,-0.694214,0.505859,0.863875,-0.481504,-0.066903,-28.098917,-15.073037,87.905693,,,,,,,,,,,,,,,,,,,,,,,,,,,,,,,,,,,,,,,,,,,,,,,,,,,,,,,,,,,,,,,,,,,,,,,,,,,,,,,,,,,,,,,,,,,,,,,,,,,,,,,,,,
1702363029,1702363029,9,0,4416.794922,4536.666504,4392.820313,4463.205078,4386.794922,4355.641113,4381.922852,4350,4366.666504,4388.846191,4617.94873,4599.230957,4453.461426,4553.717773,5495,2,51,,,,0,4,4,4,4,4,4,4,4,4,4,4,4,4,4,100,,,,,,,,,,,,,,,,,,,,,,,,,,,,,,,,,,,,,,,,,,,,,,,,,,,,,,,,,,,,,,,,,,,,,,,,,,,,,,,,,,,,,,,,,,,,,,,,,,,,,,,,,,,,,,,,,,,,,,,,,,,,,,,,,,,,,,
1702363029,1702363029,10,0,4426.666504,4540.512695,4399.102539,4474.230957,4406.153809,4360,4383.846191,4348.589844,4363.717773,4394.487305,4617.307617,4605.128418,4459.487305,4557.692383,6008,2,51,,,,0,4,4,4,4,4,4,4,4,4,4,4,4,4,4,100,,,,,,,,,,,,,,,,,,,,,,,,,,,,,,,,,,,,,,,,,,,,,,,,,,,,,,,,,,,,,,,,,,,,,,,,,,,,,,,,,,,,,,,,,,,,,,,,,,,,,,,,,,,,,,,,,,,,,,,,,,,,,,,,,,,,,,
1702363029,1702363029,11,0,4454.102539,4564.615234,4417.94873,4496.794922,4443.077148,4376.538574,4413.589844,4365.769043,4383.461426,4421.794922,4646.922852,4640,4487.179688,4586.282227,6105,2,51,,,,0,4,4,4,4,4,4,4,4,4,4,4,4,4,4,100,,,,,,,,,,,,,,,,,,,,,,,,,,,,,,,,,,,,,,,,,,,,,,,,,,,,,,,,,,,,,,,,,,,,,,,,,,,,,,,,,,,,,,,,,,,,,,,,,,,,,,,,,,,,,,,,,,,,,,,,,,,,,,,,,,,,,,
1702363029,1702363029,12,0,4455.769043,4568.846191,4421.410156,4495.128418,4431.282227,4375.256348,4420.128418,4371.538574,4388.589844,4423.589844,4658.333496,4648.333496,4486.794922,4594.743652,6469,2,51,,,,0,4,4,4,4,4,4,4,4,4,4,4,4,4,4,100,,,,,,,,,,,,,,,,,3,0,0.474743,0.193115,-0.694031,0.505615,0.868758,-0.472226,-0.078623,-28.089025,-15.2824,87.948456,,,,,,,,,,,,,,,,,,,,,,,,,,,,,,,,,,,,,,,,,,,,,,,,,,,,,,,,,,,,,,,,,,,,,,,,,,,,,,,,,,,,,,,,,,,,,,,,,,,,,,,,,,
1702363029,1702363029,13,0,4445.256348,4547.820313,4416.025879,4479.615234,4408.205078,4366.153809,4402.820313,4361.794922,4376.153809,4410.256348,4640.128418,4631.282227,4469.358887,4581.794922,6653,2,51,,,,0,4,4,4,4,4,4,4,4,4,4,4,4,4,4,100,,,,,,,,,,,,,,,,,,,,,,,,,,,,,,,,,,,,,,,,,,,,,,,,,,,,,,,,,,,,,,,,,,,,,,,,,,,,,,,,,,,,,,,,,,,,,,,,,,,,,,,,,,,,,,,,,,,,,,,,,,,,,,,,,,,,,,
1702363029,1702363029,14,0,4460.384766,4552.05127,4427.692383,4487.436035,4427.563965,4380.128418,4415.769043,4368.974121,4385.897461,4424.358887,4650.256348,4645.769043,4474.487305,4595.128418,6008,2,51,,,,0,4,4,4,4,4,4,4,4,4,4,4,4,4,4,100,,,,,,,,,,,,,,,,,,,,,,,,,,,,,,,,,,,,,,,,,,,,,,,,,,,,,,,,,,,,,,,,,4.276155,1.192179,1.232613,1.057667,0.721316,30.635616,5.194093,3.034965,1.921648,0.597925,2.302509,0.612007,0.894137,0.653892,0.33422,14.2352,1.920142,2.10389,1.522998,0.747444,3.290056,0.644975,0.687412,1.907468,0.932281,1.707683,0.485063,0.299313,0.569674,0.473324,2.549629,1.06986,0.862074,0.8715,0.643574,1.029861,0.488068,0.271617,0.458932,0.352368,1.914373,0.778686,0.47059,0.495623,0.444795,3.031831,1.090414,0.88831,0.879577,0.766851,6.738271,1.738355,1.775745,1.419641,0.893444,4.467024,1.175042,1.769562,1.409028,0.962474,9.93488,1.930326,1.352108,1.423747,0.773288,4.079749,1.187354,1.600588,1.115091,0.747116
1702363029,1702363029,15,0,4470.769043,4568.461426,4436.410156,4499.871582,4452.307617,4392.05127,4435.769043,4381.282227,4399.102539,4434.615234,4666.538574,4663.077148,4485.128418,4610.897461,6105,2,51,,,,0,4,4,4,4,4,4,4,4,4,4,4,4,4,4,100,,,,,,,,,,,,,,,,,,,,,,,,,,,,,,,,,,,,,,,,,,,,,,,,,,,,,,,,,,,,,,,,,,,,,,,,,,,,,,,,,,,,,,,,,,,,,,,,,,,,,,,,,,,,,,,,,,,,,,,,,,,,,,,,,,,,,,
1702363029,1702363029,16,0,4458.974121,4546.025879,4429.230957,4492.307617,4444.615234,4386.282227,4428.333496,4376.410156,4388.974121,4417.820313,4646.025879,4649.358887,4477.820313,4594.230957,0,2,51,,,,0,4,4,4,4,4,4,4,4,4,4,4,4,4,4,100,,,,,,,,,,,,,,,,,4,0,0.474784,0.193054,-0.694153,0.505432,0.867293,-0.477597,-0.068856,-28.030123,-15.270826,87.986946,,,,,,,,,,,,,,,,,,,,,,,,,,,,,,,,,,,,,,,,,,,,,,,,,,,,,,,,,,,,,,,,,,,,,,,,,,,,,,,,,,,,,,,,,,,,,,,,,,,,,,,,,,
1702363029,1702363029,17,0,4455.897461,4519.871582,4428.717773,4489.230957,4432.307617,4388.974121,4426.538574,4373.077148,4387.307617,4413.589844,4633.589844,4642.692383,4470.256348,4584.615234,0,2,51,,,,0,4,4,4,4,4,4,4,4,4,4,4,4,4,4,100,,,,,,,,,,,,,,,,,,,,,,,,,,,,,,,,,,,,,,,,,,,,,,,,,,,,,,,,,,,,,,,,,,,,,,,,,,,,,,,,,,,,,,,,,,,,,,,,,,,,,,,,,,,,,,,,,,,,,,,,,,,,,,,,,,,,,,
1702363029,1702363029,18,0,4448.461426,4507.179688,4428.205078,4484.615234,4432.820313,4389.102539,4428.974121,4370.256348,4388.205078,4415.256348,4633.589844,4637.692383,4454.487305,4582.307617,0,2,51,,,,0,4,4,4,4,4,4,4,4,4,4,4,4,4,4,100,,,,,,,,,,,,,,,,,,,,,,,,,,,,,,,,,,,,,,,,,,,,,,,,,,,,,,,,,,,,,,,,,,,,,,,,,,,,,,,,,,,,,,,,,,,,,,,,,,,,,,,,,,,,,,,,,,,,,,,,,,,,,,,,,,,,,,
1702363029,1702363029,19,0,4441.153809,4495.641113,4427.563965,4481.153809,4437.05127,4386.538574,4428.717773,4371.153809,4384.230957,4412.179688,4633.589844,4634.743652,4448.589844,4578.333496,0,2,51,,,,0,4,4,4,4,4,4,4,4,4,4,4,4,4,4,100,,,,,,,,,,,,,,,,,,,,,,,,,,,,,,,,,,,,,,,,,,,,,,,,,,,,,,,,,,,,,,,,,,,,,,,,,,,,,,,,,,,,,,,,,,,,,,,,,,,,,,,,,,,,,,,,,,,,,,,,,,,,,,,,,,,,,,
1702363029,1702363029,20,0,4452.94873,4486.538574,4433.205078,4490.769043,4430.897461,4391.538574,4430.256348,4376.922852,4391.153809,4414.615234,4643.461426,4650,4464.743652,4586.922852,0,2,51,,,,0,4,4,4,4,4,4,4,4,4,4,4,4,4,4,100,,,,,,,,,,,,,,,,,5,0,0.474705,0.192871,-0.694214,0.505493,0.849225,-0.472226,-0.081065,-28.110443,-15.177077,87.904915,,,,,,,,,,,,,,,,,,,,,,,,,,,,,,,,,,,,,,,,,,,,,,,,,,,,,,,,,,,,,,,,,,,,,,,,,,,,,,,,,,,,,,,,,,,,,,,,,,,,,,,,,,
1702363029,1702363029,21,0,4455.641113,4476.282227,4432.820313,4491.410156,4431.922852,4388.846191,4422.05127,4376.410156,4396.922852,4416.410156,4641.282227,4655.128418,4468.846191,4592.307617,0,2,51,,,,0,4,4,4,4,4,4,4,4,4,4,4,4,4,4,100,,,,,,,,,,,,,,,,,,,,,,,,,,,,,,,,,,,,,,,,,,,,,,,,,,,,,,,,,,,,,,,,,,,,,,,,,,,,,,,,,,,,,,,,,,,,,,,,,,,,,,,,,,,,,,,,,,,,,,,,,,,,,,,,,,,,,,
1702363029,1702363029,22,0,4445.769043,4459.358887,4433.461426,4479.871582,4442.179688,4379.230957,4413.205078,4375,4390.512695,4415.512695,4631.282227,4643.205078,4461.153809,4586.794922,0,2,51,,,,0,4,4,4,4,4,4,4,4,4,4,4,4,4,4,100,,,,,,,,,,,,,,,,,,,,,,,,,,,,,,,,,,,,,,,,,,,,,,,,,,,,,,,,,,,,,,,,,,,,,,,,,,,,,,,,,,,,,,,,,,,,,,,,,,,,,,,,,,,,,,,,,,,,,,,,,,,,,,,,,,,,,,
1702363029,1702363029,23,0,4444.615234,4438.461426,4437.436035,4473.846191,4433.077148,4378.205078,4411.666504,4371.794922,4383.077148,4408.461426,4629.102539,4636.666504,4462.436035,4585.384766,0,2,51,,,,0,4,4,4,4,4,4,4,4,4,4,4,4,4,4,100,,,,,,,,,,,,,,,,,,,,,,,,,,,,,,,,,,,,,,,,,,,,,,,,,,,,,,,,,,,,,,,,,,,,,,,,,,,,,,,,,,,,,,,,,,,,,,,,,,,,,,,,,,,,,,,,,,,,,,,,,,,,,,,,,,,,,,
1702363029,1702363029,24,0,4446.538574,4414.871582,4432.692383,4468.461426,4414.743652,4376.538574,4402.820313,4362.820313,4381.666504,4403.717773,4623.846191,4632.692383,4469.102539,4586.025879,0,2,51,,,,0,4,4,4,4,4,4,4,4,4,4,4,4,4,4,100,,,,,,,,,,,,,,,,,6,0,0.474569,0.192444,-0.694336,0.505615,0.859968,-0.482481,-0.075693,-28.049398,-15.20937,87.947754,,,,,,,,,,,,,,,,,,,,,,,,,,,,,,,,,,,,,,,,,,,,,,,,,,,,,,,,,,,,,,,,,,,,,,,,,,,,,,,,,,,,,,,,,,,,,,,,,,,,,,,,,,
1702363029,1702363029,25,0,4442.05127,4380.769043,4425.512695,4452.692383,4408.077148,4370.512695,4393.974121,4360.897461,4381.794922,4405.128418,4616.025879,4630.512695,4473.589844,4583.974121,0,2,51,,,,0,4,4,4,4,4,4,4,4,4,4,4,4,4,4,100,,,,,,,,,,,,,,,,,,,,,,,,,,,,,,,,,,,,,,,,,,,,,,,,,,,,,,,,,,,,,,,,,,,,,,,,,,,,,,,,,,,,,,,,,,,,,,,,,,,,,,,,,,,,,,,,,,,,,,,,,,,,,,,,,,,,,,
1702363029,1702363029,26,0,4441.282227,4350.769043,4429.230957,4440,4422.307617,4376.922852,4402.179688,4371.666504,4385,4406.410156,4621.794922,4637.94873,4480.128418,4585.384766,0,2,51,,,,0,4,4,4,4,4,4,4,4,4,4,4,4,4,4,100,,,,,,,,,,,,,,,,,,,,,,,,,,,,,,,,,,,,,,,,,,,,,,,,,,,,,,,,,,,,,,,,,,,,,,,,,,,,,,,,,,,,,,,,,,,,,,,,,,,,,,,,,,,,,,,,,,,,,,,,,,,,,,,,,,,,,,
1702363029,1702363029,27,0,4432.307617,4319.230957,4424.230957,4427.563965,4429.487305,4378.077148,4397.692383,4365.897461,4378.974121,4397.692383,4618.717773,4628.589844,4477.692383,4574.871582,0,2,51,,,,0,4,4,4,4,4,4,4,4,4,4,4,4,4,4,100,,,,,,,,,,,,,,,,,,,,,,,,,,,,,,,,,,,,,,,,,,,,,,,,,,,,,,,,,,,,,,,,,,,,,,,,,,,,,,,,,,,,,,,,,,,,,,,,,,,,,,,,,,,,,,,,,,,,,,,,,,,,,,,,,,,,,,
1702363029,1702363029,28,0,4421.666504,4281.025879,4412.563965,4415,4408.974121,4364.358887,4383.717773,4354.230957,4370.512695,4389.230957,4609.743652,4612.94873,4477.179688,4565.128418,0,2,51,,,,0,4,4,4,4,4,4,4,4,4,4,4,4,4,4,100,,,,,,,,,,,,,,,,,7,0,0.474483,0.191895,-0.694458,0.505737,0.861922,-0.487853,-0.083018,-28.09446,-15.055099,87.96965,,,,,,,,,,,,,,,,,,,,,,,,,,,,,,,,,,,,,,,,,,,,,,,,,,,,,,,,,,,,,,,,,,,,,,,,,,,,,,,,,,,,,,,,,,,,,,,,,,,,,,,,,,
1702363029,1702363029,29,0,4426.153809,4261.922852,4415,4411.922852,4392.179688,4354.743652,4387.179688,4362.692383,4378.205078,4393.974121,4613.974121,4618.846191,4490.128418,4569.358887,0,2,51,,,,0,4,4,4,4,4,4,4,4,4,4,4,4,4,4,100,,,,,,,,,,,,,,,,,,,,,,,,,,,,,,,,,,,,,,,,,,,,,,,,,,,,,,,,,,,,,,,,,,,,,,,,,,,,,,,,,,,,,,,,,,,,,,,,,,,,,,,,,,,,,,,,,,,,,,,,,,,,,,,,,,,,,,
1702363029,1702363029,30,0,4422.05127,4256.282227,4415,4406.153809,4400.769043,4356.410156,4385.384766,4366.794922,4382.179688,4395.769043,4611.282227,4620.512695,4493.974121,4565.256348,0,2,51,,,,0,4,4,4,4,4,4,4,4,4,4,4,4,4,4,100,,,,,,,,,,,,,,,,,,,,,,,,,,,,,,,,,,,,,,,,,,,,,,,,,,,,,,,,,,,,,,,,,3.898117,1.051632,0.920106,0.918623,0.725393,28.637783,3.576161,2.517476,1.682432,0.652371,2.210588,0.475487,0.675212,0.542756,0.326783,14.866795,1.602133,1.783298,1.367193,0.77359,2.763501,0.486473,0.495259,1.668012,0.960647,1.562111,0.387,0.28459,0.498791,0.471964,2.404286,0.787673,0.723135,0.804572,0.619175,0.864388,0.438039,0.275805,0.410281,0.344623,1.57021,0.719138,0.503047,0.412495,0.424852,2.513331,0.996096,0.914993,0.79811,0.755843,5.701118,1.520797,1.377538,1.256603,0.903421,4.126058,0.877463,1.309473,1.139503,0.951129,9.500775,1.973543,0.981968,1.35581,0.806111,3.84926,1.000053,1.133781,0.909882,0.740797
1702363029,1702363029,31,0,4406.025879,4243.589844,4403.846191,4395.512695,4400.256348,4362.05127,4374.102539,4358.589844,4370.512695,4389.230957,4601.666504,4603.974121,4487.820313,4554.871582,0,2,51,,,,0,4,4,4,4,4,4,4,4,4,4,4,4,4,4,100,,,,,,,,,,,,,,,,,,,,,,,,,,,,,,,,,,,,,,,,,,,,,,,,,,,,,,,,,,,,,,,,,,,,,,,,,,,,,,,,,,,,,,,,,,,,,,,,,,,,,,,,,,,,,,,,,,,,,,,,,,,,,,,,,,,,,,
1702363029,1702363029,32,0,4399.871582,4243.333496,4392.94873,4386.282227,4381.282227,4358.461426,4370.897461,4355.641113,4362.692383,4380,4594.487305,4588.461426,4482.179688,4549.487305,0,2,51,,,,0,4,4,4,4,4,4,4,4,4,4,4,4,4,4,100,,,,,,,,,,,,,,,,,8,0,0.474412,0.191528,-0.694519,0.505859,0.848736,-0.489806,-0.073251,-28.085012,-14.932922,87.922684,,,,,,,,,,,,,,,,,,,,,,,,,,,,,,,,,,,,,,,,,,,,,,,,,,,,,,,,,,,,,,,,,,,,,,,,,,,,,,,,,,,,,,,,,,,,,,,,,,,,,,,,,,
1702363029,1702363029,33,0,4397.307617,4262.94873,4388.205078,4378.205078,4381.794922,4352.820313,4373.461426,4357.563965,4368.077148,4376.922852,4578.974121,4582.820313,4466.025879,4542.05127,0,2,51,,,,0,4,4,4,4,4,4,4,4,4,4,4,4,4,4,100,,,,,,,,,,,,,,,,,,,,,,,,,,,,,,,,,,,,,,,,,,,,,,,,,,,,,,,,,,,,,,,,,,,,,,,,,,,,,,,,,,,,,,,,,,,,,,,,,,,,,,,,,,,,,,,,,,,,,,,,,,,,,,,,,,,,,,
1702363029,1702363029,34,0,4379.743652,4265.897461,4382.307617,4364.358887,4376.410156,4346.922852,4361.282227,4347.692383,4362.692383,4367.179688,4555.256348,4568.974121,4443.333496,4522.436035,0,2,51,,,,0,4,4,4,4,4,4,4,4,4,4,4,4,4,4,100,,,,,,,,,,,,,,,,,,,,,,,,,,,,,,,,,,,,,,,,,,,,,,,,,,,,,,,,,,,,,,,,,,,,,,,,,,,,,,,,,,,,,,,,,,,,,,,,,,,,,,,,,,,,,,,,,,,,,,,,,,,,,,,,,,,,,,
1702363029,1702363029,35,0,4367.94873,4275.128418,4376.410156,4353.205078,4358.717773,4341.025879,4345.641113,4337.692383,4348.333496,4356.666504,4555,4554.102539,4452.563965,4515.641113,0,2,51,,,,0,4,4,4,4,4,4,4,4,4,4,4,4,4,4,100,,,,,,,,,,,,,,,,,,,,,,,,,,,,,,,,,,,,,,,,,,,,,,,,,,,,,,,,,,,,,,,,,,,,,,,,,,,,,,,,,,,,,,,,,,,,,,,,,,,,,,,,,,,,,,,,,,,,,,,,,,,,,,,,,,,,,,
1702363029,1702363029,36,0,4377.179688,4306.922852,4373.974121,4355.512695,4360.512695,4338.461426,4339.743652,4339.487305,4349.615234,4361.794922,4574.871582,4554.230957,4486.922852,4530.512695,0,2,51,,,,0,4,4,4,4,4,4,4,4,4,4,4,4,4,4,100,,,,,,,,,,,,,,,,,9,0,0.474267,0.190857,-0.69458,0.506165,0.851666,-0.493713,-0.073739,-28.043179,-14.939631,87.863747,,,,,,,,,,,,,,,,,,,,,,,,,,,,,,,,,,,,,,,,,,,,,,,,,,,,,,,,,,,,,,,,,,,,,,,,,,,,,,,,,,,,,,,,,,,,,,,,,,,,,,,,,,
1702363029,1702363029,37,0,4379.871582,4313.846191,4372.05127,4357.307617,4354.230957,4335.384766,4341.538574,4337.563965,4352.563965,4363.846191,4575.256348,4554.871582,4500.897461,4532.94873,0,2,51,,,,0,4,4,4,4,4,4,4,4,4,4,4,4,4,4,100,,,,,,,,,,,,,,,,,,,,,,,,,,,,,,,,,,,,,,,,,,,,,,,,,,,,,,,,,,,,,,,,,,,,,,,,,,,,,,,,,,,,,,,,,,,,,,,,,,,,,,,,,,,,,,,,,,,,,,,,,,,,,,,,,,,,,,
1702363029,1702363029,38,0,4373.461426,4310.512695,4372.692383,4354.358887,4341.153809,4333.589844,4341.922852,4331.666504,4344.230957,4356.666504,4566.153809,4552.05127,4490,4521.666504,0,2,51,,,,0,4,4,4,4,4,4,4,4,4,4,4,4,4,4,100,,,,,,,,,,,,,,,,,,,,,,,,,,,,,,,,,,,,,,,,,,,,,,,,,,,,,,,,,,,,,,,,,,,,,,,,,,,,,,,,,,,,,,,,,,,,,,,,,,,,,,,,,,,,,,,,,,,,,,,,,,,,,,,,,,,,,,
1702363029,1702363029,39,0,4374.102539,4332.179688,4372.05127,4351.410156,4352.05127,4331.538574,4331.153809,4331.666504,4338.846191,4351.282227,4563.461426,4550.897461,4479.358887,4520.128418,0,2,51,,,,0,4,4,4,4,4,4,4,4,4,4,4,4,4,4,100,,,,,,,,,,,,,,,,,,,,,,,,,,,,,,,,,,,,,,,,,,,,,,,,,,,,,,,,,,,,,,,,,,,,,,,,,,,,,,,,,,,,,,,,,,,,,,,,,,,,,,,,,,,,,,,,,,,,,,,,,,,,,,,,,,,,,,
1702363029,1702363029,40,0,4375.384766,4348.589844,4371.282227,4349.102539,4361.282227,4330,4324.230957,4337.05127,4342.563965,4346.538574,4557.307617,4547.307617,4478.974121,4525.384766,0,2,51,,,,0,4,4,4,4,4,4,4,4,4,4,4,4,4,4,100,,,,,,,,,,,,,,,,,10,0,0.474228,0.190247,-0.694641,0.506348,0.851666,-0.503479,-0.069344,-28.18886,-15.029,88.010704,,,,,,,,,,,,,,,,,,,,,,,,,,,,,,,,,,,,,,,,,,,,,,,,,,,,,,,,,,,,,,,,,,,,,,,,,,,,,,,,,,,,,,,,,,,,,,,,,,,,,,,,,,
1702363029,1702363029,41,0,4368.205078,4343.589844,4370.128418,4339.743652,4347.307617,4326.794922,4325.897461,4339.230957,4343.461426,4341.282227,4551.666504,4541.922852,4474.743652,4521.538574,0,2,51,,,,0,4,4,4,4,4,4,4,4,4,4,4,4,4,4,100,,,,,,,,,,,,,,,,,,,,,,,,,,,,,,,,,,,,,,,,,,,,,,,,,,,,,,,,,,,,,,,,,,,,,,,,,,,,,,,,,,,,,,,,,,,,,,,,,,,,,,,,,,,,,,,,,,,,,,,,,,,,,,,,,,,,,,
1702363029,1702363029,42,0,4362.307617,4345.128418,4367.307617,4328.333496,4334.487305,4324.230957,4324.743652,4336.025879,4339.487305,4342.563965,4553.333496,4538.846191,4459.487305,4516.538574,0,2,51,,,,0,4,4,4,4,4,4,4,4,4,4,4,4,4,4,100,,,,,,,,,,,,,,,,,,,,,,,,,,,,,,,,,,,,,,,,,,,,,,,,,,,,,,,,,,,,,,,,,,,,,,,,,,,,,,,,,,,,,,,,,,,,,,,,,,,,,,,,,,,,,,,,,,,,,,,,,,,,,,,,,,,,,,
1702363029,1702363029,43,0,4367.692383,4363.589844,4370.256348,4325.128418,4340,4329.102539,4327.05127,4336.922852,4343.205078,4348.846191,4555.256348,4540,4454.230957,4519.230957,0,2,51,,,,0,4,4,4,4,4,4,4,4,4,4,4,4,4,4,100,,,,,,,,,,,,,,,,,,,,,,,,,,,,,,,,,,,,,,,,,,,,,,,,,,,,,,,,,,,,,,,,,,,,,,,,,,,,,,,,,,,,,,,,,,,,,,,,,,,,,,,,,,,,,,,,,,,,,,,,,,,,,,,,,,,,,,
1702363029,1702363029,44,0,4376.538574,4385,4377.307617,4329.615234,4360.128418,4336.794922,4336.410156,4342.820313,4350.128418,4352.436035,4558.846191,4548.717773,4464.487305,4525.512695,0,2,51,,,,0,4,4,4,4,4,4,4,4,4,4,4,4,4,4,100,,,,,,,,,,,,,,,,,11,0,0.474155,0.189758,-0.694824,0.506348,0.84776,-0.490783,-0.068368,-28.286642,-14.959434,87.959633,,,,,,,,,,,,,,,,,,,,,,,,,,,,,,,,,,,,,,,,,,,,,,,,,,,,,,,,,,,,,,,,,,,,,,,,,,,,,,,,,,,,,,,,,,,,,,,,,,,,,,,,,,
1702363029,1702363029,45,0,4369.743652,4382.179688,4374.615234,4324.358887,4362.563965,4332.436035,4333.974121,4338.205078,4345,4349.358887,4555.897461,4550.512695,4454.358887,4520.512695,0,2,51,,,,0,4,4,4,4,4,4,4,4,4,4,4,4,4,4,100,,,,,,,,,,,,,,,,,,,,,,,,,,,,,,,,,,,,,,,,,,,,,,,,,,,,,,,,,,,,,,,,,,,,,,,,,,,,,,,,,,,,,,,,,,,,,,,,,,,,,,,,,,,,,,,,,,,,,,,,,,,,,,,,,,,,,,
1702363029,1702363029,46,0,4365.641113,4374.358887,4372.436035,4319.230957,4349.487305,4326.666504,4328.589844,4333.077148,4341.666504,4350.384766,4551.922852,4547.436035,4442.820313,4512.692383,0,2,51,,,,0,4,4,4,4,4,4,4,4,4,4,4,4,4,4,100,1,25,4,1,3,1,1,3,1,4,4,3,4,3,3,4,,,,,,,,,,,,,,,,,,,,,,,,,,,,,,,,,,,,,,,,,,,,,,,,,3.934455,1.059112,0.710435,0.793209,0.704206,27.048311,2.6865,2.048495,1.459687,0.704731,2.26053,0.394796,0.515568,0.46183,0.310808,14.812064,1.246412,1.481899,1.16361,0.761412,2.661036,0.430929,0.408122,1.543297,0.95142,1.733178,0.358686,0.279591,0.449118,0.442615,2.703737,0.644399,0.616348,0.753727,0.575643,0.820413,0.418893,0.279136,0.358412,0.321279,1.375801,0.695626,0.590526,0.372103,0.392509,2.393836,0.957584,0.992118,0.741258,0.722879,5.422446,1.377997,1.097383,1.138522,0.870944,4.197766,0.746183,0.963541,0.948711,0.888584,9.794858,2.086956,0.690898,1.28073,0.812713,4.149327,0.946293,0.784306,0.753987,0.714804
1702363030,1702363030,47,0,4379.487305,4389.743652,4380.256348,4328.717773,4352.307617,4331.153809,4337.820313,4340.384766,4351.794922,4360.384766,4558.717773,4552.692383,4459.615234,4522.179688,0,2,51,,,,0,4,4,4,4,4,4,4,4,4,4,4,4,4,4,100,,,,,,,,,,,,,,,,,,,,,,,,,,,,,,,,,,,,,,,,,,,,,,,,,,,,,,,,,,,,,,,,,,,,,,,,,,,,,,,,,,,,,,,,,,,,,,,,,,,,,,,,,,,,,,,,,,,,,,,,,,,,,,,,,,,,,,
1702363030,1702363030,48,0,4381.153809,4391.410156,4377.94873,4333.717773,4352.820313,4331.282227,4341.922852,4344.102539,4353.077148,4358.974121,4559.615234,4551.153809,4470.128418,4526.025879,0,2,51,,,,0,4,4,4,4,4,4,4,4,4,4,4,4,4,4,100,,,,,,,,,,,,,,,,,12,0,0.474098,0.189392,-0.695007,0.506287,0.8419,-0.477597,-0.068368,-28.341311,-15.013491,87.880341,,,,,,,,,,,,,,,,,,,,,,,,,,,,,,,,,,,,,,,,,,,,,,,,,,,,,,,,,,,,,,,,,,,,,,,,,,,,,,,,,,,,,,,,,,,,,,,,,,,,,,,,,,
1702363030,1702363030,49,0,4370.641113,4375.128418,4373.846191,4332.692383,4347.179688,4334.487305,4340.384766,4342.94873,4349.615234,4356.025879,4558.846191,4548.717773,4470.769043,4519.871582,0,2,51,,,,0,4,4,4,4,4,4,4,4,4,4,4,4,4,4,100,,,,,,,,,,,,,,,,,,,,,,,,,,,,,,,,,,,,,,,,,,,,,,,,,,,,,,,,,,,,,,,,,,,,,,,,,,,,,,,,,,,,,,,,,,,,,,,,,,,,,,,,,,,,,,,,,,,,,,,,,,,,,,,,,,,,,,
1702363030,1702363030,50,0,4376.666504,4381.922852,4382.692383,4341.153809,4363.205078,4343.205078,4343.717773,4347.563965,4355.384766,4362.436035,4568.717773,4559.358887,4484.230957,4528.077148,0,2,51,,,,0,4,4,4,4,4,4,4,4,4,4,4,4,4,4,100,,,,,,,,,,,,,,,,,,,,,,,,,,,,,,,,,,,,,,,,,,,,,,,,,,,,,,,,,,,,,,,,,,,,,,,,,,,,,,,,,,,,,,,,,,,,,,,,,,,,,,,,,,,,,,,,,,,,,,,,,,,,,,,,,,,,,,
1702363030,1702363030,51,0,4384.615234,4391.282227,4385,4347.563965,4371.153809,4335.897461,4343.461426,4350.897461,4355.128418,4359.230957,4567.179688,4562.179688,4491.282227,4536.153809,0,2,51,,,,0,4,4,4,4,4,4,4,4,4,4,4,4,4,4,100,,,,,,,,,,,,,,,,,,,,,,,,,,,,,,,,,,,,,,,,,,,,,,,,,,,,,,,,,,,,,,,,,,,,,,,,,,,,,,,,,,,,,,,,,,,,,,,,,,,,,,,,,,,,,,,,,,,,,,,,,,,,,,,,,,,,,,
1702363030,1702363030,52,0,4388.589844,4388.717773,4384.615234,4354.487305,4364.487305,4333.974121,4343.846191,4351.282227,4356.410156,4360.512695,4562.179688,4562.179688,4492.820313,4537.692383,0,2,51,,,,0,4,4,4,4,4,4,4,4,4,4,4,4,4,4,100,,,,,,,,,,,,,,,,,13,0,0.473879,0.189331,-0.695129,0.506348,0.847271,-0.496643,-0.071298,-28.273846,-15.045475,87.775642,,,,,,,,,,,,,,,,,,,,,,,,,,,,,,,,,,,,,,,,,,,,,,,,,,,,,,,,,,,,,,,,,,,,,,,,,,,,,,,,,,,,,,,,,,,,,,,,,,,,,,,,,,
1702363030,1702363030,53,0,4397.307617,4393.205078,4391.282227,4365.512695,4376.794922,4347.436035,4351.922852,4352.307617,4363.846191,4376.666504,4571.025879,4571.282227,4503.333496,4544.487305,0,2,51,,,,0,4,4,4,4,4,4,4,4,4,4,4,4,4,4,100,,,,,,,,,,,,,,,,,,,,,,,,,,,,,,,,,,,,,,,,,,,,,,,,,,,,,,,,,,,,,,,,,,,,,,,,,,,,,,,,,,,,,,,,,,,,,,,,,,,,,,,,,,,,,,,,,,,,,,,,,,,,,,,,,,,,,,
1702363030,1702363030,54,0,4398.077148,4398.077148,4392.692383,4366.922852,4383.717773,4348.077148,4354.358887,4352.820313,4363.077148,4376.153809,4574.487305,4571.794922,4507.820313,4545.641113,0,2,51,,,,0,4,4,4,4,4,4,4,4,4,4,4,4,4,4,100,,,,,,,,,,,,,,,,,,,,,,,,,,,,,,,,,,,,,,,,,,,,,,,,,,,,,,,,,,,,,,,,,,,,,,,,,,,,,,,,,,,,,,,,,,,,,,,,,,,,,,,,,,,,,,,,,,,,,,,,,,,,,,,,,,,,,,
1702363030,1702363030,55,0,4387.563965,4392.05127,4386.410156,4359.102539,4368.717773,4339.358887,4347.179688,4350.512695,4356.282227,4359.230957,4565.512695,4563.461426,4499.871582,4539.743652,0,2,51,,,,0,4,4,4,4,4,4,4,4,4,4,4,4,4,4,100,,,,,,,,,,,,,,,,,,,,,,,,,,,,,,,,,,,,,,,,,,,,,,,,,,,,,,,,,,,,,,,,,,,,,,,,,,,,,,,,,,,,,,,,,,,,,,,,,,,,,,,,,,,,,,,,,,,,,,,,,,,,,,,,,,,,,,
1702363030,1702363030,56,0,4379.615234,4388.717773,4382.563965,4354.615234,4361.538574,4337.179688,4341.153809,4346.025879,4349.358887,4359.230957,4560.256348,4558.717773,4502.563965,4535.512695,0,2,51,,,,0,4,4,4,4,4,4,4,4,4,4,4,4,4,4,100,,,,,,,,,,,,,,,,,14,0,0.473984,0.189026,-0.695007,0.506531,0.858992,-0.500061,-0.077158,-28.279795,-15.140927,87.581406,,,,,,,,,,,,,,,,,,,,,,,,,,,,,,,,,,,,,,,,,,,,,,,,,,,,,,,,,,,,,,,,,,,,,,,,,,,,,,,,,,,,,,,,,,,,,,,,,,,,,,,,,,
1702363030,1702363030,57,0,4379.230957,4392.692383,4382.307617,4358.461426,4362.820313,4337.307617,4342.94873,4345.256348,4345.512695,4362.307617,4561.025879,4556.282227,4511.410156,4531.794922,0,2,51,,,,0,4,4,4,4,4,4,4,4,4,4,4,4,4,4,100,,,,,,,,,,,,,,,,,,,,,,,,,,,,,,,,,,,,,,,,,,,,,,,,,,,,,,,,,,,,,,,,,,,,,,,,,,,,,,,,,,,,,,,,,,,,,,,,,,,,,,,,,,,,,,,,,,,,,,,,,,,,,,,,,,,,,,
1702363030,1702363030,58,0,4372.820313,4388.205078,4380.897461,4356.538574,4353.205078,4338.205078,4342.94873,4347.436035,4346.282227,4347.436035,4551.922852,4553.461426,4491.410156,4518.461426,0,2,51,,,,0,4,4,4,4,4,4,4,4,4,4,4,4,4,4,100,,,,,,,,,,,,,,,,,,,,,,,,,,,,,,,,,,,,,,,,,,,,,,,,,,,,,,,,,,,,,,,,,,,,,,,,,,,,,,,,,,,,,,,,,,,,,,,,,,,,,,,,,,,,,,,,,,,,,,,,,,,,,,,,,,,,,,
1702363030,1702363030,59,0,4364.102539,4379.102539,4378.077148,4346.410156,4341.922852,4333.717773,4334.615234,4344.871582,4345,4338.205078,4545.256348,4552.179688,4475.256348,4508.077148,0,2,51,,,,0,4,4,4,4,4,4,4,4,4,4,4,4,4,4,100,,,,,,,,,,,,,,,,,,,,,,,,,,,,,,,,,,,,,,,,,,,,,,,,,,,,,,,,,,,,,,,,,,,,,,,,,,,,,,,,,,,,,,,,,,,,,,,,,,,,,,,,,,,,,,,,,,,,,,,,,,,,,,,,,,,,,,
1702363030,1702363030,60,0,4370.384766,4386.153809,4377.05127,4349.358887,4355.512695,4325.769043,4327.179688,4340.897461,4338.205078,4342.692383,4561.025879,4551.153809,4505.897461,4516.153809,0,2,51,,,,0,4,4,4,4,4,4,4,4,4,4,4,4,4,4,100,,,,,,,,,,,,,,,,,15,0,0.474236,0.188782,-0.694946,0.50647,0.848736,-0.505921,-0.084483,-28.201815,-15.226834,87.689934,,,,,,,,,,,,,,,,,,,,,,,,,,,,,,,,,,,,,,,,,,,,,,,,,,,,,,,,,,,,,,,,,,,,,,,,,,,,,,,,,,,,,,,,,,,,,,,,,,,,,,,,,,
1702363030,1702363030,61,0,4368.974121,4391.794922,4373.717773,4355.897461,4359.487305,4323.717773,4320.641113,4334.871582,4333.589844,4340.641113,4565.769043,4540,4533.461426,4514.871582,0,2,51,,,,0,4,4,4,4,4,4,4,4,4,4,4,4,4,4,100,,,,,,,,,,,,,,,,,,,,,,,,,,,,,,,,,,,,,,,,,,,,,,,,,,,,,,,,,,,,,,,,,,,,,,,,,,,,,,,,,,,,,,,,,,,,,,,,,,,,,,,,,,,,,,,,,,,,,,,,,,,,,,,,,,,,,,
1702363030,1702363030,62,0,4347.307617,4366.153809,4366.794922,4343.461426,4332.94873,4323.205078,4311.410156,4327.307617,4333.846191,4333.974121,4553.333496,4520.897461,4529.102539,4493.974121,0,2,51,,,,0,4,4,4,4,4,4,4,4,4,4,4,4,4,4,100,,,,,,,,,,,,,,,,,,,,,,,,,,,,,,,,,,,,,,,,,,,,,,,,,,,,,,,,,,,,,,,,,4.434606,1.273022,0.58547,0.695145,0.659151,28.240635,2.45147,1.613335,1.274986,0.737661,2.487498,0.424079,0.423163,0.410979,0.283126,13.869848,0.998242,1.190051,0.950019,0.70387,3.177182,0.509499,0.400957,1.525793,0.908238,2.314381,0.405406,0.284875,0.416551,0.391074,3.689503,0.649731,0.553069,0.706299,0.517324,1.015502,0.437717,0.281826,0.313363,0.286741,1.553161,0.753412,0.711116,0.373648,0.35475,3.019874,1.059612,1.108858,0.709895,0.668674,6.102052,1.38104,0.965023,1.054798,0.794525,4.917856,0.883452,0.761551,0.840984,0.785097,11.137404,2.386984,0.500107,1.189236,0.793674,5.086668,1.102588,0.553335,0.659422,0.66946
1702363030,1702363030,63,0,4338.077148,4343.205078,4363.974121,4327.563965,4327.307617,4320.769043,4310.128418,4333.461426,4341.538574,4341.922852,4563.205078,4524.358887,4539.743652,4492.692383,0,2,51,,,,0,4,4,4,4,4,4,4,4,4,4,4,4,4,4,100,,,,,,,,,,,,,,,,,,,,,,,,,,,,,,,,,,,,,,,,,,,,,,,,,,,,,,,,,,,,,,,,,,,,,,,,,,,,,,,,,,,,,,,,,,,,,,,,,,,,,,,,,,,,,,,,,,,,,,,,,,,,,,,,,,,,,,
1702363030,1702363030,64,0,4332.563965,4339.615234,4355.769043,4312.563965,4331.282227,4312.820313,4300.641113,4335.384766,4336.282227,4337.307617,4570.512695,4524.615234,4546.666504,4496.538574,4271,2,51,,,,0,4,4,4,4,4,4,4,4,4,4,4,4,4,4,100,,,,,,,,,,,,,,,,,16,0,0.474325,0.18866,-0.695007,0.506348,0.850201,-0.498108,-0.067879,-28.114967,-15.287484,87.73761,,,,,,,,,,,,,,,,,,,,,,,,,,,,,,,,,,,,,,,,,,,,,,,,,,,,,,,,,,,,,,,,,,,,,,,,,,,,,,,,,,,,,,,,,,,,,,,,,,,,,,,,,,
1702363030,1702363030,65,0,4307.563965,4330.384766,4339.230957,4293.077148,4308.974121,4304.230957,4278.077148,4317.05127,4311.794922,4311.282227,4542.820313,4496.538574,4521.282227,4471.794922,5444,2,51,,,,0,4,4,4,4,4,4,4,4,4,4,4,4,4,4,100,,,,,,,,,,,,,,,,,,,,,,,,,,,,,,,,,,,,,,,,,,,,,,,,,,,,,,,,,,,,,,,,,,,,,,,,,,,,,,,,,,,,,,,,,,,,,,,,,,,,,,,,,,,,,,,,,,,,,,,,,,,,,,,,,,,,,,
1702363030,1702363030,66,0,4301.538574,4330.128418,4340.384766,4297.179688,4307.692383,4307.436035,4277.692383,4313.461426,4308.846191,4303.846191,4534.230957,4491.025879,4519.615234,4465.384766,5479,2,51,,,,0,4,4,4,4,4,4,4,4,4,4,4,4,4,4,100,,,,,,,,,,,,,,,,,,,,,,,,,,,,,,,,,,,,,,,,,,,,,,,,,,,,,,,,,,,,,,,,,,,,,,,,,,,,,,,,,,,,,,,,,,,,,,,,,,,,,,,,,,,,,,,,,,,,,,,,,,,,,,,,,,,,,,
1702363030,1702363030,67,0,4305.256348,4325.641113,4345.128418,4303.461426,4312.94873,4304.743652,4282.05127,4320.256348,4313.333496,4295,4546.410156,4500.769043,4527.563965,4476.922852,5490,2,51,,,,0,4,4,4,4,4,4,4,4,4,4,4,4,4,4,100,,,,,,,,,,,,,,,,,,,,,,,,,,,,,,,,,,,,,,,,,,,,,,,,,,,,,,,,,,,,,,,,,,,,,,,,,,,,,,,,,,,,,,,,,,,,,,,,,,,,,,,,,,,,,,,,,,,,,,,,,,,,,,,,,,,,,,
1702363030,1702363030,68,0,4281.153809,4300.384766,4331.282227,4285.512695,4283.589844,4290.128418,4262.307617,4309.743652,4300.256348,4278.461426,4527.179688,4482.436035,4506.410156,4457.563965,5410,2,51,,,,0,4,4,4,4,4,4,4,4,4,4,4,4,4,4,100,,,,,,,,,,,,,,,,,17,0,0.47461,0.188416,-0.69519,0.50592,0.852155,-0.488829,-0.080088,-28.186804,-15.358736,87.680511,,,,,,,,,,,,,,,,,,,,,,,,,,,,,,,,,,,,,,,,,,,,,,,,,,,,,,,,,,,,,,,,,,,,,,,,,,,,,,,,,,,,,,,,,,,,,,,,,,,,,,,,,,
1702363030,1702363030,69,0,4261.794922,4288.717773,4324.102539,4275.897461,4276.922852,4288.333496,4255.641113,4304.358887,4295.256348,4284.615234,4506.794922,4466.666504,4498.717773,4440,4144,2,51,,,,0,4,4,4,4,4,4,4,4,4,4,4,4,4,4,100,,,,,,,,,,,,,,,,,,,,,,,,,,,,,,,,,,,,,,,,,,,,,,,,,,,,,,,,,,,,,,,,,,,,,,,,,,,,,,,,,,,,,,,,,,,,,,,,,,,,,,,,,,,,,,,,,,,,,,,,,,,,,,,,,,,,,,
1702363030,1702363030,70,0,4265.384766,4286.922852,4329.102539,4280.769043,4298.205078,4292.820313,4262.307617,4310.128418,4302.94873,4293.461426,4513.461426,4475.128418,4512.820313,4448.589844,5203,2,51,,,,0,4,4,4,4,4,4,4,4,4,4,4,4,4,4,100,,,,,,,,,,,,,,,,,,,,,,,,,,,,,,,,,,,,,,,,,,,,,,,,,,,,,,,,,,,,,,,,,,,,,,,,,,,,,,,,,,,,,,,,,,,,,,,,,,,,,,,,,,,,,,,,,,,,,,,,,,,,,,,,,,,,,,
1702363030,1702363030,71,0,4268.589844,4271.410156,4328.717773,4277.563965,4286.922852,4284.871582,4251.538574,4303.077148,4296.538574,4277.94873,4515,4476.153809,4510,4452.820313,3754,2,51,,,,0,4,4,4,4,4,4,4,4,4,4,4,4,4,4,100,,,,,,,,,,,,,,,,,,,,,,,,,,,,,,,,,,,,,,,,,,,,,,,,,,,,,,,,,,,,,,,,,,,,,,,,,,,,,,,,,,,,,,,,,,,,,,,,,,,,,,,,,,,,,,,,,,,,,,,,,,,,,,,,,,,,,,
1702363030,1702363030,72,0,4263.974121,4261.538574,4325.897461,4271.025879,4277.820313,4280.769043,4245.128418,4294.358887,4285,4263.846191,4499.230957,4463.846191,4494.358887,4444.230957,4375,2,51,,,,0,4,4,4,4,4,4,4,4,4,4,4,4,4,4,100,,,,,,,,,,,,,,,,,18,0,0.474959,0.188232,-0.695313,0.505493,0.849225,-0.488341,-0.074716,-28.084789,-15.339529,87.66246,,,,,,,,,,,,,,,,,,,,,,,,,,,,,,,,,,,,,,,,,,,,,,,,,,,,,,,,,,,,,,,,,,,,,,,,,,,,,,,,,,,,,,,,,,,,,,,,,,,,,,,,,,
1702363030,1702363030,73,0,4250.897461,4252.820313,4316.666504,4265.384766,4284.871582,4279.871582,4245.512695,4295.384766,4280.897461,4260.897461,4482.94873,4448.205078,4486.794922,4428.717773,5474,2,51,,,,0,4,4,4,4,4,4,4,4,4,4,4,4,4,4,100,,,,,,,,,,,,,,,,,,,,,,,,,,,,,,,,,,,,,,,,,,,,,,,,,,,,,,,,,,,,,,,,,,,,,,,,,,,,,,,,,,,,,,,,,,,,,,,,,,,,,,,,,,,,,,,,,,,,,,,,,,,,,,,,,,,,,,
1702363030,1702363030,74,0,4232.05127,4227.436035,4299.871582,4249.871582,4263.461426,4269.871582,4230.384766,4287.692383,4270.512695,4251.153809,4475.128418,4429.230957,4475.512695,4411.666504,5968,2,51,,,,0,4,4,4,4,4,4,4,4,4,4,4,4,4,4,100,,,,,,,,,,,,,,,,,,,,,,,,,,,,,,,,,,,,,,,,,,,,,,,,,,,,,,,,,,,,,,,,,,,,,,,,,,,,,,,,,,,,,,,,,,,,,,,,,,,,,,,,,,,,,,,,,,,,,,,,,,,,,,,,,,,,,,
1702363030,1702363030,75,0,4227.307617,4220.128418,4301.025879,4243.205078,4252.436035,4262.692383,4224.743652,4278.974121,4262.563965,4241.538574,4473.077148,4427.307617,4463.717773,4409.743652,6107,2,51,,,,0,4,4,4,4,4,4,4,4,4,4,4,4,4,4,100,,,,,,,,,,,,,,,,,,,,,,,,,,,,,,,,,,,,,,,,,,,,,,,,,,,,,,,,,,,,,,,,,,,,,,,,,,,,,,,,,,,,,,,,,,,,,,,,,,,,,,,,,,,,,,,,,,,,,,,,,,,,,,,,,,,,,,
1702363030,1702363030,76,0,4236.025879,4230.128418,4312.563965,4251.153809,4262.05127,4264.871582,4233.974121,4280.256348,4265.897461,4236.282227,4470.769043,4437.436035,4464.615234,4416.538574,6469,2,51,,,,0,4,4,4,4,4,4,4,4,4,4,4,4,4,4,100,,,,,,,,,,,,,,,,,19,0,0.475185,0.187988,-0.695313,0.505371,0.850201,-0.473691,-0.074716,-28.192978,-15.405576,87.612885,,,,,,,,,,,,,,,,,,,,,,,,,,,,,,,,,,,,,,,,,,,,,,,,,,,,,,,,,,,,,,,,,,,,,,,,,,,,,,,,,,,,,,,,,,,,,,,,,,,,,,,,,,
1702363030,1702363030,77,0,4231.153809,4217.820313,4305,4248.461426,4245.897461,4264.358887,4226.538574,4279.743652,4263.077148,4229.743652,4457.563965,4430.256348,4459.102539,4410.384766,6658,2,51,,,,0,4,4,4,4,4,4,4,4,4,4,4,4,4,4,100,,,,,,,,,,,,,,,,,,,,,,,,,,,,,,,,,,,,,,,,,,,,,,,,,,,,,,,,,,,,,,,,,,,,,,,,,,,,,,,,,,,,,,,,,,,,,,,,,,,,,,,,,,,,,,,,,,,,,,,,,,,,,,,,,,,,,,
1702363030,1702363030,78,0,4214.743652,4194.487305,4292.05127,4233.077148,4228.333496,4254.102539,4212.436035,4276.282227,4250.897461,4224.358887,4443.333496,4412.563965,4443.717773,4396.794922,5968,2,51,,,,0,4,4,4,4,4,4,4,4,4,4,4,4,4,4,100,,,,,,,,,,,,,,,,,,,,,,,,,,,,,,,,,,,,,,,,,,,,,,,,,,,,,,,,,,,,,,,,,5.330708,1.6824,0.519906,0.62691,0.601935,36.714073,2.790754,1.300856,1.154373,0.74822,2.933192,0.577675,0.382857,0.37837,0.247685,12.447276,0.968438,0.95037,0.764664,0.612834,4.374656,0.714548,0.4443,1.566398,0.851808,3.31333,0.510329,0.302631,0.392534,0.331449,5.443705,0.765607,0.532097,0.649898,0.456194,1.49335,0.486679,0.28675,0.281774,0.249258,2.194839,0.901982,0.8301,0.402999,0.32063,4.479981,1.319385,1.230824,0.703194,0.601155,7.787989,1.553475,0.955739,0.993894,0.693385,6.370282,1.294783,0.683069,0.791694,0.668568,13.415125,2.976352,0.426763,1.098381,0.763572,6.52284,1.486933,0.416731,0.616396,0.614976
1702363030,1702363030,79,0,4214.230957,4192.820313,4294.615234,4230.769043,4240,4248.333496,4214.358887,4277.05127,4245.641113,4220.769043,4443.846191,4414.871582,4441.538574,4396.666504,6107,2,51,,,,0,4,4,4,4,4,4,4,4,4,4,4,4,4,4,100,,,,,,,,,,,,,,,,,,,,,,,,,,,,,,,,,,,,,,,,,,,,,,,,,,,,,,,,,,,,,,,,,,,,,,,,,,,,,,,,,,,,,,,,,,,,,,,,,,,,,,,,,,,,,,,,,,,,,,,,,,,,,,,,,,,,,,
1702363030,1702363030,80,0,4228.077148,4210.512695,4300.384766,4239.102539,4241.410156,4251.025879,4213.846191,4276.282227,4248.205078,4218.461426,4446.922852,4426.282227,4443.205078,4404.102539,6469,2,51,,,,0,4,4,4,4,4,4,4,4,4,4,4,4,4,4,100,,,,,,,,,,,,,,,,,20,0,0.47525,0.187927,-0.695374,0.505249,0.85069,-0.492736,-0.081553,-28.257013,-15.548352,87.718262,,,,,,,,,,,,,,,,,,,,,,,,,,,,,,,,,,,,,,,,,,,,,,,,,,,,,,,,,,,,,,,,,,,,,,,,,,,,,,,,,,,,,,,,,,,,,,,,,,,,,,,,,,
1702363030,1702363030,81,0,4228.974121,4216.025879,4297.307617,4237.05127,4224.358887,4251.153809,4204.871582,4272.692383,4246.538574,4214.743652,4437.307617,4418.461426,4428.077148,4398.461426,6658,2,51,,,,0,4,4,4,4,4,4,4,4,4,4,4,4,4,4,100,,,,,,,,,,,,,,,,,,,,,,,,,,,,,,,,,,,,,,,,,,,,,,,,,,,,,,,,,,,,,,,,,,,,,,,,,,,,,,,,,,,,,,,,,,,,,,,,,,,,,,,,,,,,,,,,,,,,,,,,,,,,,,,,,,,,,,
1702363030,1702363030,82,0,4218.077148,4205.897461,4295.769043,4232.307617,4235.256348,4249.871582,4207.563965,4274.615234,4248.461426,4215.256348,4432.05127,4409.615234,4407.820313,4388.461426,5968,2,51,,,,0,4,4,4,4,4,4,4,4,4,4,4,4,4,4,100,,,,,,,,,,,,,,,,,,,,,,,,,,,,,,,,,,,,,,,,,,,,,,,,,,,,,,,,,,,,,,,,,,,,,,,,,,,,,,,,,,,,,,,,,,,,,,,,,,,,,,,,,,,,,,,,,,,,,,,,,,,,,,,,,,,,,,
1702363030,1702363030,83,0,4216.410156,4208.205078,4295.769043,4232.05127,4251.922852,4250.769043,4211.153809,4274.230957,4251.025879,4219.487305,4439.743652,4414.871582,4408.333496,4390.512695,6107,2,51,,,,0,4,4,4,4,4,4,4,4,4,4,4,4,4,4,100,,,,,,,,,,,,,,,,,,,,,,,,,,,,,,,,,,,,,,,,,,,,,,,,,,,,,,,,,,,,,,,,,,,,,,,,,,,,,,,,,,,,,,,,,,,,,,,,,,,,,,,,,,,,,,,,,,,,,,,,,,,,,,,,,,,,,,
1702363030,1702363030,84,0,4218.077148,4219.487305,4289.230957,4231.282227,4234.358887,4246.794922,4199.743652,4264.230957,4246.922852,4217.820313,4437.563965,4411.794922,4425.641113,4393.333496,6469,2,51,,,,0,4,4,4,4,4,4,4,4,4,4,4,4,4,4,100,,,,,,,,,,,,,,,,,21,0,0.475582,0.187866,-0.695251,0.505127,0.852155,-0.486387,-0.079111,-28.231312,-15.67685,87.729767,,,,,,,,,,,,,,,,,,,,,,,,,,,,,,,,,,,,,,,,,,,,,,,,,,,,,,,,,,,,,,,,,,,,,,,,,,,,,,,,,,,,,,,,,,,,,,,,,,,,,,,,,,
1702363030,1702363030,85,0,4213.333496,4210,4286.025879,4229.230957,4216.153809,4241.153809,4195.897461,4261.025879,4244.615234,4213.974121,4431.153809,4404.230957,4430.769043,4391.153809,6658,2,51,,,,0,4,4,4,4,4,4,4,4,4,4,4,4,4,4,100,,,,,,,,,,,,,,,,,,,,,,,,,,,,,,,,,,,,,,,,,,,,,,,,,,,,,,,,,,,,,,,,,,,,,,,,,,,,,,,,,,,,,,,,,,,,,,,,,,,,,,,,,,,,,,,,,,,,,,,,,,,,,,,,,,,,,,
1702363030,1702363030,86,0,4215.384766,4195.512695,4294.871582,4228.333496,4225.256348,4245.769043,4206.282227,4268.333496,4247.05127,4220.641113,4438.589844,4410.641113,4419.230957,4392.94873,5968,2,51,,,,0,4,4,4,4,4,4,4,4,4,4,4,4,4,4,100,,,,,,,,,,,,,,,,,,,,,,,,,,,,,,,,,,,,,,,,,,,,,,,,,,,,,,,,,,,,,,,,,,,,,,,,,,,,,,,,,,,,,,,,,,,,,,,,,,,,,,,,,,,,,,,,,,,,,,,,,,,,,,,,,,,,,,
1702363030,1702363030,87,0,4216.025879,4200.641113,4293.974121,4223.333496,4226.025879,4248.846191,4203.846191,4269.487305,4246.282227,4217.692383,4439.743652,4412.179688,4405.512695,4389.871582,6107,2,51,,,,0,4,4,4,4,4,4,4,4,4,4,4,4,4,4,100,,,,,,,,,,,,,,,,,,,,,,,,,,,,,,,,,,,,,,,,,,,,,,,,,,,,,,,,,,,,,,,,,,,,,,,,,,,,,,,,,,,,,,,,,,,,,,,,,,,,,,,,,,,,,,,,,,,,,,,,,,,,,,,,,,,,,,
1702363030,1702363030,88,0,4204.230957,4206.410156,4281.794922,4212.94873,4208.333496,4245.128418,4194.230957,4264.358887,4243.461426,4199.358887,4424.871582,4399.230957,4391.666504,4379.230957,6469,2,51,,,,0,4,4,4,4,4,4,4,4,4,4,4,4,4,4,100,,,,,,,,,,,,,,,,,22,0,0.475896,0.187439,-0.695374,0.504822,0.85362,-0.477109,-0.075204,-28.141514,-15.525831,87.77346,,,,,,,,,,,,,,,,,,,,,,,,,,,,,,,,,,,,,,,,,,,,,,,,,,,,,,,,,,,,,,,,,,,,,,,,,,,,,,,,,,,,,,,,,,,,,,,,,,,,,,,,,,
1702363030,1702363030,89,0,4203.205078,4201.538574,4284.615234,4215.128418,4215.897461,4245.128418,4200.128418,4264.230957,4244.615234,4201.282227,4424.358887,4400.384766,4379.487305,4378.974121,6658,2,51,,,,0,4,4,4,4,4,4,4,4,4,4,4,4,4,4,100,,,,,,,,,,,,,,,,,,,,,,,,,,,,,,,,,,,,,,,,,,,,,,,,,,,,,,,,,,,,,,,,,,,,,,,,,,,,,,,,,,,,,,,,,,,,,,,,,,,,,,,,,,,,,,,,,,,,,,,,,,,,,,,,,,,,,,
1702363030,1702363030,90,0,4218.846191,4201.153809,4298.333496,4229.615234,4236.538574,4247.692383,4206.282227,4266.025879,4248.077148,4217.436035,4439.871582,4415.897461,4380.128418,4389.615234,5968,2,51,,,,0,4,4,4,4,4,4,4,4,4,4,4,4,4,4,100,,,,,,,,,,,,,,,,,,,,,,,,,,,,,,,,,,,,,,,,,,,,,,,,,,,,,,,,,,,,,,,,,,,,,,,,,,,,,,,,,,,,,,,,,,,,,,,,,,,,,,,,,,,,,,,,,,,,,,,,,,,,,,,,,,,,,,
1702363030,1702363030,91,0,4219.358887,4200.641113,4294.871582,4230,4235.769043,4245.128418,4202.563965,4263.974121,4245,4212.563965,4433.461426,4411.794922,4376.153809,4390.641113,6107,2,51,,,,0,4,4,4,4,4,4,4,4,4,4,4,4,4,4,100,,,,,,,,,,,,,,,,,,,,,,,,,,,,,,,,,,,,,,,,,,,,,,,,,,,,,,,,,,,,,,,,,,,,,,,,,,,,,,,,,,,,,,,,,,,,,,,,,,,,,,,,,,,,,,,,,,,,,,,,,,,,,,,,,,,,,,
1702363030,1702363030,92,0,4205.384766,4188.717773,4281.794922,4216.922852,4220,4245.128418,4200.641113,4262.307617,4235,4200.256348,4415,4394.230957,4358.717773,4379.871582,6469,2,51,,,,0,4,4,4,4,4,4,4,4,4,4,4,4,4,4,100,,,,,,,,,,,,,,,,,23,0,0.475933,0.186829,-0.695557,0.504761,0.84776,-0.479062,-0.086436,-28.177362,-15.306581,87.812782,,,,,,,,,,,,,,,,,,,,,,,,,,,,,,,,,,,,,,,,,,,,,,,,,,,,,,,,,,,,,,,,,,,,,,,,,,,,,,,,,,,,,,,,,,,,,,,,,,,,,,,,,,
1702363030,1702363030,93,0,4204.743652,4172.563965,4283.461426,4215.897461,4211.153809,4247.436035,4204.743652,4260.641113,4229.487305,4201.666504,4418.333496,4393.846191,4352.307617,4376.922852,6658,2,51,,,,0,4,4,4,4,4,4,4,4,4,4,4,4,4,4,100,,,,,,,,,,,,,,,,,,,,,,,,,,,,,,,,,,,,,,,,,,,,,,,,,,,,,,,,,,,,,,,,,,,,,,,,,,,,,,,,,,,,,,,,,,,,,,,,,,,,,,,,,,,,,,,,,,,,,,,,,,,,,,,,,,,,,,
1702363030,1702363030,94,0,4208.717773,4154.743652,4288.333496,4220.512695,4216.153809,4240.512695,4204.230957,4256.538574,4229.871582,4201.410156,4428.077148,4402.179688,4358.461426,4381.794922,5968,2,51,,,,0,4,4,4,4,4,4,4,4,4,4,4,4,4,4,100,,,,,,,,,,,,,,,,,,,,,,,,,,,,,,,,,,,,,,,,,,,,,,,,,,,,,,,,,,,,,,,,,6.440069,2.190991,0.500724,0.587032,0.547892,50.457916,3.53206,1.116189,1.093321,0.742118,3.517894,0.816422,0.373327,0.352166,0.213315,11.249515,1.181223,0.824327,0.632623,0.512848,5.932459,1.002867,0.526502,1.613457,0.809543,4.449012,0.64265,0.33572,0.371056,0.279447,7.611101,0.937852,0.546751,0.57952,0.406791,2.161619,0.551963,0.299194,0.26606,0.21826,3.191992,1.104842,0.917031,0.440627,0.298418,6.471035,1.671107,1.321395,0.717314,0.532749,9.901846,1.857009,1.017972,0.950366,0.596302,8.327506,1.883454,0.688404,0.768923,0.570818,16.045042,3.852277,0.474646,1.043,0.743915,8.19704,2.041829,0.353151,0.604891,0.565766
1702363030,1702363030,95,0,4202.05127,4131.666504,4280.897461,4215.512695,4219.871582,4239.102539,4199.871582,4256.666504,4230.641113,4199.743652,4419.871582,4394.358887,4359.358887,4376.538574,6107,2,51,,,,0,4,4,4,4,4,4,4,4,4,4,4,4,4,4,100,,,,,,,,,,,,,,,,,,,,,,,,,,,,,,,,,,,,,,,,,,,,,,,,,,,,,,,,,,,,,,,,,,,,,,,,,,,,,,,,,,,,,,,,,,,,,,,,,,,,,,,,,,,,,,,,,,,,,,,,,,,,,,,,,,,,,,
1702363030,1702363030,96,0,4197.692383,4110.384766,4272.820313,4214.358887,4222.307617,4246.410156,4198.205078,4257.05127,4233.077148,4203.846191,4407.436035,4380,4353.205078,4363.205078,6469,2,51,,,,0,4,4,4,4,4,4,4,4,4,4,4,4,4,4,100,,,,,,,,,,,,,,,,,24,0,0.476029,0.186584,-0.695557,0.504761,0.840435,-0.494201,-0.070321,-28.192959,-15.375924,88.031502,,,,,,,,,,,,,,,,,,,,,,,,,,,,,,,,,,,,,,,,,,,,,,,,,,,,,,,,,,,,,,,,,,,,,,,,,,,,,,,,,,,,,,,,,,,,,,,,,,,,,,,,,,
1702363030,1702363030,97,0,4196.282227,4084.743652,4268.333496,4219.230957,4221.410156,4239.102539,4195.256348,4251.922852,4233.589844,4197.692383,4403.589844,4373.846191,4341.538574,4355.512695,6658,2,51,,,,0,4,4,4,4,4,4,4,4,4,4,4,4,4,4,100,,,,,,,,,,,,,,,,,,,,,,,,,,,,,,,,,,,,,,,,,,,,,,,,,,,,,,,,,,,,,,,,,,,,,,,,,,,,,,,,,,,,,,,,,,,,,,,,,,,,,,,,,,,,,,,,,,,,,,,,,,,,,,,,,,,,,,
1702363030,1702363030,98,0,4188.077148,4053.589844,4263.461426,4213.589844,4204.743652,4230.641113,4193.717773,4247.94873,4226.922852,4182.94873,4396.410156,4370.897461,4325.128418,4350.256348,5968,2,51,,,,0,4,4,4,4,4,4,4,4,4,4,4,4,4,4,100,,,,,,,,,,,,,,,,,,,,,,,,,,,,,,,,,,,,,,,,,,,,,,,,,,,,,,,,,,,,,,,,,,,,,,,,,,,,,,,,,,,,,,,,,,,,,,,,,,,,,,,,,,,,,,,,,,,,,,,,,,,,,,,,,,,,,,
1702363030,1702363030,99,0,4188.974121,4050.256348,4269.615234,4211.666504,4200,4241.922852,4199.358887,4251.153809,4232.436035,4185.897461,4394.743652,4375.769043,4325.128418,4353.846191,6107,2,51,,,,0,4,4,4,4,4,4,4,4,4,4,4,4,4,4,100,,,,,,,,,,,,,,,,,,,,,,,,,,,,,,,,,,,,,,,,,,,,,,,,,,,,,,,,,,,,,,,,,,,,,,,,,,,,,,,,,,,,,,,,,,,,,,,,,,,,,,,,,,,,,,,,,,,,,,,,,,,,,,,,,,,,,,
1702363030,1702363030,100,0,4202.820313,4071.923096,4278.461426,4215.256348,4219.230957,4244.615234,4204.102539,4253.077148,4250.256348,4203.205078,4401.922852,4385.256348,4338.205078,4365.256348,6469,2,51,,,,0,4,4,4,4,4,4,4,4,4,4,4,4,4,4,100,,,,,,,,,,,,,,,,,25,0,0.476139,0.186035,-0.695496,0.504944,0.846783,-0.487364,-0.07667,-28.173664,-15.521665,88.011681,,,,,,,,,,,,,,,,,,,,,,,,,,,,,,,,,,,,,,,,,,,,,,,,,,,,,,,,,,,,,,,,,,,,,,,,,,,,,,,,,,,,,,,,,,,,,,,,,,,,,,,,,,
1702363030,1702363030,101,0,4200.128418,4075.384521,4270.128418,4207.179688,4218.077148,4231.153809,4201.538574,4249.358887,4251.282227,4200.128418,4397.179688,4376.922852,4327.307617,4358.077148,6658,2,51,,,,0,4,4,4,4,4,4,4,4,4,4,4,4,4,4,100,,,,,,,,,,,,,,,,,,,,,,,,,,,,,,,,,,,,,,,,,,,,,,,,,,,,,,,,,,,,,,,,,,,,,,,,,,,,,,,,,,,,,,,,,,,,,,,,,,,,,,,,,,,,,,,,,,,,,,,,,,,,,,,,,,,,,,
1702363030,1702363030,102,0,4187.820313,4068.205078,4262.563965,4196.666504,4198.205078,4228.974121,4192.820313,4246.025879,4240.256348,4182.436035,4383.846191,4360.769043,4309.615234,4345,5968,2,51,,,,0,4,4,4,4,4,4,4,4,4,4,4,4,4,4,100,,,,,,,,,,,,,,,,,,,,,,,,,,,,,,,,,,,,,,,,,,,,,,,,,,,,,,,,,,,,,,,,,,,,,,,,,,,,,,,,,,,,,,,,,,,,,,,,,,,,,,,,,,,,,,,,,,,,,,,,,,,,,,,,,,,,,,
1702363030,1702363030,103,0,4183.077148,4075.769287,4264.487305,4195.641113,4191.666504,4229.743652,4184.102539,4243.333496,4239.743652,4179.615234,4377.436035,4358.846191,4308.333496,4346.153809,6107,2,51,,,,0,4,4,4,4,4,4,4,4,4,4,4,4,4,4,100,,,,,,,,,,,,,,,,,,,,,,,,,,,,,,,,,,,,,,,,,,,,,,,,,,,,,,,,,,,,,,,,,,,,,,,,,,,,,,,,,,,,,,,,,,,,,,,,,,,,,,,,,,,,,,,,,,,,,,,,,,,,,,,,,,,,,,
1702363030,1702363030,104,0,4185.128418,4090.128174,4271.282227,4200.512695,4193.461426,4229.615234,4191.666504,4247.436035,4247.05127,4185.769043,4384.871582,4372.307617,4302.692383,4352.820313,6469,2,51,,,,0,4,4,4,4,4,4,4,4,4,4,4,4,4,4,100,,,,,,,,,,,,,,,,,26,0,0.476467,0.185486,-0.695374,0.505005,0.852643,-0.492736,-0.070321,-28.156298,-15.519498,87.960518,,,,,,,,,,,,,,,,,,,,,,,,,,,,,,,,,,,,,,,,,,,,,,,,,,,,,,,,,,,,,,,,,,,,,,,,,,,,,,,,,,,,,,,,,,,,,,,,,,,,,,,,,,
1702363030,1702363030,105,0,4194.871582,4109.487305,4275.897461,4196.666504,4199.871582,4230.769043,4199.743652,4252.179688,4247.307617,4186.153809,4399.230957,4383.589844,4301.794922,4361.025879,6658,2,51,,,,0,4,4,4,4,4,4,4,4,4,4,4,4,4,4,100,,,,,,,,,,,,,,,,,,,,,,,,,,,,,,,,,,,,,,,,,,,,,,,,,,,,,,,,,,,,,,,,,,,,,,,,,,,,,,,,,,,,,,,,,,,,,,,,,,,,,,,,,,,,,,,,,,,,,,,,,,,,,,,,,,,,,,
1702363030,1702363030,106,0,4200.769043,4127.820313,4271.794922,4191.666504,4199.871582,4225.256348,4187.94873,4246.410156,4246.282227,4187.820313,4403.717773,4379.871582,4315.512695,4367.94873,5968,2,51,,,,0,4,4,4,4,4,4,4,4,4,4,4,4,4,4,100,,,,,,,,,,,,,,,,,,,,,,,,,,,,,,,,,,,,,,,,,,,,,,,,,,,,,,,,,,,,,,,,,,,,,,,,,,,,,,,,,,,,,,,,,,,,,,,,,,,,,,,,,,,,,,,,,,,,,,,,,,,,,,,,,,,,,,
1702363030,1702363030,107,0,4188.846191,4123.333496,4264.358887,4195,4192.05127,4217.05127,4181.282227,4239.743652,4244.743652,4191.410156,4392.563965,4365.897461,4309.358887,4357.05127,6107,2,51,,,,0,4,4,4,4,4,4,4,4,4,4,4,4,4,4,100,,,,,,,,,,,,,,,,,,,,,,,,,,,,,,,,,,,,,,,,,,,,,,,,,,,,,,,,,,,,,,,,,,,,,,,,,,,,,,,,,,,,,,,,,,,,,,,,,,,,,,,,,,,,,,,,,,,,,,,,,,,,,,,,,,,,,,
1702363030,1702363030,108,0,4178.846191,4115,4261.922852,4198.077148,4193.974121,4218.077148,4189.230957,4242.307617,4238.205078,4189.743652,4384.615234,4361.410156,4294.487305,4342.94873,6469,2,51,,,,0,4,4,4,4,4,4,4,4,4,4,4,4,4,4,100,,,,,,,,,,,,,,,,,27,0,0.476763,0.18512,-0.695313,0.504944,0.858992,-0.484922,-0.074716,-28.190668,-15.500882,88.064461,,,,,,,,,,,,,,,,,,,,,,,,,,,,,,,,,,,,,,,,,,,,,,,,,,,,,,,,,,,,,,,,,,,,,,,,,,,,,,,,,,,,,,,,,,,,,,,,,,,,,,,,,,
1702363030,1702363030,109,0,4187.94873,4133.077148,4267.94873,4197.436035,4191.538574,4227.179688,4190.641113,4246.025879,4233.846191,4184.615234,4388.846191,4368.846191,4301.282227,4350,6658,2,51,,,,0,4,4,4,4,4,4,4,4,4,4,4,4,4,4,100,,,,,,,,,,,,,,,,,,,,,,,,,,,,,,,,,,,,,,,,,,,,,,,,,,,,,,,,,,,,,,,,,,,,,,,,,,,,,,,,,,,,,,,,,,,,,,,,,,,,,,,,,,,,,,,,,,,,,,,,,,,,,,,,,,,,,,
1702363030,1702363030,110,0,4197.179688,4145.512695,4271.153809,4197.05127,4188.205078,4228.461426,4185.512695,4244.358887,4234.615234,4183.974121,4388.333496,4370.769043,4309.102539,4358.974121,5968,2,51,,,,0,4,4,4,4,4,4,4,4,4,4,4,4,4,4,100,1,25,3,1,3,1,1,1,1,3,3,1,3,3,3,3,,,,,,,,,,,,,,,,,,,,,,,,,,,,,,,,,,,,,,,,,,,,,,,,,7.486651,2.646894,0.513495,0.569072,0.507974,67.065529,4.454105,0.996774,1.060869,0.728075,4.154134,1.066053,0.372322,0.324399,0.188548,10.571531,1.55777,0.831209,0.55906,0.427108,7.529299,1.3007,0.640284,1.620384,0.798838,5.40413,0.75911,0.373345,0.348824,0.24475,9.661295,1.102052,0.569969,0.498381,0.378142,2.837093,0.609178,0.319212,0.260418,0.199259,4.229778,1.28211,0.951674,0.466474,0.290682,8.353253,1.987249,1.360594,0.739953,0.474057,11.744702,2.205601,1.098867,0.920303,0.527772,10.277881,2.474577,0.726419,0.747426,0.512187,18.138435,4.882801,0.634888,1.052924,0.748914,9.634312,2.632521,0.338376,0.602553,0.53211
1702363030,1702363030,111,0,4195.641113,4118.205078,4267.94873,4202.179688,4205.897461,4226.282227,4187.94873,4245.384766,4235.897461,4187.05127,4382.436035,4367.692383,4311.025879,4355,6107,2,51,,,,0,4,4,4,4,4,4,4,4,4,4,4,4,4,4,100,,,,,,,,,,,,,,,,,,,,,,,,,,,,,,,,,,,,,,,,,,,,,,,,,,,,,,,,,,,,,,,,,,,,,,,,,,,,,,,,,,,,,,,,,,,,,,,,,,,,,,,,,,,,,,,,,,,,,,,,,,,,,,,,,,,,,,
1702363030,1702363030,112,0,4188.589844,4073.076904,4263.974121,4202.692383,4206.922852,4224.487305,4190.769043,4243.461426,4232.307617,4177.820313,4376.025879,4362.436035,4310,4345.512695,6469,2,51,,,,0,4,4,4,4,4,4,4,4,4,4,4,4,4,4,100,,,,,,,,,,,,,,,,,28,0,0.476962,0.184814,-0.695435,0.5047,0.860457,-0.485411,-0.070321,-28.204935,-15.467461,87.924683,,,,,,,,,,,,,,,,,,,,,,,,,,,,,,,,,,,,,,,,,,,,,,,,,,,,,,,,,,,,,,,,,,,,,,,,,,,,,,,,,,,,,,,,,,,,,,,,,,,,,,,,,,
1702363030,1702363030,113,0,4181.153809,4047.05127,4261.538574,4193.333496,4183.077148,4221.538574,4185.897461,4235,4228.205078,4166.666504,4370.641113,4355.769043,4296.666504,4338.461426,6658,2,51,,,,0,4,4,4,4,4,4,4,4,4,4,4,4,4,4,100,,,,,,,,,,,,,,,,,,,,,,,,,,,,,,,,,,,,,,,,,,,,,,,,,,,,,,,,,,,,,,,,,,,,,,,,,,,,,,,,,,,,,,,,,,,,,,,,,,,,,,,,,,,,,,,,,,,,,,,,,,,,,,,,,,,,,,
1702363030,1702363030,114,0,4186.025879,4049.615479,4263.205078,4190.512695,4184.743652,4224.358887,4183.846191,4236.666504,4230.897461,4177.179688,4373.205078,4362.05127,4300.128418,4347.05127,5968,2,51,,,,0,4,4,4,4,4,4,4,4,4,4,4,4,4,4,100,,,,,,,,,,,,,,,,,,,,,,,,,,,,,,,,,,,,,,,,,,,,,,,,,,,,,,,,,,,,,,,,,,,,,,,,,,,,,,,,,,,,,,,,,,,,,,,,,,,,,,,,,,,,,,,,,,,,,,,,,,,,,,,,,,,,,,
1702363030,1702363030,115,0,4205.128418,4066.281982,4272.820313,4206.794922,4211.922852,4235.384766,4193.589844,4247.05127,4239.230957,4197.05127,4391.282227,4380.512695,4328.974121,4367.94873,6107,2,51,,,,0,4,4,4,4,4,4,4,4,4,4,4,4,4,4,100,,,,,,,,,,,,,,,,,,,,,,,,,,,,,,,,,,,,,,,,,,,,,,,,,,,,,,,,,,,,,,,,,,,,,,,,,,,,,,,,,,,,,,,,,,,,,,,,,,,,,,,,,,,,,,,,,,,,,,,,,,,,,,,,,,,,,,
1702363030,1702363030,116,0,4216.922852,4073.718018,4281.922852,4221.410156,4216.282227,4238.974121,4204.615234,4249.230957,4245.641113,4204.102539,4411.666504,4390.256348,4334.358887,4378.205078,6469,2,51,,,,0,4,4,4,4,4,4,4,4,4,4,4,4,4,4,100,,,,,,,,,,,,,,,,,29,0,0.477201,0.18457,-0.695557,0.504395,0.84776,-0.483946,-0.073739,-28.201107,-15.370714,87.948883,,,,,,,,,,,,,,,,,,,,,,,,,,,,,,,,,,,,,,,,,,,,,,,,,,,,,,,,,,,,,,,,,,,,,,,,,,,,,,,,,,,,,,,,,,,,,,,,,,,,,,,,,,
1702363030,1702363030,117,0,4209.358887,4073.076904,4277.94873,4214.871582,4203.589844,4228.333496,4199.871582,4244.871582,4246.538574,4203.333496,4410.769043,4383.589844,4313.077148,4372.692383,6658,2,51,,,,0,4,4,4,4,4,4,4,4,4,4,4,4,4,4,100,,,,,,,,,,,,,,,,,,,,,,,,,,,,,,,,,,,,,,,,,,,,,,,,,,,,,,,,,,,,,,,,,,,,,,,,,,,,,,,,,,,,,,,,,,,,,,,,,,,,,,,,,,,,,,,,,,,,,,,,,,,,,,,,,,,,,,
1702363030,1702363030,118,0,4208.717773,4087.179443,4277.307617,4214.615234,4209.358887,4234.102539,4199.102539,4248.717773,4247.05127,4202.05127,4399.102539,4385,4305.512695,4371.282227,5968,2,51,,,,0,4,4,4,4,4,4,4,4,4,4,4,4,4,4,100,,,,,,,,,,,,,,,,,,,,,,,,,,,,,,,,,,,,,,,,,,,,,,,,,,,,,,,,,,,,,,,,,,,,,,,,,,,,,,,,,,,,,,,,,,,,,,,,,,,,,,,,,,,,,,,,,,,,,,,,,,,,,,,,,,,,,,
1702363030,1702363030,119,0,4217.307617,4106.666504,4284.230957,4223.333496,4219.358887,4246.153809,4211.025879,4253.077148,4243.333496,4197.692383,4398.974121,4391.922852,4306.538574,4371.538574,6107,2,51,,,,0,4,4,4,4,4,4,4,4,4,4,4,4,4,4,100,,,,,,,,,,,,,,,,,,,,,,,,,,,,,,,,,,,,,,,,,,,,,,,,,,,,,,,,,,,,,,,,,,,,,,,,,,,,,,,,,,,,,,,,,,,,,,,,,,,,,,,,,,,,,,,,,,,,,,,,,,,,,,,,,,,,,,
1702363030,1702363030,120,0,4208.846191,4110.897461,4279.358887,4218.205078,4207.563965,4239.102539,4208.461426,4247.94873,4236.922852,4197.436035,4396.153809,4381.794922,4293.077148,4358.461426,6469,2,51,,,,0,4,4,4,4,4,4,4,4,4,4,4,4,4,4,100,,,,,,,,,,,,,,,,,30,0,0.4772,0.184509,-0.695618,0.504333,0.855573,-0.488341,-0.075693,-28.130997,-15.433642,87.937325,,,,,,,,,,,,,,,,,,,,,,,,,,,,,,,,,,,,,,,,,,,,,,,,,,,,,,,,,,,,,,,,,,,,,,,,,,,,,,,,,,,,,,,,,,,,,,,,,,,,,,,,,,
1702363030,1702363030,121,0,4194.487305,4107.94873,4270.897461,4210.512695,4196.410156,4227.563965,4195.128418,4244.102539,4233.846191,4199.230957,4381.153809,4368.333496,4284.358887,4347.05127,6658,2,51,,,,0,4,4,4,4,4,4,4,4,4,4,4,4,4,4,100,,,,,,,,,,,,,,,,,,,,,,,,,,,,,,,,,,,,,,,,,,,,,,,,,,,,,,,,,,,,,,,,,,,,,,,,,,,,,,,,,,,,,,,,,,,,,,,,,,,,,,,,,,,,,,,,,,,,,,,,,,,,,,,,,,,,,,
1702363030,1702363030,122,0,4199.487305,4107.179688,4274.102539,4218.717773,4205,4230.384766,4193.077148,4247.307617,4233.974121,4196.410156,4381.025879,4376.282227,4299.487305,4353.974121,5968,2,51,,,,0,4,4,4,4,4,4,4,4,4,4,4,4,4,4,100,,,,,,,,,,,,,,,,,,,,,,,,,,,,,,,,,,,,,,,,,,,,,,,,,,,,,,,,,,,,,,,,,,,,,,,,,,,,,,,,,,,,,,,,,,,,,,,,,,,,,,,,,,,,,,,,,,,,,,,,,,,,,,,,,,,,,,
1702363030,1702363030,123,0,4212.820313,4110.512695,4280,4230.897461,4204.743652,4241.538574,4201.794922,4248.461426,4238.717773,4197.563965,4395.641113,4393.077148,4314.743652,4366.922852,6107,2,51,,,,0,4,4,4,4,4,4,4,4,4,4,4,4,4,4,100,,,,,,,,,,,,,,,,,,,,,,,,,,,,,,,,,,,,,,,,,,,,,,,,,,,,,,,,,,,,,,,,,,,,,,,,,,,,,,,,,,,,,,,,,,,,,,,,,,,,,,,,,,,,,,,,,,,,,,,,,,,,,,,,,,,,,,
1702363030,1702363030,124,0,4216.153809,4119.871582,4279.230957,4230.641113,4198.589844,4243.205078,4208.205078,4243.461426,4243.461426,4201.153809,4396.025879,4394.358887,4312.307617,4370.641113,6469,2,51,,,,0,4,4,4,4,4,4,4,4,4,4,4,4,4,4,100,,,,,,,,,,,,,,,,,31,0,0.477322,0.184631,-0.695679,0.504089,0.854596,-0.484922,-0.078623,-28.134563,-15.340279,87.960258,,,,,,,,,,,,,,,,,,,,,,,,,,,,,,,,,,,,,,,,,,,,,,,,,,,,,,,,,,,,,,,,,,,,,,,,,,,,,,,,,,,,,,,,,,,,,,,,,,,,,,,,,,
1702363030,1702363030,125,0,4221.794922,4136.538574,4286.153809,4233.846191,4206.025879,4241.666504,4211.025879,4250,4243.077148,4198.461426,4391.794922,4398.333496,4319.487305,4373.974121,6658,2,51,,,,0,4,4,4,4,4,4,4,4,4,4,4,4,4,4,100,,,,,,,,,,,,,,,,,,,,,,,,,,,,,,,,,,,,,,,,,,,,,,,,,,,,,,,,,,,,,,,,,,,,,,,,,,,,,,,,,,,,,,,,,,,,,,,,,,,,,,,,,,,,,,,,,,,,,,,,,,,,,,,,,,,,,,
1702363030,1702363030,126,0,4237.05127,4158.205078,4302.94873,4254.230957,4219.102539,4248.589844,4217.179688,4263.205078,4247.692383,4204.871582,4404.871582,4415,4343.846191,4389.358887,5968,2,51,,,,0,4,4,4,4,4,4,4,4,4,4,4,4,4,4,100,,,,,,,,,,,,,,,,,,,,,,,,,,,,,,,,,,,,,,,,,,,,,,,,,,,,,,,,,,,,,,,,,8.243567,2.877806,0.54111,0.558162,0.4848,81.033699,5.312901,0.879036,1.015282,0.714821,4.63387,1.238533,0.364616,0.291088,0.178425,10.405733,1.929052,0.923579,0.52687,0.367495,8.526368,1.511241,0.768723,1.549645,0.820973,5.797607,0.809292,0.393947,0.32225,0.226939,10.946671,1.185715,0.565789,0.412536,0.368943,3.263554,0.628315,0.337675,0.252013,0.191277,4.895792,1.354558,0.922987,0.463793,0.292027,9.452794,2.143743,1.33668,0.75231,0.428815,12.56351,2.47543,1.155099,0.891209,0.496348,11.621368,2.866376,0.753816,0.710474,0.493526,18.73604,5.807801,0.883226,1.127743,0.775098,10.311597,3.068509,0.350295,0.589228,0.514426
1702363030,1702363030,127,0,4241.282227,4167.692383,4304.230957,4266.153809,4226.153809,4252.820313,4218.717773,4261.153809,4254.615234,4222.436035,4416.794922,4419.871582,4354.743652,4397.563965,51,2,51,,,,0,4,4,4,4,4,4,4,4,4,4,4,4,4,4,100,,,,,,,,,,,,,,,,,,,,,,,,,,,,,,,,,,,,,,,,,,,,,,,,,,,,,,,,,,,,,,,,,,,,,,,,,,,,,,,,,,,,,,,,,,,,,,,,,,,,,,,,,,,,,,,,,,,,,,,,,,,,,,,,,,,,,,
1702363030,1702363030,0,0,4229.743652,4165,4293.077148,4258.461426,4219.230957,4245.384766,4212.692383,4253.205078,4249.743652,4218.846191,4410.641113,4408.333496,4347.05127,4389.487305,4305,2,51,,,,0,4,4,4,4,4,4,4,4,4,4,4,4,4,4,100,,,,,,,,,,,,,,,,,0,0,0.477513,0.184326,-0.695496,0.504272,0.8419,-0.497619,-0.070321,-28.221107,-15.25625,88.097572,,,,,,,,,,,,,,,,,,,,,,,,,,,,,,,,,,,,,,,,,,,,,,,,,,,,,,,,,,,,,,,,,,,,,,,,,,,,,,,,,,,,,,,,,,,,,,,,,,,,,,,,,,
1702363030,1702363030,1,0,4233.461426,4184.230957,4294.358887,4256.794922,4221.410156,4246.538574,4212.94873,4256.153809,4246.794922,4205.897461,4410.128418,4408.077148,4348.589844,4386.282227,5489,2,51,,,,0,4,4,4,4,4,4,4,4,4,4,4,4,4,4,100,,,,,,,,,,,,,,,,,,,,,,,,,,,,,,,,,,,,,,,,,,,,,,,,,,,,,,,,,,,,,,,,,,,,,,,,,,,,,,,,,,,,,,,,,,,,,,,,,,,,,,,,,,,,,,,,,,,,,,,,,,,,,,,,,,,,,,
1702363030,1702363030,2,0,4256.666504,4222.05127,4306.922852,4275.769043,4243.333496,4266.538574,4234.102539,4268.205078,4263.333496,4228.333496,4431.666504,4428.077148,4368.589844,4402.692383,5504,2,51,,,,0,4,4,4,4,4,4,4,4,4,4,4,4,4,4,100,,,,,,,,,,,,,,,,,,,,,,,,,,,,,,,,,,,,,,,,,,,,,,,,,,,,,,,,,,,,,,,,,,,,,,,,,,,,,,,,,,,,,,,,,,,,,,,,,,,,,,,,,,,,,,,,,,,,,,,,,,,,,,,,,,,,,,
1702363030,1702363030,3,0,4262.179688,4238.461426,4313.589844,4289.615234,4257.563965,4277.179688,4253.461426,4276.282227,4277.05127,4252.563965,4450.641113,4440.769043,4379.871582,4415.897461,5505,2,51,,,,0,4,4,4,4,4,4,4,4,4,4,4,4,4,4,100,,,,,,,,,,,,,,,,,,,,,,,,,,,,,,,,,,,,,,,,,,,,,,,,,,,,,,,,,,,,,,,,,,,,,,,,,,,,,,,,,,,,,,,,,,,,,,,,,,,,,,,,,,,,,,,,,,,,,,,,,,,,,,,,,,,,,,
1702363030,1702363030,4,0,4266.025879,4260.256348,4317.94873,4296.410156,4263.846191,4277.307617,4255.384766,4280.128418,4275.641113,4246.666504,4456.153809,4446.282227,4381.666504,4420.897461,5404,2,51,,,,0,4,4,4,4,4,4,4,4,4,4,4,4,4,4,100,,,,,,,,,,,,,,,,,1,0,0.47752,0.184143,-0.695496,0.504333,0.858015,-0.515688,-0.072763,-28.23233,-15.363959,87.954475,,,,,,,,,,,,,,,,,,,,,,,,,,,,,,,,,,,,,,,,,,,,,,,,,,,,,,,,,,,,,,,,,,,,,,,,,,,,,,,,,,,,,,,,,,,,,,,,,,,,,,,,,,
1702363030,1702363030,5,0,4294.615234,4297.820313,4336.410156,4320.384766,4282.307617,4293.077148,4272.436035,4289.487305,4285.256348,4262.820313,4480.128418,4471.922852,4411.922852,4444.871582,4143,2,51,,,,0,4,4,4,4,4,4,4,4,4,4,4,4,4,4,100,,,,,,,,,,,,,,,,,,,,,,,,,,,,,,,,,,,,,,,,,,,,,,,,,,,,,,,,,,,,,,,,,,,,,,,,,,,,,,,,,,,,,,,,,,,,,,,,,,,,,,,,,,,,,,,,,,,,,,,,,,,,,,,,,,,,,,
1702363030,1702363030,6,0,4306.153809,4302.563965,4352.692383,4334.871582,4296.538574,4306.922852,4291.794922,4298.077148,4297.436035,4289.487305,4506.025879,4496.538574,4435.256348,4461.153809,5237,2,51,,,,0,4,4,4,4,4,4,4,4,4,4,4,4,4,4,100,,,,,,,,,,,,,,,,,,,,,,,,,,,,,,,,,,,,,,,,,,,,,,,,,,,,,,,,,,,,,,,,,,,,,,,,,,,,,,,,,,,,,,,,,,,,,,,,,,,,,,,,,,,,,,,,,,,,,,,,,,,,,,,,,,,,,,
1702363030,1702363030,7,0,4297.307617,4310.384766,4351.794922,4328.589844,4294.102539,4299.487305,4283.717773,4295,4291.538574,4275.512695,4500.256348,4492.692383,4414.871582,4452.436035,3785,2,51,,,,0,4,4,4,4,4,4,4,4,4,4,4,4,4,4,100,,,,,,,,,,,,,,,,,,,,,,,,,,,,,,,,,,,,,,,,,,,,,,,,,,,,,,,,,,,,,,,,,,,,,,,,,,,,,,,,,,,,,,,,,,,,,,,,,,,,,,,,,,,,,,,,,,,,,,,,,,,,,,,,,,,,,,
1702363030,1702363030,8,0,4314.487305,4366.794922,4354.358887,4340.384766,4299.615234,4297.94873,4281.922852,4293.589844,4289.230957,4266.666504,4495.256348,4493.846191,4407.05127,4458.589844,4405,2,51,,,,0,4,4,4,4,4,4,4,4,4,4,4,4,4,4,100,,,,,,,,,,,,,,,,,2,0,0.477565,0.183899,-0.695618,0.504211,0.851178,-0.492736,-0.078135,-28.309097,-15.360896,87.925697,,,,,,,,,,,,,,,,,,,,,,,,,,,,,,,,,,,,,,,,,,,,,,,,,,,,,,,,,,,,,,,,,,,,,,,,,,,,,,,,,,,,,,,,,,,,,,,,,,,,,,,,,,
1702363030,1702363030,9,0,4342.05127,4418.461426,4365.512695,4362.94873,4311.666504,4311.282227,4298.461426,4300.256348,4297.94873,4288.077148,4510.384766,4511.666504,4424.358887,4480.512695,5504,2,51,,,,0,4,4,4,4,4,4,4,4,4,4,4,4,4,4,100,,,,,,,,,,,,,,,,,,,,,,,,,,,,,,,,,,,,,,,,,,,,,,,,,,,,,,,,,,,,,,,,,,,,,,,,,,,,,,,,,,,,,,,,,,,,,,,,,,,,,,,,,,,,,,,,,,,,,,,,,,,,,,,,,,,,,,
1702363030,1702363030,10,0,4352.436035,4447.05127,4370.256348,4371.153809,4315.256348,4316.538574,4298.846191,4300,4298.333496,4288.461426,4515.897461,4514.358887,4418.205078,4484.871582,6001,2,51,,,,0,4,4,4,4,4,4,4,4,4,4,4,4,4,4,100,,,,,,,,,,,,,,,,,,,,,,,,,,,,,,,,,,,,,,,,,,,,,,,,,,,,,,,,,,,,,,,,,,,,,,,,,,,,,,,,,,,,,,,,,,,,,,,,,,,,,,,,,,,,,,,,,,,,,,,,,,,,,,,,,,,,,,
1702363030,1702363030,11,0,4360.769043,4482.820313,4369.743652,4378.589844,4309.615234,4311.666504,4291.410156,4293.974121,4293.974121,4274.743652,4504.230957,4507.563965,4396.282227,4479.358887,6130,2,51,,,,0,4,4,4,4,4,4,4,4,4,4,4,4,4,4,100,,,,,,,,,,,,,,,,,,,,,,,,,,,,,,,,,,,,,,,,,,,,,,,,,,,,,,,,,,,,,,,,,,,,,,,,,,,,,,,,,,,,,,,,,,,,,,,,,,,,,,,,,,,,,,,,,,,,,,,,,,,,,,,,,,,,,,
1702363030,1702363030,12,0,4363.717773,4501.922852,4371.922852,4383.717773,4308.974121,4307.307617,4298.205078,4294.230957,4294.102539,4273.974121,4492.179688,4507.179688,4375.897461,4477.179688,6507,2,51,,,,0,4,4,4,4,4,4,4,4,4,4,4,4,4,4,100,,,,,,,,,,,,,,,,,3,0,0.477661,0.18396,-0.695801,0.503845,0.86241,-0.475644,-0.079111,-28.244854,-15.35814,87.866463,,,,,,,,,,,,,,,,,,,,,,,,,,,,,,,,,,,,,,,,,,,,,,,,,,,,,,,,,,,,,,,,,,,,,,,,,,,,,,,,,,,,,,,,,,,,,,,,,,,,,,,,,,
1702363030,1702363030,13,0,4360.512695,4500.769043,4374.358887,4384.230957,4322.820313,4313.974121,4308.461426,4301.538574,4297.436035,4278.333496,4494.615234,4512.820313,4357.692383,4476.410156,6695,2,51,,,,0,4,4,4,4,4,4,4,4,4,4,4,4,4,4,100,,,,,,,,,,,,,,,,,,,,,,,,,,,,,,,,,,,,,,,,,,,,,,,,,,,,,,,,,,,,,,,,,,,,,,,,,,,,,,,,,,,,,,,,,,,,,,,,,,,,,,,,,,,,,,,,,,,,,,,,,,,,,,,,,,,,,,
1702363030,1702363030,14,0,4366.794922,4512.94873,4376.538574,4391.922852,4331.410156,4326.025879,4313.333496,4306.922852,4302.820313,4286.794922,4507.94873,4521.025879,4354.230957,4483.589844,6001,2,51,,,,0,4,4,4,4,4,4,4,4,4,4,4,4,4,4,100,,,,,,,,,,,,,,,,,,,,,,,,,,,,,,,,,,,,,,,,,,,,,,,,,,,,,,,,,,,,,,,,,8.301313,2.779861,0.573695,0.539221,0.475929,85.61808,5.978577,0.78154,0.934153,0.708299,4.733961,1.27105,0.349823,0.253456,0.183783,9.963325,2.114213,1.016953,0.506753,0.333586,8.484252,1.550621,0.890411,1.392022,0.862793,5.419601,0.761199,0.382032,0.287703,0.21848,10.845975,1.135223,0.518244,0.329022,0.368948,3.255033,0.587614,0.342692,0.231358,0.189386,4.909657,1.287056,0.837886,0.428424,0.293347,9.183715,2.064107,1.255222,0.739719,0.395082,11.850608,2.540394,1.163563,0.845971,0.493934,11.699585,2.913665,0.75116,0.653276,0.500887,17.320395,6.338612,1.173421,1.236161,0.804995,9.861328,3.190073,0.379409,0.558195,0.506618
1702363030,1702363030,15,0,4360.897461,4514.487305,4370.128418,4389.102539,4318.846191,4317.692383,4305.128418,4297.05127,4298.077148,4285.769043,4498.974121,4513.461426,4347.692383,4477.307617,6130,2,51,,,,0,4,4,4,4,4,4,4,4,4,4,4,4,4,4,100,,,,,,,,,,,,,,,,,,,,,,,,,,,,,,,,,,,,,,,,,,,,,,,,,,,,,,,,,,,,,,,,,,,,,,,,,,,,,,,,,,,,,,,,,,,,,,,,,,,,,,,,,,,,,,,,,,,,,,,,,,,,,,,,,,,,,,
1702363030,1702363030,16,0,4347.436035,4507.179688,4360.128418,4376.025879,4303.589844,4303.589844,4292.05127,4290.641113,4289.230957,4273.205078,4479.102539,4496.282227,4336.410156,4459.743652,0,2,51,,,,0,4,4,4,4,4,4,4,4,4,4,4,4,4,4,100,,,,,,,,,,,,,,,,,4,0,0.477646,0.184204,-0.695923,0.503601,0.853131,-0.494689,-0.074716,-28.137035,-15.372326,87.863152,,,,,,,,,,,,,,,,,,,,,,,,,,,,,,,,,,,,,,,,,,,,,,,,,,,,,,,,,,,,,,,,,,,,,,,,,,,,,,,,,,,,,,,,,,,,,,,,,,,,,,,,,,
1702363030,1702363030,17,0,4362.692383,4520.384766,4373.461426,4388.077148,4315.384766,4319.230957,4303.846191,4308.077148,4301.025879,4284.871582,4497.563965,4510.897461,4355.512695,4471.794922,0,2,51,,,,0,4,4,4,4,4,4,4,4,4,4,4,4,4,4,100,,,,,,,,,,,,,,,,,,,,,,,,,,,,,,,,,,,,,,,,,,,,,,,,,,,,,,,,,,,,,,,,,,,,,,,,,,,,,,,,,,,,,,,,,,,,,,,,,,,,,,,,,,,,,,,,,,,,,,,,,,,,,,,,,,,,,,
1702363030,1702363030,18,0,4373.717773,4522.820313,4385.512695,4400.512695,4332.179688,4330.128418,4317.692383,4314.743652,4309.871582,4299.230957,4516.153809,4529.743652,4370.128418,4486.922852,0,2,51,,,,0,4,4,4,4,4,4,4,4,4,4,4,4,4,4,100,,,,,,,,,,,,,,,,,,,,,,,,,,,,,,,,,,,,,,,,,,,,,,,,,,,,,,,,,,,,,,,,,,,,,,,,,,,,,,,,,,,,,,,,,,,,,,,,,,,,,,,,,,,,,,,,,,,,,,,,,,,,,,,,,,,,,,
1702363030,1702363030,19,0,4349.358887,4511.025879,4366.538574,4381.153809,4321.025879,4312.94873,4306.410156,4295.897461,4293.846191,4282.05127,4494.743652,4507.307617,4351.153809,4468.461426,0,2,51,,,,0,4,4,4,4,4,4,4,4,4,4,4,4,4,4,100,,,,,,,,,,,,,,,,,,,,,,,,,,,,,,,,,,,,,,,,,,,,,,,,,,,,,,,,,,,,,,,,,,,,,,,,,,,,,,,,,,,,,,,,,,,,,,,,,,,,,,,,,,,,,,,,,,,,,,,,,,,,,,,,,,,,,,
1702363030,1702363030,20,0,4335.384766,4514.487305,4354.102539,4365.256348,4309.487305,4305.384766,4298.333496,4288.589844,4286.922852,4271.922852,4479.743652,4485.769043,4346.666504,4452.692383,0,2,51,,,,0,4,4,4,4,4,4,4,4,4,4,4,4,4,4,100,,,,,,,,,,,,,,,,,5,0,0.477776,0.184265,-0.695862,0.50354,0.863387,-0.490294,-0.070809,-28.173332,-15.335093,87.810165,,,,,,,,,,,,,,,,,,,,,,,,,,,,,,,,,,,,,,,,,,,,,,,,,,,,,,,,,,,,,,,,,,,,,,,,,,,,,,,,,,,,,,,,,,,,,,,,,,,,,,,,,,
1702363030,1702363030,21,0,4352.179688,4477.692383,4368.461426,4378.077148,4319.615234,4316.025879,4305.769043,4298.205078,4295.512695,4283.974121,4493.077148,4501.666504,4367.820313,4465,0,2,51,,,,0,4,4,4,4,4,4,4,4,4,4,4,4,4,4,100,,,,,,,,,,,,,,,,,,,,,,,,,,,,,,,,,,,,,,,,,,,,,,,,,,,,,,,,,,,,,,,,,,,,,,,,,,,,,,,,,,,,,,,,,,,,,,,,,,,,,,,,,,,,,,,,,,,,,,,,,,,,,,,,,,,,,,
1702363030,1702363030,22,0,4351.410156,4363.846191,4365.897461,4381.794922,4314.230957,4315.769043,4303.717773,4296.538574,4291.538574,4277.692383,4495,4509.358887,4366.025879,4466.666504,0,2,51,,,,0,4,4,4,4,4,4,4,4,4,4,4,4,4,4,100,,,,,,,,,,,,,,,,,,,,,,,,,,,,,,,,,,,,,,,,,,,,,,,,,,,,,,,,,,,,,,,,,,,,,,,,,,,,,,,,,,,,,,,,,,,,,,,,,,,,,,,,,,,,,,,,,,,,,,,,,,,,,,,,,,,,,,
1702363030,1702363030,23,0,4329.871582,4255.384766,4344.358887,4361.538574,4293.717773,4306.410156,4293.974121,4286.922852,4280.128418,4262.692383,4473.589844,4487.563965,4344.102539,4446.666504,0,2,51,,,,0,4,4,4,4,4,4,4,4,4,4,4,4,4,4,100,,,,,,,,,,,,,,,,,,,,,,,,,,,,,,,,,,,,,,,,,,,,,,,,,,,,,,,,,,,,,,,,,,,,,,,,,,,,,,,,,,,,,,,,,,,,,,,,,,,,,,,,,,,,,,,,,,,,,,,,,,,,,,,,,,,,,,
1702363030,1702363030,24,0,4326.922852,4208.333496,4344.230957,4357.820313,4297.820313,4306.410156,4293.589844,4289.102539,4279.102539,4264.230957,4457.563965,4475.897461,4344.615234,4439.102539,0,2,51,,,,0,4,4,4,4,4,4,4,4,4,4,4,4,4,4,100,,,,,,,,,,,,,,,,,6,0,0.477834,0.184448,-0.695862,0.503418,0.85069,-0.487364,-0.075204,-28.272665,-15.401584,87.895813,,,,,,,,,,,,,,,,,,,,,,,,,,,,,,,,,,,,,,,,,,,,,,,,,,,,,,,,,,,,,,,,,,,,,,,,,,,,,,,,,,,,,,,,,,,,,,,,,,,,,,,,,,
1702363030,1702363030,25,0,4330.384766,4181.025879,4349.230957,4363.717773,4302.05127,4311.153809,4292.05127,4292.436035,4280.769043,4263.461426,4456.282227,4479.743652,4350.128418,4439.358887,0,2,51,,,,0,4,4,4,4,4,4,4,4,4,4,4,4,4,4,100,,,,,,,,,,,,,,,,,,,,,,,,,,,,,,,,,,,,,,,,,,,,,,,,,,,,,,,,,,,,,,,,,,,,,,,,,,,,,,,,,,,,,,,,,,,,,,,,,,,,,,,,,,,,,,,,,,,,,,,,,,,,,,,,,,,,,,
1702363030,1702363030,26,0,4327.692383,4153.205078,4343.205078,4358.461426,4293.333496,4310,4288.589844,4290,4279.743652,4262.820313,4462.05127,4482.179688,4337.05127,4435.128418,0,2,51,,,,0,4,4,4,4,4,4,4,4,4,4,4,4,4,4,100,,,,,,,,,,,,,,,,,,,,,,,,,,,,,,,,,,,,,,,,,,,,,,,,,,,,,,,,,,,,,,,,,,,,,,,,,,,,,,,,,,,,,,,,,,,,,,,,,,,,,,,,,,,,,,,,,,,,,,,,,,,,,,,,,,,,,,
1702363030,1702363030,27,0,4326.794922,4134.102539,4341.410156,4355.512695,4294.102539,4307.436035,4290,4287.563965,4279.615234,4268.333496,4462.307617,4480.897461,4325.641113,4433.461426,0,2,51,,,,0,4,4,4,4,4,4,4,4,4,4,4,4,4,4,100,,,,,,,,,,,,,,,,,,,,,,,,,,,,,,,,,,,,,,,,,,,,,,,,,,,,,,,,,,,,,,,,,,,,,,,,,,,,,,,,,,,,,,,,,,,,,,,,,,,,,,,,,,,,,,,,,,,,,,,,,,,,,,,,,,,,,,
1702363030,1702363030,28,0,4314.743652,4110.256348,4333.589844,4349.743652,4290.512695,4305.256348,4283.589844,4281.153809,4274.615234,4255.641113,4444.871582,4468.589844,4319.102539,4421.922852,0,2,51,,,,0,4,4,4,4,4,4,4,4,4,4,4,4,4,4,100,,,,,,,,,,,,,,,,,7,0,0.477979,0.184509,-0.695923,0.503174,0.852643,-0.481016,-0.074228,-28.245399,-15.411426,87.9729,,,,,,,,,,,,,,,,,,,,,,,,,,,,,,,,,,,,,,,,,,,,,,,,,,,,,,,,,,,,,,,,,,,,,,,,,,,,,,,,,,,,,,,,,,,,,,,,,,,,,,,,,,
1702363030,1702363030,29,0,4300.128418,4092.692383,4322.179688,4339.358887,4285.641113,4303.461426,4278.077148,4281.153809,4271.922852,4246.794922,4436.025879,4460.128418,4317.05127,4409.358887,0,2,51,,,,0,4,4,4,4,4,4,4,4,4,4,4,4,4,4,100,,,,,,,,,,,,,,,,,,,,,,,,,,,,,,,,,,,,,,,,,,,,,,,,,,,,,,,,,,,,,,,,,,,,,,,,,,,,,,,,,,,,,,,,,,,,,,,,,,,,,,,,,,,,,,,,,,,,,,,,,,,,,,,,,,,,,,
1702363030,1702363030,30,0,4314.358887,4103.717773,4331.538574,4340.128418,4297.692383,4307.820313,4286.025879,4292.436035,4282.179688,4273.589844,4457.563965,4473.333496,4332.94873,4422.05127,0,2,51,,,,0,4,4,4,4,4,4,4,4,4,4,4,4,4,4,100,,,,,,,,,,,,,,,,,,,,,,,,,,,,,,,,,,,,,,,,,,,,,,,,,,,,,,,,,,,,,,,,,7.800175,2.402575,0.6082,0.504883,0.478991,83.847778,6.504752,0.775368,0.839673,0.71324,4.382507,1.166771,0.336064,0.217009,0.202135,9.021615,2.027957,1.040448,0.475042,0.318716,7.458081,1.404143,0.98309,1.171695,0.905769,4.383231,0.622733,0.333307,0.245718,0.212654,9.448827,0.956284,0.434814,0.257116,0.366355,2.825998,0.491884,0.325795,0.197448,0.18736,4.289886,1.109603,0.717426,0.369596,0.286789,7.810331,1.762862,1.140924,0.700083,0.370846,9.872375,2.375275,1.143169,0.775691,0.50545,10.519936,2.620486,0.732136,0.58392,0.517997,14.396043,6.310805,1.473155,1.33119,0.82057,8.470764,2.979001,0.437318,0.518074,0.502668
1702363030,1702363030,31,0,4333.333496,4124.615234,4343.846191,4345.897461,4298.717773,4307.563965,4286.025879,4290.512695,4282.820313,4283.205078,4468.077148,4482.692383,4347.563965,4437.179688,0,2,51,,,,0,4,4,4,4,4,4,4,4,4,4,4,4,4,4,100,,,,,,,,,,,,,,,,,,,,,,,,,,,,,,,,,,,,,,,,,,,,,,,,,,,,,,,,,,,,,,,,,,,,,,,,,,,,,,,,,,,,,,,,,,,,,,,,,,,,,,,,,,,,,,,,,,,,,,,,,,,,,,,,,,,,,,
1702363030,1702363030,32,0,4327.307617,4131.794922,4338.846191,4343.205078,4280,4294.102539,4269.743652,4276.282227,4266.410156,4252.563965,4446.410156,4475.384766,4338.077148,4430.769043,0,2,51,,,,0,4,4,4,4,4,4,4,4,4,4,4,4,4,4,100,,,,,,,,,,,,,,,,,8,0,0.478066,0.184387,-0.695984,0.503052,0.850201,-0.490783,-0.079111,-28.404192,-15.48695,88.075615,,,,,,,,,,,,,,,,,,,,,,,,,,,,,,,,,,,,,,,,,,,,,,,,,,,,,,,,,,,,,,,,,,,,,,,,,,,,,,,,,,,,,,,,,,,,,,,,,,,,,,,,,,
1702363030,1702363030,33,0,4325.128418,4144.358887,4338.974121,4344.743652,4274.102539,4288.589844,4260.641113,4277.179688,4258.717773,4244.487305,4443.589844,4475,4333.205078,4426.794922,0,2,51,,,,0,4,4,4,4,4,4,4,4,4,4,4,4,4,4,100,,,,,,,,,,,,,,,,,,,,,,,,,,,,,,,,,,,,,,,,,,,,,,,,,,,,,,,,,,,,,,,,,,,,,,,,,,,,,,,,,,,,,,,,,,,,,,,,,,,,,,,,,,,,,,,,,,,,,,,,,,,,,,,,,,,,,,
1702363030,1702363030,34,0,4336.922852,4172.692383,4343.205078,4346.410156,4282.436035,4294.487305,4261.666504,4281.666504,4264.487305,4263.974121,4462.692383,4480.128418,4345,4434.615234,0,2,51,,,,0,4,4,4,4,4,4,4,4,4,4,4,4,4,4,100,,,,,,,,,,,,,,,,,,,,,,,,,,,,,,,,,,,,,,,,,,,,,,,,,,,,,,,,,,,,,,,,,,,,,,,,,,,,,,,,,,,,,,,,,,,,,,,,,,,,,,,,,,,,,,,,,,,,,,,,,,,,,,,,,,,,,,
1702363030,1702363030,35,0,4340,4186.794922,4341.025879,4344.615234,4284.487305,4296.153809,4261.153809,4279.358887,4267.563965,4267.05127,4462.307617,4481.538574,4344.102539,4440.128418,0,2,51,,,,0,4,4,4,4,4,4,4,4,4,4,4,4,4,4,100,,,,,,,,,,,,,,,,,,,,,,,,,,,,,,,,,,,,,,,,,,,,,,,,,,,,,,,,,,,,,,,,,,,,,,,,,,,,,,,,,,,,,,,,,,,,,,,,,,,,,,,,,,,,,,,,,,,,,,,,,,,,,,,,,,,,,,
1702363030,1702363030,36,0,4331.922852,4186.410156,4338.974121,4346.538574,4277.94873,4294.871582,4265.128418,4285.256348,4271.153809,4263.974121,4458.846191,4482.436035,4331.538574,4438.461426,0,2,51,,,,0,4,4,4,4,4,4,4,4,4,4,4,4,4,4,100,,,,,,,,,,,,,,,,,9,0,0.478113,0.184265,-0.695984,0.503052,0.854108,-0.485899,-0.072274,-28.530439,-15.321589,88.051384,,,,,,,,,,,,,,,,,,,,,,,,,,,,,,,,,,,,,,,,,,,,,,,,,,,,,,,,,,,,,,,,,,,,,,,,,,,,,,,,,,,,,,,,,,,,,,,,,,,,,,,,,,
1702363030,1702363030,37,0,4330.256348,4197.563965,4335.641113,4349.487305,4280.769043,4294.487305,4270.256348,4291.153809,4281.794922,4275.641113,4468.846191,4481.153809,4325.897461,4435,0,2,51,,,,0,4,4,4,4,4,4,4,4,4,4,4,4,4,4,100,,,,,,,,,,,,,,,,,,,,,,,,,,,,,,,,,,,,,,,,,,,,,,,,,,,,,,,,,,,,,,,,,,,,,,,,,,,,,,,,,,,,,,,,,,,,,,,,,,,,,,,,,,,,,,,,,,,,,,,,,,,,,,,,,,,,,,
1702363030,1702363030,38,0,4325.128418,4205.128418,4326.410156,4342.692383,4282.94873,4289.358887,4264.743652,4282.94873,4278.589844,4271.282227,4459.102539,4470.128418,4318.333496,4425,0,2,51,,,,0,4,4,4,4,4,4,4,4,4,4,4,4,4,4,100,,,,,,,,,,,,,,,,,,,,,,,,,,,,,,,,,,,,,,,,,,,,,,,,,,,,,,,,,,,,,,,,,,,,,,,,,,,,,,,,,,,,,,,,,,,,,,,,,,,,,,,,,,,,,,,,,,,,,,,,,,,,,,,,,,,,,,
1702363030,1702363030,39,0,4311.922852,4195.512695,4320.897461,4324.871582,4265.641113,4284.615234,4255.897461,4275.512695,4262.179688,4248.589844,4438.333496,4459.615234,4305.641113,4413.077148,0,2,51,,,,0,4,4,4,4,4,4,4,4,4,4,4,4,4,4,100,,,,,,,,,,,,,,,,,,,,,,,,,,,,,,,,,,,,,,,,,,,,,,,,,,,,,,,,,,,,,,,,,,,,,,,,,,,,,,,,,,,,,,,,,,,,,,,,,,,,,,,,,,,,,,,,,,,,,,,,,,,,,,,,,,,,,,
1702363030,1702363030,40,0,4316.282227,4204.358887,4328.717773,4323.589844,4259.487305,4289.358887,4262.563965,4280.128418,4264.871582,4255.128418,4447.692383,4466.282227,4306.922852,4419.487305,0,2,51,,,,0,4,4,4,4,4,4,4,4,4,4,4,4,4,4,100,,,,,,,,,,,,,,,,,10,0,0.478093,0.184021,-0.696106,0.502991,0.840923,-0.474179,-0.068856,-28.627396,-15.406096,87.896248,,,,,,,,,,,,,,,,,,,,,,,,,,,,,,,,,,,,,,,,,,,,,,,,,,,,,,,,,,,,,,,,,,,,,,,,,,,,,,,,,,,,,,,,,,,,,,,,,,,,,,,,,,
1702363030,1702363030,41,0,4327.563965,4227.94873,4334.358887,4335.384766,4279.230957,4295.128418,4273.974121,4284.487305,4279.102539,4281.282227,4463.846191,4477.94873,4313.077148,4427.563965,0,2,51,,,,0,4,4,4,4,4,4,4,4,4,4,4,4,4,4,100,,,,,,,,,,,,,,,,,,,,,,,,,,,,,,,,,,,,,,,,,,,,,,,,,,,,,,,,,,,,,,,,,,,,,,,,,,,,,,,,,,,,,,,,,,,,,,,,,,,,,,,,,,,,,,,,,,,,,,,,,,,,,,,,,,,,,,
1702363030,1702363030,42,0,4323.717773,4237.05127,4328.717773,4331.794922,4288.333496,4295.256348,4272.820313,4282.820313,4278.717773,4283.333496,4460.512695,4476.922852,4310.384766,4419.743652,0,2,51,,,,0,4,4,4,4,4,4,4,4,4,4,4,4,4,4,100,,,,,,,,,,,,,,,,,,,,,,,,,,,,,,,,,,,,,,,,,,,,,,,,,,,,,,,,,,,,,,,,,,,,,,,,,,,,,,,,,,,,,,,,,,,,,,,,,,,,,,,,,,,,,,,,,,,,,,,,,,,,,,,,,,,,,,
1702363030,1702363030,43,0,4316.666504,4249.102539,4322.563965,4322.05127,4275.512695,4292.94873,4266.794922,4279.743652,4272.563965,4266.025879,4454.487305,4467.307617,4308.974121,4415.256348,0,2,51,,,,0,4,4,4,4,4,4,4,4,4,4,4,4,4,4,100,,,,,,,,,,,,,,,,,,,,,,,,,,,,,,,,,,,,,,,,,,,,,,,,,,,,,,,,,,,,,,,,,,,,,,,,,,,,,,,,,,,,,,,,,,,,,,,,,,,,,,,,,,,,,,,,,,,,,,,,,,,,,,,,,,,,,,
1702363030,1702363030,44,0,4319.871582,4272.436035,4324.230957,4326.282227,4274.615234,4293.205078,4270.641113,4281.922852,4277.436035,4265,4454.230957,4466.922852,4309.102539,4421.922852,0,2,51,,,,0,4,4,4,4,4,4,4,4,4,4,4,4,4,4,100,,,,,,,,,,,,,,,,,11,0,0.478075,0.183838,-0.696167,0.502991,0.856062,-0.496154,-0.0796,-28.447989,-15.44882,87.923286,,,,,,,,,,,,,,,,,,,,,,,,,,,,,,,,,,,,,,,,,,,,,,,,,,,,,,,,,,,,,,,,,,,,,,,,,,,,,,,,,,,,,,,,,,,,,,,,,,,,,,,,,,
1702363030,1702363030,45,0,4325.256348,4290.769043,4327.94873,4332.563965,4279.358887,4298.974121,4276.666504,4286.538574,4280.256348,4278.846191,4461.922852,4471.153809,4312.820313,4424.230957,0,2,51,,,,0,4,4,4,4,4,4,4,4,4,4,4,4,4,4,100,,,,,,,,,,,,,,,,,,,,,,,,,,,,,,,,,,,,,,,,,,,,,,,,,,,,,,,,,,,,,,,,,,,,,,,,,,,,,,,,,,,,,,,,,,,,,,,,,,,,,,,,,,,,,,,,,,,,,,,,,,,,,,,,,,,,,,
1702363030,1702363030,46,0,4330.769043,4307.563965,4332.307617,4333.589844,4281.282227,4302.94873,4274.615234,4286.153809,4273.589844,4277.179688,4462.307617,4473.974121,4307.94873,4428.077148,0,2,51,,,,0,4,4,4,4,4,4,4,4,4,4,4,4,4,4,100,1,25,3,1,1,1,1,1,1,3,3,1,3,3,3,3,,,,,,,,,,,,,,,,,,,,,,,,,,,,,,,,,,,,,,,,,,,,,,,,,7.196654,1.858007,0.637284,0.46408,0.493666,80.494408,6.808575,0.999382,0.812625,0.731864,3.85405,0.968601,0.333495,0.190656,0.229577,7.705779,1.692777,0.975221,0.429943,0.31785,6.090333,1.135402,1.029191,0.939031,0.935785,3.180499,0.442325,0.262203,0.203781,0.210428,7.408158,0.716841,0.34649,0.20959,0.35653,2.195042,0.373412,0.289454,0.160053,0.182738,3.378721,0.909244,0.593812,0.307001,0.270561,5.911371,1.370843,1.030257,0.648003,0.359452,7.5167,2.083429,1.136693,0.689811,0.521117,8.703951,2.107379,0.730268,0.520821,0.537982,11.167171,5.797983,1.741455,1.376463,0.815955,6.799987,2.525081,0.537272,0.488384,0.500696
1702363031,1702363031,47,0,4339.743652,4327.436035,4347.05127,4347.563965,4302.94873,4307.563965,4286.153809,4293.205078,4282.692383,4276.922852,4460.897461,4494.230957,4294.230957,4442.05127,0,2,51,,,,0,4,4,4,4,4,4,4,4,4,4,4,4,4,4,100,,,,,,,,,,,,,,,,,,,,,,,,,,,,,,,,,,,,,,,,,,,,,,,,,,,,,,,,,,,,,,,,,,,,,,,,,,,,,,,,,,,,,,,,,,,,,,,,,,,,,,,,,,,,,,,,,,,,,,,,,,,,,,,,,,,,,,
1702363031,1702363031,48,0,4344.615234,4330.384766,4354.230957,4353.333496,4313.461426,4310,4300.769043,4301.025879,4297.94873,4293.717773,4478.077148,4512.436035,4300.384766,4449.487305,0,2,51,,,,0,4,4,4,4,4,4,4,4,4,4,4,4,4,4,100,,,,,,,,,,,,,,,,,12,0,0.478175,0.183411,-0.696167,0.503052,0.85362,-0.493224,-0.078135,-28.286524,-15.320604,87.947624,,,,,,,,,,,,,,,,,,,,,,,,,,,,,,,,,,,,,,,,,,,,,,,,,,,,,,,,,,,,,,,,,,,,,,,,,,,,,,,,,,,,,,,,,,,,,,,,,,,,,,,,,,
1702363031,1702363031,49,0,4340.512695,4315,4342.436035,4330.128418,4288.974121,4303.461426,4286.794922,4293.333496,4290.769043,4298.461426,4492.436035,4498.077148,4319.743652,4446.794922,0,2,51,,,,0,4,4,4,4,4,4,4,4,4,4,4,4,4,4,100,,,,,,,,,,,,,,,,,,,,,,,,,,,,,,,,,,,,,,,,,,,,,,,,,,,,,,,,,,,,,,,,,,,,,,,,,,,,,,,,,,,,,,,,,,,,,,,,,,,,,,,,,,,,,,,,,,,,,,,,,,,,,,,,,,,,,,
1702363031,1702363031,50,0,4338.974121,4304.871582,4340.641113,4317.94873,4282.179688,4302.820313,4283.974121,4294.743652,4287.05127,4300.512695,4501.153809,4494.102539,4336.410156,4454.743652,0,2,51,,,,0,4,4,4,4,4,4,4,4,4,4,4,4,4,4,100,,,,,,,,,,,,,,,,,,,,,,,,,,,,,,,,,,,,,,,,,,,,,,,,,,,,,,,,,,,,,,,,,,,,,,,,,,,,,,,,,,,,,,,,,,,,,,,,,,,,,,,,,,,,,,,,,,,,,,,,,,,,,,,,,,,,,,
1702363031,1702363031,51,0,4357.692383,4320.897461,4360.641113,4338.846191,4311.153809,4321.025879,4320.128418,4319.358887,4314.871582,4328.589844,4534.871582,4531.282227,4368.846191,4483.717773,0,2,51,,,,0,4,4,4,4,4,4,4,4,4,4,4,4,4,4,100,,,,,,,,,,,,,,,,,,,,,,,,,,,,,,,,,,,,,,,,,,,,,,,,,,,,,,,,,,,,,,,,,,,,,,,,,,,,,,,,,,,,,,,,,,,,,,,,,,,,,,,,,,,,,,,,,,,,,,,,,,,,,,,,,,,,,,
1702363031,1702363031,52,0,4373.333496,4343.846191,4370.641113,4342.563965,4328.333496,4336.538574,4337.94873,4330.641113,4335.384766,4352.436035,4565.128418,4548.589844,4408.333496,4504.871582,0,2,51,,,,0,4,4,4,4,4,4,4,4,4,4,4,4,4,4,100,,,,,,,,,,,,,,,,,13,0,0.478506,0.182983,-0.696228,0.502808,0.867782,-0.485899,-0.074228,-28.341206,-15.255211,87.936195,,,,,,,,,,,,,,,,,,,,,,,,,,,,,,,,,,,,,,,,,,,,,,,,,,,,,,,,,,,,,,,,,,,,,,,,,,,,,,,,,,,,,,,,,,,,,,,,,,,,,,,,,,
1702363031,1702363031,53,0,4362.692383,4339.358887,4363.589844,4315.769043,4331.410156,4339.871582,4324.487305,4322.692383,4325.897461,4347.563965,4554.487305,4534.487305,4419.487305,4501.794922,0,2,51,,,,0,4,4,4,4,4,4,4,4,4,4,4,4,4,4,100,,,,,,,,,,,,,,,,,,,,,,,,,,,,,,,,,,,,,,,,,,,,,,,,,,,,,,,,,,,,,,,,,,,,,,,,,,,,,,,,,,,,,,,,,,,,,,,,,,,,,,,,,,,,,,,,,,,,,,,,,,,,,,,,,,,,,,
1702363031,1702363031,54,0,4360.641113,4339.230957,4371.025879,4311.282227,4337.179688,4342.820313,4330.384766,4325,4323.589844,4346.538574,4549.102539,4543.205078,4421.025879,4503.205078,0,2,51,,,,0,4,4,4,4,4,4,4,4,4,4,4,4,4,4,100,,,,,,,,,,,,,,,,,,,,,,,,,,,,,,,,,,,,,,,,,,,,,,,,,,,,,,,,,,,,,,,,,,,,,,,,,,,,,,,,,,,,,,,,,,,,,,,,,,,,,,,,,,,,,,,,,,,,,,,,,,,,,,,,,,,,,,
1702363031,1702363031,55,0,4374.358887,4361.153809,4379.871582,4317.820313,4330.256348,4338.333496,4342.436035,4329.358887,4333.717773,4360.384766,4567.179688,4560.384766,4431.153809,4512.307617,0,2,51,,,,0,4,4,4,4,4,4,4,4,4,4,4,4,4,4,100,,,,,,,,,,,,,,,,,,,,,,,,,,,,,,,,,,,,,,,,,,,,,,,,,,,,,,,,,,,,,,,,,,,,,,,,,,,,,,,,,,,,,,,,,,,,,,,,,,,,,,,,,,,,,,,,,,,,,,,,,,,,,,,,,,,,,,
1702363031,1702363031,56,0,4373.846191,4366.410156,4375.256348,4312.820313,4323.461426,4332.692383,4337.179688,4326.538574,4337.179688,4366.538574,4571.922852,4555.769043,4435.641113,4511.538574,0,2,51,,,,0,4,4,4,4,4,4,4,4,4,4,4,4,4,4,100,,,,,,,,,,,,,,,,,14,0,0.47872,0.182861,-0.696289,0.502563,0.851666,-0.483457,-0.092785,-28.340418,-15.113023,87.809242,,,,,,,,,,,,,,,,,,,,,,,,,,,,,,,,,,,,,,,,,,,,,,,,,,,,,,,,,,,,,,,,,,,,,,,,,,,,,,,,,,,,,,,,,,,,,,,,,,,,,,,,,,
1702363031,1702363031,57,0,4370.769043,4358.461426,4378.589844,4318.717773,4335.128418,4343.077148,4339.615234,4327.94873,4337.05127,4362.307617,4566.794922,4553.974121,4436.538574,4510.512695,0,2,51,,,,0,4,4,4,4,4,4,4,4,4,4,4,4,4,4,100,,,,,,,,,,,,,,,,,,,,,,,,,,,,,,,,,,,,,,,,,,,,,,,,,,,,,,,,,,,,,,,,,,,,,,,,,,,,,,,,,,,,,,,,,,,,,,,,,,,,,,,,,,,,,,,,,,,,,,,,,,,,,,,,,,,,,,
1702363031,1702363031,58,0,4372.179688,4360.641113,4380.769043,4319.871582,4341.282227,4348.333496,4344.871582,4327.563965,4332.94873,4354.871582,4562.05127,4552.307617,4432.692383,4508.717773,0,2,51,,,,0,4,4,4,4,4,4,4,4,4,4,4,4,4,4,100,,,,,,,,,,,,,,,,,,,,,,,,,,,,,,,,,,,,,,,,,,,,,,,,,,,,,,,,,,,,,,,,,,,,,,,,,,,,,,,,,,,,,,,,,,,,,,,,,,,,,,,,,,,,,,,,,,,,,,,,,,,,,,,,,,,,,,
1702363031,1702363031,59,0,4362.692383,4346.025879,4368.333496,4304.358887,4325.256348,4334.615234,4334.743652,4322.05127,4328.461426,4351.794922,4552.820313,4540.769043,4426.153809,4496.922852,0,2,51,,,,0,4,4,4,4,4,4,4,4,4,4,4,4,4,4,100,,,,,,,,,,,,,,,,,,,,,,,,,,,,,,,,,,,,,,,,,,,,,,,,,,,,,,,,,,,,,,,,,,,,,,,,,,,,,,,,,,,,,,,,,,,,,,,,,,,,,,,,,,,,,,,,,,,,,,,,,,,,,,,,,,,,,,
1702363031,1702363031,60,0,4354.871582,4314.358887,4362.94873,4303.333496,4313.589844,4324.615234,4325,4319.871582,4327.436035,4348.077148,4541.794922,4535.641113,4423.589844,4488.974121,0,2,51,,,,0,4,4,4,4,4,4,4,4,4,4,4,4,4,4,100,,,,,,,,,,,,,,,,,15,0,0.478911,0.1828,-0.69635,0.502319,0.85362,-0.490783,-0.07667,-28.423042,-15.068387,87.744987,,,,,,,,,,,,,,,,,,,,,,,,,,,,,,,,,,,,,,,,,,,,,,,,,,,,,,,,,,,,,,,,,,,,,,,,,,,,,,,,,,,,,,,,,,,,,,,,,,,,,,,,,,
1702363031,1702363031,61,0,4353.077148,4302.307617,4366.025879,4304.871582,4317.820313,4327.820313,4327.307617,4318.077148,4321.282227,4335,4533.077148,4533.333496,4413.846191,4485.641113,0,2,51,,,,0,4,4,4,4,4,4,4,4,4,4,4,4,4,4,100,,,,,,,,,,,,,,,,,,,,,,,,,,,,,,,,,,,,,,,,,,,,,,,,,,,,,,,,,,,,,,,,,,,,,,,,,,,,,,,,,,,,,,,,,,,,,,,,,,,,,,,,,,,,,,,,,,,,,,,,,,,,,,,,,,,,,,
1702363031,1702363031,62,0,4342.05127,4303.589844,4360.256348,4285.384766,4315.897461,4328.461426,4324.102539,4311.282227,4309.615234,4321.666504,4525.512695,4521.666504,4399.102539,4475.769043,0,2,51,,,,0,4,4,4,4,4,4,4,4,4,4,4,4,4,4,100,,,,,,,,,,,,,,,,,,,,,,,,,,,,,,,,,,,,,,,,,,,,,,,,,,,,,,,,,,,,,,,,,6.70642,1.314352,0.648667,0.433897,0.520895,85.883553,7.317527,1.67456,0.975907,0.766122,3.283863,0.759216,0.345245,0.180215,0.26297,6.181722,1.239129,0.851872,0.384627,0.329861,4.802768,0.855711,1.018593,0.743878,0.945015,2.13721,0.282014,0.193283,0.171801,0.218786,5.378258,0.510674,0.288741,0.195499,0.344632,1.548534,0.273564,0.245541,0.132268,0.17909,2.458755,0.775003,0.496488,0.259536,0.250116,4.094085,1.058937,0.947528,0.604023,0.371366,5.658461,1.855163,1.178799,0.607655,0.544138,6.820062,1.575664,0.773406,0.476568,0.565546,9.03729,5.100316,1.935113,1.354629,0.800245,5.375783,2.015689,0.6751,0.483253,0.503015
1702363031,1702363031,63,0,4338.461426,4308.205078,4357.820313,4283.589844,4307.307617,4325.256348,4320.256348,4308.717773,4305.512695,4318.974121,4521.025879,4516.410156,4401.153809,4471.153809,0,2,51,,,,0,4,4,4,4,4,4,4,4,4,4,4,4,4,4,100,,,,,,,,,,,,,,,,,,,,,,,,,,,,,,,,,,,,,,,,,,,,,,,,,,,,,,,,,,,,,,,,,,,,,,,,,,,,,,,,,,,,,,,,,,,,,,,,,,,,,,,,,,,,,,,,,,,,,,,,,,,,,,,,,,,,,,
1702363031,1702363031,64,0,4353.846191,4327.436035,4367.563965,4305.256348,4313.077148,4328.974121,4326.153809,4315.128418,4317.820313,4333.077148,4526.538574,4527.563965,4416.794922,4481.153809,4291,2,51,,,,0,4,4,4,4,4,4,4,4,4,4,4,4,4,4,100,,,,,,,,,,,,,,,,,16,0,0.479022,0.182678,-0.69635,0.502258,0.867782,-0.491271,-0.077646,-28.347404,-15.011549,87.937157,,,,,,,,,,,,,,,,,,,,,,,,,,,,,,,,,,,,,,,,,,,,,,,,,,,,,,,,,,,,,,,,,,,,,,,,,,,,,,,,,,,,,,,,,,,,,,,,,,,,,,,,,,
1702363031,1702363031,65,0,4353.205078,4336.794922,4368.077148,4299.230957,4310.897461,4324.871582,4319.871582,4314.871582,4319.871582,4334.743652,4526.153809,4527.820313,4413.077148,4480.769043,5504,2,51,,,,0,4,4,4,4,4,4,4,4,4,4,4,4,4,4,100,,,,,,,,,,,,,,,,,,,,,,,,,,,,,,,,,,,,,,,,,,,,,,,,,,,,,,,,,,,,,,,,,,,,,,,,,,,,,,,,,,,,,,,,,,,,,,,,,,,,,,,,,,,,,,,,,,,,,,,,,,,,,,,,,,,,,,
1702363031,1702363031,66,0,4334.487305,4331.282227,4355.769043,4280.512695,4300.128418,4315.256348,4306.922852,4307.692383,4304.871582,4315.384766,4516.410156,4512.05127,4397.436035,4466.666504,5512,2,51,,,,0,4,4,4,4,4,4,4,4,4,4,4,4,4,4,100,,,,,,,,,,,,,,,,,,,,,,,,,,,,,,,,,,,,,,,,,,,,,,,,,,,,,,,,,,,,,,,,,,,,,,,,,,,,,,,,,,,,,,,,,,,,,,,,,,,,,,,,,,,,,,,,,,,,,,,,,,,,,,,,,,,,,,
