Timestamp,OriginalTimestamp,EEG.Counter,EEG.Interpolated,EEG.AF3,EEG.F7,EEG.F3,EEG.FC5,EEG.T7,EEG.P7,EEG.O1,EEG.O2,EEG.P8,EEG.T8,EEG.FC6,EEG.F4,EEG.F8,EEG.AF4,EEG.RawCq,EEG.Battery,EEG.BatteryPercent,MarkerIndex,MarkerType,MarkerValueInt,EEG.MarkerHardware,CQ.AF3,CQ.F7,CQ.F3,CQ.FC5,CQ.T7,CQ.P7,CQ.O1,CQ.O2,CQ.P8,CQ.T8,CQ.FC6,CQ.F4,CQ.F8,CQ.AF4,CQ.Overall,EQ.SampleRateQuality,EQ.OVERALL,EQ.AF3,EQ.F7,EQ.F3,EQ.FC5,EQ.T7,EQ.P7,EQ.O1,EQ.O2,EQ.P8,EQ.T8,EQ.FC6,EQ.F4,EQ.F8,EQ.AF4,MOT.CounterMems,MOT.InterpolatedMems,MOT.Q0,MOT.Q1,MOT.Q2,MOT.Q3,MOT.AccX,MOT.AccY,MOT.AccZ,MOT.MagX,MOT.MagY,MOT.MagZ,PM.Attention.IsActive,PM.Attention.Scaled,PM.Attention.Raw,PM.Attention.Min,PM.Attention.Max,PM.Engagement.IsActive,PM.Engagement.Scaled,PM.Engagement.Raw,PM.Engagement.Min,PM.Engagement.Max,PM.Excitement.IsActive,PM.Excitement.Scaled,PM.Excitement.Raw,PM.Excitement.Min,PM.Excitement.Max,PM.LongTermExcitement,PM.Stress.IsActive,PM.Stress.Scaled,PM.Stress.Raw,PM.Stress.Min,PM.Stress.Max,PM.Relaxation.IsActive,PM.Relaxation.Scaled,PM.Relaxation.Raw,PM.Relaxation.Min,PM.Relaxation.Max,PM.Interest.IsActive,PM.Interest.Scaled,PM.Interest.Raw,PM.Interest.Min,PM.Interest.Max,PM.Focus.IsActive,PM.Focus.Scaled,PM.Focus.Raw,PM.Focus.Min,PM.Focus.Max,POW.AF3.Theta,POW.AF3.Alpha,POW.AF3.BetaL,POW.AF3.BetaH,POW.AF3.Gamma,POW.F7.Theta,POW.F7.Alpha,POW.F7.BetaL,POW.F7.BetaH,POW.F7.Gamma,POW.F3.Theta,POW.F3.Alpha,POW.F3.BetaL,POW.F3.BetaH,POW.F3.Gamma,POW.FC5.Theta,POW.FC5.Alpha,POW.FC5.BetaL,POW.FC5.BetaH,POW.FC5.Gamma,POW.T7.Theta,POW.T7.Alpha,POW.T7.BetaL,POW.T7.BetaH,POW.T7.Gamma,POW.P7.Theta,POW.P7.Alpha,POW.P7.BetaL,POW.P7.BetaH,POW.P7.Gamma,POW.O1.Theta,POW.O1.Alpha,POW.O1.BetaL,POW.O1.BetaH,POW.O1.Gamma,POW.O2.Theta,POW.O2.Alpha,POW.O2.BetaL,POW.O2.BetaH,POW.O2.Gamma,POW.P8.Theta,POW.P8.Alpha,POW.P8.BetaL,POW.P8.BetaH,POW.P8.Gamma,POW.T8.Theta,POW.T8.Alpha,POW.T8.BetaL,POW.T8.BetaH,POW.T8.Gamma,POW.FC6.Theta,POW.FC6.Alpha,POW.FC6.BetaL,POW.FC6.BetaH,POW.FC6.Gamma,POW.F4.Theta,POW.F4.Alpha,POW.F4.BetaL,POW.F4.BetaH,POW.F4.Gamma,POW.F8.Theta,POW.F8.Alpha,POW.F8.BetaL,POW.F8.BetaH,POW.F8.Gamma,POW.AF4.Theta,POW.AF4.Alpha,POW.AF4.BetaL,POW.AF4.BetaH,POW.AF4.Gamma
,,,,,,,,,,,,,,,,,,,,,,,,,,,,,,,,,,,,,,,,,,,,,,,,,,,,,,,,,,,,,,,,,,,,,,,,,,,,,,,,,,,,,,,,,,,,,,,,,,,,,,,,,,,,,,,,,,,,,,,,,,,,,,,,,,,,,,,,,,,,,,,,,,,,,,,,,,,,,,,,,,,,,,,,,,,,,
1702363172,1702363172,53,0,4217.436035,3977.435791,4259.358887,4300.256348,4235.384766,4244.358887,4215.128418,4220.512695,4185.641113,4171.538574,4325.769043,4387.436035,4208.846191,4297.94873,0,2,51,,,,0,4,4,4,4,4,4,4,4,4,4,4,4,4,4,100,,,,,,,,,,,,,,,,,,,,,,,,,,,,,,,,,,,,,,,,,,,,,,,,,,,,,,,,,,,,,,,,,,,,,,,,,,,,,,,,,,,,,,,,,,,,,,,,,,,,,,,,,,,,,,,,,,,,,,,,,,,,,,,,,,,,,,
1702363172,1702363172,54,0,4226.922852,3981.923096,4266.282227,4312.94873,4234.487305,4248.205078,4221.922852,4226.282227,4187.179688,4165.384766,4335.897461,4396.282227,4214.487305,4301.922852,0,2,51,,,,0,4,4,4,4,4,4,4,4,4,4,4,4,4,4,100,,,,,,,,,,,,,,,,,,,,,,,,,,,,,,,,,,,,,,,,,,,,,,,,,,,,,,,,,,,,,,,,,,,,,,,,,,,,,,,,,,,,,,,,,,,,,,,,,,,,,,,,,,,,,,,,,,,,,,,,,,,,,,,,,,,,,,
1702363172,1702363172,55,0,4244.102539,3988.846191,4268.461426,4320.897461,4233.461426,4261.794922,4231.153809,4235.128418,4203.846191,4175.897461,4349.102539,4402.94873,4219.102539,4316.282227,0,2,51,,,,0,4,4,4,4,4,4,4,4,4,4,4,4,4,4,100,,,,,,,,,,,,,,,,,,,,,,,,,,,,,,,,,,,,,,,,,,,,,,,,,,,,,,,,,,,,,,,,,,,,,,,,,,,,,,,,,,,,,,,,,,,,,,,,,,,,,,,,,,,,,,,,,,,,,,,,,,,,,,,,,,,,,,
1702363172,1702363172,56,0,4247.179688,3988.846191,4264.102539,4316.794922,4236.922852,4260.769043,4223.333496,4234.102539,4207.692383,4185.897461,4346.666504,4397.820313,4218.589844,4323.846191,0,2,51,,,,0,4,4,4,4,4,4,4,4,4,4,4,4,4,4,100,,,,,,,,,,,,,,,,,14,0,0.631336,0.330933,-0.61676,0.333923,1.006959,0.001465,0.017092,-5.033938,2.142416,79.615135,,,,,,,,,,,,,,,,,,,,,,,,,,,,,,,,,,,,,,,,,,,,,,,,,,,,,,,,,,,,,,,,,,,,,,,,,,,,,,,,,,,,,,,,,,,,,,,,,,,,,,,,,,
1702363173,1702363173,57,0,4229.487305,3980.384521,4258.589844,4311.153809,4238.461426,4243.717773,4205.256348,4224.487305,4187.94873,4169.487305,4328.333496,4386.538574,4207.05127,4302.436035,0,2,51,,,,0,4,4,4,4,4,4,4,4,4,4,4,4,4,4,100,,,,,,,,,,,,,,,,,,,,,,,,,,,,,,,,,,,,,,,,,,,,,,,,,,,,,,,,,,,,,,,,,,,,,,,,,,,,,,,,,,,,,,,,,,,,,,,,,,,,,,,,,,,,,,,,,,,,,,,,,,,,,,,,,,,,,,
1702363173,1702363173,58,0,4217.820313,3982.05127,4258.589844,4314.615234,4235.256348,4245.128418,4203.846191,4223.974121,4185.256348,4162.436035,4326.410156,4389.102539,4201.666504,4286.538574,0,2,51,,,,0,4,4,4,4,4,4,4,4,4,4,4,4,4,4,100,,,,,,,,,,,,,,,,,,,,,,,,,,,,,,,,,,,,,,,,,,,,,,,,,,,,,,,,,,,,,,,,,,,,,,,,,,,,,,,,,,,,,,,,,,,,,,,,,,,,,,,,,,,,,,,,,,,,,,,,,,,,,,,,,,,,,,
1702363173,1702363173,59,0,4203.589844,3982.05127,4259.358887,4313.717773,4220.897461,4251.922852,4210.256348,4231.922852,4193.077148,4170.641113,4339.102539,4392.436035,4203.333496,4296.282227,0,2,51,,,,0,4,4,4,4,4,4,4,4,4,4,4,4,4,4,100,,,,,,,,,,,,,,,,,,,,,,,,,,,,,,,,,,,,,,,,,,,,,,,,,,,,,,,,,,,,,,,,,,,,,,,,,,,,,,,,,,,,,,,,,,,,,,,,,,,,,,,,,,,,,,,,,,,,,,,,,,,,,,,,,,,,,,
1702363173,1702363173,60,0,4188.717773,3976.410156,4250,4304.615234,4213.974121,4244.743652,4204.743652,4230.512695,4188.717773,4169.871582,4337.436035,4382.563965,4201.666504,4294.102539,0,2,51,,,,0,4,4,4,4,4,4,4,4,4,4,4,4,4,4,100,,,,,,,,,,,,,,,,,15,0,0.631235,0.330505,-0.617126,0.333862,0.982542,0.010743,0.013185,-5.080544,2.161507,79.470291,,,,,,,,,,,,,,,,,,,,,,,,,,,,,,,,,,,,,,,,,,,,,,,,,,,,,,,,,,,,,,,,,,,,,,,,,,,,,,,,,,,,,,,,,,,,,,,,,,,,,,,,,,
1702363173,1702363173,61,0,4204.615234,3982.05127,4241.410156,4300.512695,4227.436035,4243.846191,4203.589844,4226.922852,4192.179688,4168.077148,4326.538574,4377.307617,4202.436035,4274.487305,0,2,51,,,,0,4,4,4,4,4,4,4,4,4,4,4,4,4,4,100,,,,,,,,,,,,,,,,,,,,,,,,,,,,,,,,,,,,,,,,,,,,,,,,,,,,,,,,,,,,,,,,,,,,,,,,,,,,,,,,,,,,,,,,,,,,,,,,,,,,,,,,,,,,,,,,,,,,,,,,,,,,,,,,,,,,,,
1702363173,1702363173,62,0,4224.358887,3995.769287,4247.692383,4308.461426,4237.307617,4250.512695,4214.871582,4229.615234,4201.538574,4172.563965,4332.05127,4383.589844,4204.230957,4273.974121,0,2,51,,,,0,4,4,4,4,4,4,4,4,4,4,4,4,4,4,100,,,,,,,,,,,,,,,,,,,,,,,,,,,,,,,,,,,,,,,,,,,,,,,,,,,,,,,,,,,,,,,,,43.021038,6.432728,1.955855,0.729911,0.716267,50.874813,6.582296,3.049012,1.054572,0.956074,9.199796,1.095732,0.940917,0.418817,0.37177,10.102654,1.453591,1.534593,0.529428,0.659943,9.751982,1.454113,1.938683,2.049067,1.145085,4.725565,0.479225,0.410094,0.382209,0.336733,12.515162,1.205529,0.794686,0.545018,0.439891,5.617052,0.706258,0.521235,0.478977,0.333914,8.988579,1.272084,0.745699,0.652797,0.490062,15.403915,1.553807,1.193013,1.047843,0.687496,23.37299,3.59119,1.575286,1.101223,0.927097,22.07992,3.290847,2.156106,1.039929,0.831212,49.704422,6.393804,2.017944,0.939644,1.150207,45.238605,6.821626,2.619437,0.775325,0.809406
1702363173,1702363173,63,0,4205.897461,3993.461426,4252.820313,4312.436035,4221.794922,4248.717773,4215,4222.436035,4190.769043,4170.897461,4335.256348,4380.512695,4196.410156,4280.128418,0,2,51,,,,0,4,4,4,4,4,4,4,4,4,4,4,4,4,4,100,,,,,,,,,,,,,,,,,,,,,,,,,,,,,,,,,,,,,,,,,,,,,,,,,,,,,,,,,,,,,,,,,,,,,,,,,,,,,,,,,,,,,,,,,,,,,,,,,,,,,,,,,,,,,,,,,,,,,,,,,,,,,,,,,,,,,,
1702363173,1702363173,64,0,4193.717773,3991.794922,4248.846191,4311.666504,4212.94873,4243.717773,4208.461426,4219.487305,4182.436035,4165.897461,4327.05127,4374.358887,4196.410156,4279.487305,4270,2,51,,,,0,4,4,4,4,4,4,4,4,4,4,4,4,4,4,100,,,,,,,,,,,,,,,,,16,0,0.631357,0.329895,-0.617493,0.333557,0.975217,0.015627,0.024905,-4.989156,2.17869,79.473259,,,,,,,,,,,,,,,,,,,,,,,,,,,,,,,,,,,,,,,,,,,,,,,,,,,,,,,,,,,,,,,,,,,,,,,,,,,,,,,,,,,,,,,,,,,,,,,,,,,,,,,,,,
1702363173,1702363173,65,0,4192.436035,4005.897461,4246.282227,4316.153809,4214.358887,4244.230957,4209.487305,4226.538574,4193.205078,4167.94873,4328.974121,4377.563965,4207.436035,4281.282227,5460,2,51,,,,0,4,4,4,4,4,4,4,4,4,4,4,4,4,4,100,,,,,,,,,,,,,,,,,,,,,,,,,,,,,,,,,,,,,,,,,,,,,,,,,,,,,,,,,,,,,,,,,,,,,,,,,,,,,,,,,,,,,,,,,,,,,,,,,,,,,,,,,,,,,,,,,,,,,,,,,,,,,,,,,,,,,,
1702363173,1702363173,66,0,4168.205078,4018.205078,4249.487305,4317.179688,4209.230957,4245.897461,4207.94873,4221.922852,4195.897461,4173.333496,4335.256348,4385.897461,4208.461426,4279.871582,5509,2,51,,,,0,4,4,4,4,4,4,4,4,4,4,4,4,4,4,100,,,,,,,,,,,,,,,,,,,,,,,,,,,,,,,,,,,,,,,,,,,,,,,,,,,,,,,,,,,,,,,,,,,,,,,,,,,,,,,,,,,,,,,,,,,,,,,,,,,,,,,,,,,,,,,,,,,,,,,,,,,,,,,,,,,,,,
1702363173,1702363173,67,0,4165.897461,4020.897461,4249.871582,4313.205078,4210,4243.589844,4201.410156,4215.512695,4186.410156,4164.871582,4328.077148,4382.179688,4198.077148,4273.077148,5519,2,51,,,,0,4,4,4,4,4,4,4,4,4,4,4,4,4,4,100,,,,,,,,,,,,,,,,,,,,,,,,,,,,,,,,,,,,,,,,,,,,,,,,,,,,,,,,,,,,,,,,,,,,,,,,,,,,,,,,,,,,,,,,,,,,,,,,,,,,,,,,,,,,,,,,,,,,,,,,,,,,,,,,,,,,,,
1702363173,1702363173,68,0,4180.641113,4024.230713,4240.128418,4315.897461,4211.153809,4241.538574,4198.589844,4215.897461,4181.666504,4150.256348,4316.282227,4361.538574,4185,4262.307617,5422,2,51,,,,0,4,4,4,4,4,4,4,4,4,4,4,4,4,4,100,,,,,,,,,,,,,,,,,17,0,0.631401,0.329407,-0.617676,0.333618,0.992309,-0.000488,0.021487,-5.006907,2.260821,79.492599,,,,,,,,,,,,,,,,,,,,,,,,,,,,,,,,,,,,,,,,,,,,,,,,,,,,,,,,,,,,,,,,,,,,,,,,,,,,,,,,,,,,,,,,,,,,,,,,,,,,,,,,,,
1702363173,1702363173,69,0,4173.846191,4046.025635,4244.230957,4329.615234,4215.641113,4247.94873,4208.589844,4219.230957,4186.538574,4159.487305,4328.077148,4362.820313,4187.179688,4262.436035,4278,2,51,,,,0,4,4,4,4,4,4,4,4,4,4,4,4,4,4,100,,,,,,,,,,,,,,,,,,,,,,,,,,,,,,,,,,,,,,,,,,,,,,,,,,,,,,,,,,,,,,,,,,,,,,,,,,,,,,,,,,,,,,,,,,,,,,,,,,,,,,,,,,,,,,,,,,,,,,,,,,,,,,,,,,,,,,
1702363173,1702363173,70,0,4179.102539,4062.94873,4262.820313,4338.461426,4227.05127,4255.256348,4223.846191,4226.666504,4191.794922,4174.358887,4341.538574,4391.794922,4205.897461,4273.333496,5222,2,51,,,,0,4,4,4,4,4,4,4,4,4,4,4,4,4,4,100,,,,,,,,,,,,,,,,,,,,,,,,,,,,,,,,,,,,,,,,,,,,,,,,,,,,,,,,,,,,,,,,,,,,,,,,,,,,,,,,,,,,,,,,,,,,,,,,,,,,,,,,,,,,,,,,,,,,,,,,,,,,,,,,,,,,,,
1702363173,1702363173,71,0,4173.717773,4047.692383,4256.794922,4323.717773,4222.436035,4244.487305,4213.333496,4221.922852,4184.615234,4159.487305,4328.974121,4383.717773,4198.846191,4273.974121,3952,2,51,,,,0,4,4,4,4,4,4,4,4,4,4,4,4,4,4,100,,,,,,,,,,,,,,,,,,,,,,,,,,,,,,,,,,,,,,,,,,,,,,,,,,,,,,,,,,,,,,,,,,,,,,,,,,,,,,,,,,,,,,,,,,,,,,,,,,,,,,,,,,,,,,,,,,,,,,,,,,,,,,,,,,,,,,
1702363173,1702363173,72,0,4149.230957,4043.333252,4243.974121,4317.179688,4197.307617,4235.641113,4198.333496,4212.94873,4182.94873,4151.025879,4323.974121,4367.94873,4177.05127,4254.358887,4562,2,51,,,,0,4,4,4,4,4,4,4,4,4,4,4,4,4,4,100,,,,,,,,,,,,,,,,,18,0,0.631251,0.32843,-0.61792,0.334412,0.984495,-0.00879,0.024417,-5.022883,2.251405,79.426674,,,,,,,,,,,,,,,,,,,,,,,,,,,,,,,,,,,,,,,,,,,,,,,,,,,,,,,,,,,,,,,,,,,,,,,,,,,,,,,,,,,,,,,,,,,,,,,,,,,,,,,,,,
1702363173,1702363173,73,0,4155,4095.769287,4280.256348,4359.615234,4222.563965,4255.512695,4229.487305,4232.94873,4206.538574,4186.794922,4351.282227,4427.820313,4206.794922,4263.846191,5500,2,51,,,,0,4,4,4,4,4,4,4,4,4,4,4,4,4,4,100,,,,,,,,,,,,,,,,,,,,,,,,,,,,,,,,,,,,,,,,,,,,,,,,,,,,,,,,,,,,,,,,,,,,,,,,,,,,,,,,,,,,,,,,,,,,,,,,,,,,,,,,,,,,,,,,,,,,,,,,,,,,,,,,,,,,,,
1702363173,1702363173,74,0,4150.897461,4136.153809,4309.871582,4381.282227,4261.538574,4271.538574,4253.333496,4246.538574,4217.05127,4202.307617,4365,4466.153809,4241.153809,4277.563965,6037,2,51,,,,0,4,4,4,4,4,4,4,4,4,4,4,4,4,4,100,,,,,,,,,,,,,,,,,,,,,,,,,,,,,,,,,,,,,,,,,,,,,,,,,,,,,,,,,,,,,,,,,,,,,,,,,,,,,,,,,,,,,,,,,,,,,,,,,,,,,,,,,,,,,,,,,,,,,,,,,,,,,,,,,,,,,,
1702363173,1702363173,75,0,4134.615234,4134.743652,4275.641113,4353.077148,4234.102539,4260.897461,4229.743652,4225.769043,4200.769043,4181.922852,4348.974121,4413.974121,4217.94873,4249.487305,6170,2,51,,,,0,4,4,4,4,4,4,4,4,4,4,4,4,4,4,100,,,,,,,,,,,,,,,,,,,,,,,,,,,,,,,,,,,,,,,,,,,,,,,,,,,,,,,,,,,,,,,,,,,,,,,,,,,,,,,,,,,,,,,,,,,,,,,,,,,,,,,,,,,,,,,,,,,,,,,,,,,,,,,,,,,,,,
1702363173,1702363173,76,0,4172.692383,4170.897461,4255,4366.538574,4217.692383,4256.538574,4223.717773,4222.563965,4198.717773,4185.641113,4360.769043,4387.94873,4212.820313,4276.410156,6534,2,51,,,,0,4,4,4,4,4,4,4,4,4,4,4,4,4,4,100,,,,,,,,,,,,,,,,,19,0,0.630845,0.326538,-0.618774,0.335449,0.98596,0.014162,0.022464,-5.037261,2.242932,79.450676,,,,,,,,,,,,,,,,,,,,,,,,,,,,,,,,,,,,,,,,,,,,,,,,,,,,,,,,,,,,,,,,,,,,,,,,,,,,,,,,,,,,,,,,,,,,,,,,,,,,,,,,,,
1702363173,1702363173,77,0,4216.153809,4226.922852,4279.871582,4409.615234,4242.94873,4264.615234,4244.230957,4240,4212.692383,4203.077148,4388.461426,4421.410156,4245.769043,4340.641113,6745,2,51,,,,0,4,4,4,4,4,4,4,4,4,4,4,4,4,4,100,,,,,,,,,,,,,,,,,,,,,,,,,,,,,,,,,,,,,,,,,,,,,,,,,,,,,,,,,,,,,,,,,,,,,,,,,,,,,,,,,,,,,,,,,,,,,,,,,,,,,,,,,,,,,,,,,,,,,,,,,,,,,,,,,,,,,,
1702363173,1702363173,78,0,4216.025879,4246.666504,4290.641113,4415.897461,4262.692383,4273.205078,4257.307617,4245.512695,4222.307617,4210.641113,4392.563965,4438.846191,4258.461426,4335.641113,6037,2,51,,,,0,4,4,4,4,4,4,4,4,4,4,4,4,4,4,100,,,,,,,,,,,,,,,,,,,,,,,,,,,,,,,,,,,,,,,,,,,,,,,,,,,,,,,,,,,,,,,,,36.32761,4.228861,2.082978,0.690256,0.771436,59.372517,6.03828,3.168953,0.950957,1.03785,9.682288,1.021541,1.019228,0.336948,0.386865,12.201419,1.370591,1.734648,0.459481,0.691505,10.183182,1.545073,2.139514,1.913831,1.08576,5.108163,0.490445,0.438581,0.287095,0.346466,11.587324,1.243941,0.881072,0.488791,0.451265,5.001666,0.683743,0.572871,0.35058,0.353376,7.831609,1.187303,0.864683,0.51368,0.530854,13.197364,1.638189,1.568819,0.971019,0.742881,19.596556,3.026485,1.974245,0.958825,0.904268,20.919882,3.125462,2.454667,0.909861,0.853716,38.628811,5.075391,2.112336,0.846103,1.125697,37.276386,4.881166,2.959538,0.645167,0.891388
1702363173,1702363173,79,0,4234.102539,4262.307617,4288.333496,4417.179688,4276.153809,4287.436035,4270.384766,4252.692383,4231.410156,4222.94873,4399.358887,4440.769043,4265.128418,4323.974121,6170,2,51,,,,0,4,4,4,4,4,4,4,4,4,4,4,4,4,4,100,,,,,,,,,,,,,,,,,,,,,,,,,,,,,,,,,,,,,,,,,,,,,,,,,,,,,,,,,,,,,,,,,,,,,,,,,,,,,,,,,,,,,,,,,,,,,,,,,,,,,,,,,,,,,,,,,,,,,,,,,,,,,,,,,,,,,,
1702363173,1702363173,80,0,4260,4277.307617,4292.436035,4434.871582,4268.461426,4285.897461,4274.102539,4254.871582,4229.871582,4225.256348,4407.820313,4444.487305,4275.512695,4347.307617,6534,2,51,,,,0,4,4,4,4,4,4,4,4,4,4,4,4,4,4,100,,,,,,,,,,,,,,,,,20,0,0.630591,0.325134,-0.619507,0.335938,0.987914,0.010743,0.016604,-5.133535,2.201972,79.555611,,,,,,,,,,,,,,,,,,,,,,,,,,,,,,,,,,,,,,,,,,,,,,,,,,,,,,,,,,,,,,,,,,,,,,,,,,,,,,,,,,,,,,,,,,,,,,,,,,,,,,,,,,
1702363173,1702363173,81,0,4255.256348,4264.358887,4287.692383,4439.743652,4238.846191,4271.538574,4263.846191,4243.974121,4217.563965,4205.512695,4396.666504,4441.025879,4262.563965,4330.384766,6745,2,51,,,,0,4,4,4,4,4,4,4,4,4,4,4,4,4,4,100,,,,,,,,,,,,,,,,,,,,,,,,,,,,,,,,,,,,,,,,,,,,,,,,,,,,,,,,,,,,,,,,,,,,,,,,,,,,,,,,,,,,,,,,,,,,,,,,,,,,,,,,,,,,,,,,,,,,,,,,,,,,,,,,,,,,,,
1702363173,1702363173,82,0,4266.410156,4277.563965,4298.846191,4460.512695,4264.615234,4290.512695,4278.717773,4254.487305,4237.820313,4225.769043,4407.05127,4463.461426,4272.307617,4327.94873,6037,2,51,,,,0,4,4,4,4,4,4,4,4,4,4,4,4,4,4,100,,,,,,,,,,,,,,,,,,,,,,,,,,,,,,,,,,,,,,,,,,,,,,,,,,,,,,,,,,,,,,,,,,,,,,,,,,,,,,,,,,,,,,,,,,,,,,,,,,,,,,,,,,,,,,,,,,,,,,,,,,,,,,,,,,,,,,
1702363173,1702363173,83,0,4269.358887,4314.743652,4335.384766,4495.769043,4323.846191,4321.794922,4307.692383,4276.922852,4271.025879,4275.641113,4449.102539,4505.641113,4313.333496,4372.436035,6170,2,51,,,,0,4,4,4,4,4,4,4,4,4,4,4,4,4,4,100,,,,,,,,,,,,,,,,,,,,,,,,,,,,,,,,,,,,,,,,,,,,,,,,,,,,,,,,,,,,,,,,,,,,,,,,,,,,,,,,,,,,,,,,,,,,,,,,,,,,,,,,,,,,,,,,,,,,,,,,,,,,,,,,,,,,,,
1702363173,1702363173,84,0,4300.128418,4324.487305,4353.461426,4517.436035,4334.871582,4334.487305,4326.410156,4285.897461,4284.230957,4292.436035,4481.282227,4542.94873,4338.333496,4381.410156,6534,2,51,,,,0,4,4,4,4,4,4,4,4,4,4,4,4,4,4,100,,,,,,,,,,,,,,,,,21,0,0.630576,0.324402,-0.619873,0.335999,0.991332,-0.013185,0.021975,-5.120182,2.215108,79.66671,,,,,,,,,,,,,,,,,,,,,,,,,,,,,,,,,,,,,,,,,,,,,,,,,,,,,,,,,,,,,,,,,,,,,,,,,,,,,,,,,,,,,,,,,,,,,,,,,,,,,,,,,,
1702363173,1702363173,85,0,4373.846191,4341.922852,4358.333496,4547.563965,4338.589844,4352.94873,4350.897461,4302.05127,4301.794922,4305.384766,4516.666504,4571.538574,4365.128418,4420,6745,2,51,,,,0,4,4,4,4,4,4,4,4,4,4,4,4,4,4,100,,,,,,,,,,,,,,,,,,,,,,,,,,,,,,,,,,,,,,,,,,,,,,,,,,,,,,,,,,,,,,,,,,,,,,,,,,,,,,,,,,,,,,,,,,,,,,,,,,,,,,,,,,,,,,,,,,,,,,,,,,,,,,,,,,,,,,
1702363173,1702363173,86,0,4376.794922,4365.256348,4378.589844,4565.769043,4347.05127,4357.820313,4361.410156,4314.102539,4310.897461,4323.461426,4543.846191,4569.487305,4382.94873,4481.025879,6037,2,51,,,,0,4,4,4,4,4,4,4,4,4,4,4,4,4,4,100,,,,,,,,,,,,,,,,,,,,,,,,,,,,,,,,,,,,,,,,,,,,,,,,,,,,,,,,,,,,,,,,,,,,,,,,,,,,,,,,,,,,,,,,,,,,,,,,,,,,,,,,,,,,,,,,,,,,,,,,,,,,,,,,,,,,,,
1702363173,1702363173,87,0,4338.461426,4368.205078,4405.641113,4562.94873,4347.436035,4340.769043,4353.846191,4309.615234,4302.436035,4325.897461,4540.384766,4568.974121,4376.410156,4457.307617,6170,2,51,,,,0,4,4,4,4,4,4,4,4,4,4,4,4,4,4,100,,,,,,,,,,,,,,,,,,,,,,,,,,,,,,,,,,,,,,,,,,,,,,,,,,,,,,,,,,,,,,,,,,,,,,,,,,,,,,,,,,,,,,,,,,,,,,,,,,,,,,,,,,,,,,,,,,,,,,,,,,,,,,,,,,,,,,
1702363173,1702363173,88,0,4379.102539,4389.743652,4415.641113,4577.692383,4372.563965,4352.307617,4367.307617,4316.538574,4308.461426,4334.487305,4545.769043,4595.384766,4394.871582,4428.205078,6534,2,51,,,,0,4,4,4,4,4,4,4,4,4,4,4,4,4,4,100,,,,,,,,,,,,,,,,,22,0,0.630709,0.323792,-0.620056,0.335999,0.989867,-0.000977,0.020999,-5.191497,2.226931,79.800041,,,,,,,,,,,,,,,,,,,,,,,,,,,,,,,,,,,,,,,,,,,,,,,,,,,,,,,,,,,,,,,,,,,,,,,,,,,,,,,,,,,,,,,,,,,,,,,,,,,,,,,,,,
1702363173,1702363173,89,0,4441.410156,4421.153809,4407.179688,4591.922852,4383.461426,4371.282227,4386.794922,4326.410156,4320.128418,4342.94873,4564.102539,4600.641113,4420.384766,4471.922852,6745,2,51,,,,0,4,4,4,4,4,4,4,4,4,4,4,4,4,4,100,,,,,,,,,,,,,,,,,,,,,,,,,,,,,,,,,,,,,,,,,,,,,,,,,,,,,,,,,,,,,,,,,,,,,,,,,,,,,,,,,,,,,,,,,,,,,,,,,,,,,,,,,,,,,,,,,,,,,,,,,,,,,,,,,,,,,,
1702363173,1702363173,90,0,4398.333496,4415.897461,4407.94873,4573.589844,4359.230957,4358.974121,4381.410156,4322.94873,4313.589844,4329.358887,4566.025879,4585.256348,4405.769043,4485.384766,6037,2,51,,,,0,4,4,4,4,4,4,4,4,4,4,4,4,4,4,100,,,,,,,,,,,,,,,,,,,,,,,,,,,,,,,,,,,,,,,,,,,,,,,,,,,,,,,,,,,,,,,,,,,,,,,,,,,,,,,,,,,,,,,,,,,,,,,,,,,,,,,,,,,,,,,,,,,,,,,,,,,,,,,,,,,,,,
1702363173,1702363173,91,0,4359.358887,4412.692383,4424.743652,4568.333496,4362.436035,4358.333496,4376.922852,4323.846191,4317.94873,4330.256348,4569.230957,4596.538574,4398.333496,4462.820313,6170,2,51,,,,0,4,4,4,4,4,4,4,4,4,4,4,4,4,4,100,,,,,,,,,,,,,,,,,,,,,,,,,,,,,,,,,,,,,,,,,,,,,,,,,,,,,,,,,,,,,,,,,,,,,,,,,,,,,,,,,,,,,,,,,,,,,,,,,,,,,,,,,,,,,,,,,,,,,,,,,,,,,,,,,,,,,,
1702363173,1702363173,92,0,4417.94873,4445.512695,4440.384766,4597.05127,4399.487305,4382.179688,4392.563965,4332.179688,4340.256348,4364.102539,4592.179688,4621.025879,4435.128418,4488.333496,6534,2,51,,,,0,4,4,4,4,4,4,4,4,4,4,4,4,4,4,100,,,,,,,,,,,,,,,,,23,0,0.630889,0.322632,-0.620544,0.335876,0.995239,-0.007813,0.020999,-5.022347,2.220904,79.703369,,,,,,,,,,,,,,,,,,,,,,,,,,,,,,,,,,,,,,,,,,,,,,,,,,,,,,,,,,,,,,,,,,,,,,,,,,,,,,,,,,,,,,,,,,,,,,,,,,,,,,,,,,
1702363173,1702363173,93,0,4438.333496,4446.666504,4433.974121,4587.692383,4393.333496,4372.820313,4385.384766,4323.461426,4333.974121,4356.666504,4587.94873,4606.794922,4435.128418,4493.461426,6745,2,51,,,,0,4,4,4,4,4,4,4,4,4,4,4,4,4,4,100,,,,,,,,,,,,,,,,,,,,,,,,,,,,,,,,,,,,,,,,,,,,,,,,,,,,,,,,,,,,,,,,,,,,,,,,,,,,,,,,,,,,,,,,,,,,,,,,,,,,,,,,,,,,,,,,,,,,,,,,,,,,,,,,,,,,,,
1702363173,1702363173,94,0,4395.384766,4411.282227,4410.256348,4545.641113,4342.94873,4339.615234,4352.692383,4305.384766,4308.333496,4309.230957,4557.820313,4568.717773,4387.436035,4464.615234,6037,2,51,,,,0,4,4,4,4,4,4,4,4,4,4,4,4,4,4,100,,,,,,,,,,,,,,,,,,,,,,,,,,,,,,,,,,,,,,,,,,,,,,,,,,,,,,,,,,,,,,,,,29.733656,2.687761,2.213694,0.776758,0.8496,62.92173,6.24482,3.057733,0.874964,1.138216,9.235635,0.945275,1.038435,0.316269,0.425096,13.722973,1.301237,1.812979,0.477025,0.761358,10.062115,1.564274,2.160511,1.773594,1.068338,5.130812,0.495717,0.452725,0.226647,0.38866,9.766356,1.207796,0.924148,0.475604,0.481762,3.924657,0.630851,0.615682,0.254122,0.380611,6.092255,1.041855,0.964524,0.422283,0.583684,9.981238,1.613807,1.868613,0.92655,0.807437,14.673381,2.592334,2.306888,0.877815,0.901868,17.643972,2.909903,2.604018,0.864138,0.923435,27.236076,3.933042,2.084716,0.817647,1.132421,28.986322,3.439321,3.295475,0.637926,1.046738
1702363173,1702363173,95,0,4400.512695,4423.333496,4411.153809,4551.410156,4336.666504,4344.358887,4353.717773,4307.179688,4310.769043,4311.153809,4562.307617,4572.94873,4389.230957,4475.897461,6170,2,51,,,,0,4,4,4,4,4,4,4,4,4,4,4,4,4,4,100,,,,,,,,,,,,,,,,,,,,,,,,,,,,,,,,,,,,,,,,,,,,,,,,,,,,,,,,,,,,,,,,,,,,,,,,,,,,,,,,,,,,,,,,,,,,,,,,,,,,,,,,,,,,,,,,,,,,,,,,,,,,,,,,,,,,,,
1702363173,1702363173,96,0,4443.205078,4479.615234,4443.974121,4586.922852,4381.666504,4374.230957,4386.153809,4325,4334.743652,4346.922852,4596.666504,4616.794922,4434.743652,4499.871582,6534,2,51,,,,0,4,4,4,4,4,4,4,4,4,4,4,4,4,4,100,,,,,,,,,,,,,,,,,24,0,0.630973,0.321716,-0.621033,0.335693,0.973263,-0.012697,0.016604,-5.103446,2.198814,79.799698,,,,,,,,,,,,,,,,,,,,,,,,,,,,,,,,,,,,,,,,,,,,,,,,,,,,,,,,,,,,,,,,,,,,,,,,,,,,,,,,,,,,,,,,,,,,,,,,,,,,,,,,,,
1702363173,1702363173,97,0,4431.538574,4497.820313,4450.256348,4585.897461,4389.358887,4372.820313,4387.94873,4325.897461,4333.333496,4341.025879,4597.05127,4620.769043,4440.897461,4499.358887,6745,2,51,,,,0,4,4,4,4,4,4,4,4,4,4,4,4,4,4,100,,,,,,,,,,,,,,,,,,,,,,,,,,,,,,,,,,,,,,,,,,,,,,,,,,,,,,,,,,,,,,,,,,,,,,,,,,,,,,,,,,,,,,,,,,,,,,,,,,,,,,,,,,,,,,,,,,,,,,,,,,,,,,,,,,,,,,
1702363173,1702363173,98,0,4401.153809,4488.974121,4429.743652,4577.563965,4368.717773,4351.794922,4370,4311.922852,4313.461426,4320.769043,4577.94873,4595.256348,4423.333496,4496.025879,6037,2,51,,,,0,4,4,4,4,4,4,4,4,4,4,4,4,4,4,100,,,,,,,,,,,,,,,,,,,,,,,,,,,,,,,,,,,,,,,,,,,,,,,,,,,,,,,,,,,,,,,,,,,,,,,,,,,,,,,,,,,,,,,,,,,,,,,,,,,,,,,,,,,,,,,,,,,,,,,,,,,,,,,,,,,,,,
1702363173,1702363173,99,0,4416.666504,4505.641113,4426.025879,4588.077148,4373.333496,4352.436035,4374.743652,4311.538574,4312.05127,4328.461426,4582.179688,4599.743652,4426.410156,4471.410156,6170,2,51,,,,0,4,4,4,4,4,4,4,4,4,4,4,4,4,4,100,,,,,,,,,,,,,,,,,,,,,,,,,,,,,,,,,,,,,,,,,,,,,,,,,,,,,,,,,,,,,,,,,,,,,,,,,,,,,,,,,,,,,,,,,,,,,,,,,,,,,,,,,,,,,,,,,,,,,,,,,,,,,,,,,,,,,,
1702363173,1702363173,100,0,4439.615234,4514.487305,4418.461426,4572.179688,4356.153809,4350.512695,4370.641113,4311.153809,4313.205078,4318.205078,4579.871582,4590,4424.871582,4442.307617,6534,2,51,,,,0,4,4,4,4,4,4,4,4,4,4,4,4,4,4,100,,,,,,,,,,,,,,,,,25,0,0.631105,0.321167,-0.621216,0.335632,0.981565,0.003418,0.023929,-5.243101,2.195599,79.7864,,,,,,,,,,,,,,,,,,,,,,,,,,,,,,,,,,,,,,,,,,,,,,,,,,,,,,,,,,,,,,,,,,,,,,,,,,,,,,,,,,,,,,,,,,,,,,,,,,,,,,,,,,
1702363173,1702363173,101,0,4446.922852,4508.846191,4405.897461,4548.974121,4315.769043,4332.436035,4345.769043,4307.436035,4306.666504,4299.358887,4572.692383,4568.205078,4422.05127,4451.538574,6745,2,51,,,,0,4,4,4,4,4,4,4,4,4,4,4,4,4,4,100,,,,,,,,,,,,,,,,,,,,,,,,,,,,,,,,,,,,,,,,,,,,,,,,,,,,,,,,,,,,,,,,,,,,,,,,,,,,,,,,,,,,,,,,,,,,,,,,,,,,,,,,,,,,,,,,,,,,,,,,,,,,,,,,,,,,,,
1702363173,1702363173,102,0,4443.974121,4530,4415,4557.563965,4334.487305,4330.641113,4341.666504,4311.153809,4311.538574,4313.717773,4584.358887,4582.820313,4438.461426,4471.025879,6037,2,51,,,,0,4,4,4,4,4,4,4,4,4,4,4,4,4,4,100,,,,,,,,,,,,,,,,,,,,,,,,,,,,,,,,,,,,,,,,,,,,,,,,,,,,,,,,,,,,,,,,,,,,,,,,,,,,,,,,,,,,,,,,,,,,,,,,,,,,,,,,,,,,,,,,,,,,,,,,,,,,,,,,,,,,,,
1702363173,1702363173,103,0,4416.666504,4540.897461,4413.974121,4552.820313,4359.487305,4329.230957,4342.563965,4304.743652,4310,4309.487305,4575.641113,4578.974121,4428.333496,4470.384766,6170,2,51,,,,0,4,4,4,4,4,4,4,4,4,4,4,4,4,4,100,,,,,,,,,,,,,,,,,,,,,,,,,,,,,,,,,,,,,,,,,,,,,,,,,,,,,,,,,,,,,,,,,,,,,,,,,,,,,,,,,,,,,,,,,,,,,,,,,,,,,,,,,,,,,,,,,,,,,,,,,,,,,,,,,,,,,,
1702363173,1702363173,104,0,4399.102539,4525.128418,4396.282227,4534.102539,4337.179688,4324.615234,4329.743652,4293.077148,4296.666504,4278.589844,4550.769043,4549.743652,4404.487305,4466.282227,6534,2,51,,,,0,4,4,4,4,4,4,4,4,4,4,4,4,4,4,100,,,,,,,,,,,,,,,,,26,0,0.631225,0.320557,-0.621277,0.335876,0.984007,-0.021975,0.021975,-5.468791,2.259372,79.757759,,,,,,,,,,,,,,,,,,,,,,,,,,,,,,,,,,,,,,,,,,,,,,,,,,,,,,,,,,,,,,,,,,,,,,,,,,,,,,,,,,,,,,,,,,,,,,,,,,,,,,,,,,
1702363173,1702363173,105,0,4426.538574,4532.692383,4396.025879,4537.820313,4325.512695,4332.820313,4327.563965,4295.512695,4294.230957,4272.307617,4553.717773,4551.025879,4411.410156,4464.102539,6745,2,51,,,,0,4,4,4,4,4,4,4,4,4,4,4,4,4,4,100,,,,,,,,,,,,,,,,,,,,,,,,,,,,,,,,,,,,,,,,,,,,,,,,,,,,,,,,,,,,,,,,,,,,,,,,,,,,,,,,,,,,,,,,,,,,,,,,,,,,,,,,,,,,,,,,,,,,,,,,,,,,,,,,,,,,,,
1702363173,1702363173,106,0,4446.410156,4541.153809,4398.717773,4535.641113,4321.025879,4326.666504,4329.102539,4296.794922,4294.487305,4276.025879,4556.794922,4554.615234,4415.384766,4449.230957,6037,2,51,,,,0,4,4,4,4,4,4,4,4,4,4,4,4,4,4,100,,,,,,,,,,,,,,,,,,,,,,,,,,,,,,,,,,,,,,,,,,,,,,,,,,,,,,,,,,,,,,,,,,,,,,,,,,,,,,,,,,,,,,,,,,,,,,,,,,,,,,,,,,,,,,,,,,,,,,,,,,,,,,,,,,,,,,
1702363173,1702363173,107,0,4422.05127,4516.282227,4390.128418,4518.589844,4310.128418,4307.563965,4322.05127,4290.897461,4286.153809,4264.102539,4545.512695,4541.794922,4401.666504,4429.358887,6170,2,51,,,,0,4,4,4,4,4,4,4,4,4,4,4,4,4,4,100,,,,,,,,,,,,,,,,,,,,,,,,,,,,,,,,,,,,,,,,,,,,,,,,,,,,,,,,,,,,,,,,,,,,,,,,,,,,,,,,,,,,,,,,,,,,,,,,,,,,,,,,,,,,,,,,,,,,,,,,,,,,,,,,,,,,,,
1702363173,1702363173,108,0,4414.358887,4498.205078,4392.179688,4517.436035,4326.153809,4310,4325.512695,4297.307617,4286.025879,4263.077148,4553.461426,4549.487305,4407.94873,4430.384766,6534,2,51,,,,0,4,4,4,4,4,4,4,4,4,4,4,4,4,4,100,,,,,,,,,,,,,,,,,27,0,0.631595,0.319763,-0.621277,0.335938,0.97424,-0.009767,0.019045,-5.671912,2.233435,79.731979,,,,,,,,,,,,,,,,,,,,,,,,,,,,,,,,,,,,,,,,,,,,,,,,,,,,,,,,,,,,,,,,,,,,,,,,,,,,,,,,,,,,,,,,,,,,,,,,,,,,,,,,,,
1702363173,1702363173,109,0,4462.563965,4510.256348,4406.794922,4527.692383,4345,4326.410156,4337.94873,4311.410156,4301.922852,4279.743652,4574.358887,4573.077148,4437.563965,4456.410156,6745,2,51,,,,0,4,4,4,4,4,4,4,4,4,4,4,4,4,4,100,,,,,,,,,,,,,,,,,,,,,,,,,,,,,,,,,,,,,,,,,,,,,,,,,,,,,,,,,,,,,,,,,,,,,,,,,,,,,,,,,,,,,,,,,,,,,,,,,,,,,,,,,,,,,,,,,,,,,,,,,,,,,,,,,,,,,,
1702363173,1702363173,110,0,4488.846191,4517.436035,4413.333496,4528.717773,4330,4326.153809,4332.94873,4311.410156,4310.128418,4281.666504,4581.025879,4579.358887,4445.512695,4468.077148,6037,2,51,,,,0,4,4,4,4,4,4,4,4,4,4,4,4,4,4,100,1,25,1,1,1,1,1,1,1,3,3,1,1,1,1,1,,,,,,,,,,,,,,,,,,,,,,,,,,,,,,,,,,,,,,,,,,,,,,,,,24.343637,1.922215,2.315187,0.96761,0.943815,61.711063,7.554627,2.733855,0.834754,1.252633,8.13692,0.907203,0.978541,0.328673,0.492837,14.267205,1.293698,1.733743,0.535379,0.8663,9.472086,1.525295,1.999813,1.617662,1.105723,4.819591,0.51219,0.451349,0.198386,0.458095,7.733714,1.137679,0.909012,0.485345,0.535579,2.767824,0.569261,0.621578,0.199159,0.413112,4.351372,0.885179,1.003235,0.385704,0.648104,6.849185,1.520591,1.990645,0.910186,0.882221,10.315629,2.322481,2.465557,0.834982,0.926138,13.606141,2.753255,2.544999,0.869772,1.051463,18.351419,3.062311,1.908137,0.82406,1.176329,22.00609,2.61581,3.536767,0.712107,1.258678
1702363173,1702363173,111,0,4447.692383,4491.922852,4402.307617,4517.05127,4310.641113,4308.333496,4311.666504,4294.230957,4292.05127,4261.153809,4565,4560.769043,4420.897461,4448.717773,6170,2,51,,,,0,4,4,4,4,4,4,4,4,4,4,4,4,4,4,100,,,,,,,,,,,,,,,,,,,,,,,,,,,,,,,,,,,,,,,,,,,,,,,,,,,,,,,,,,,,,,,,,,,,,,,,,,,,,,,,,,,,,,,,,,,,,,,,,,,,,,,,,,,,,,,,,,,,,,,,,,,,,,,,,,,,,,
1702363173,1702363173,112,0,4431.153809,4462.820313,4386.922852,4500.384766,4309.615234,4293.846191,4303.717773,4280.512695,4278.461426,4247.820313,4547.563965,4543.974121,4407.05127,4428.077148,6534,2,51,,,,0,4,4,4,4,4,4,4,4,4,4,4,4,4,4,100,,,,,,,,,,,,,,,,,28,0,0.631988,0.319397,-0.621033,0.335999,0.987425,-0.004395,0.02344,-5.688054,2.126758,79.742119,,,,,,,,,,,,,,,,,,,,,,,,,,,,,,,,,,,,,,,,,,,,,,,,,,,,,,,,,,,,,,,,,,,,,,,,,,,,,,,,,,,,,,,,,,,,,,,,,,,,,,,,,,
1702363173,1702363173,113,0,4464.487305,4463.205078,4382.05127,4496.410156,4313.846191,4301.794922,4318.205078,4289.102539,4287.692383,4252.820313,4552.307617,4551.538574,4420.128418,4432.307617,6745,2,51,,,,0,4,4,4,4,4,4,4,4,4,4,4,4,4,4,100,,,,,,,,,,,,,,,,,,,,,,,,,,,,,,,,,,,,,,,,,,,,,,,,,,,,,,,,,,,,,,,,,,,,,,,,,,,,,,,,,,,,,,,,,,,,,,,,,,,,,,,,,,,,,,,,,,,,,,,,,,,,,,,,,,,,,,
1702363173,1702363173,114,0,4436.153809,4462.307617,4377.307617,4493.333496,4314.615234,4314.230957,4323.589844,4293.717773,4288.077148,4247.563965,4554.743652,4548.077148,4419.743652,4442.179688,6037,2,51,,,,0,4,4,4,4,4,4,4,4,4,4,4,4,4,4,100,,,,,,,,,,,,,,,,,,,,,,,,,,,,,,,,,,,,,,,,,,,,,,,,,,,,,,,,,,,,,,,,,,,,,,,,,,,,,,,,,,,,,,,,,,,,,,,,,,,,,,,,,,,,,,,,,,,,,,,,,,,,,,,,,,,,,,
1702363173,1702363173,115,0,4388.717773,4440.897461,4366.538574,4475.897461,4317.820313,4306.153809,4307.05127,4281.282227,4270,4228.974121,4536.025879,4521.922852,4400.256348,4423.333496,6170,2,51,,,,0,4,4,4,4,4,4,4,4,4,4,4,4,4,4,100,,,,,,,,,,,,,,,,,,,,,,,,,,,,,,,,,,,,,,,,,,,,,,,,,,,,,,,,,,,,,,,,,,,,,,,,,,,,,,,,,,,,,,,,,,,,,,,,,,,,,,,,,,,,,,,,,,,,,,,,,,,,,,,,,,,,,,
1702363173,1702363173,116,0,4438.974121,4439.615234,4368.589844,4476.666504,4331.025879,4305.256348,4305.384766,4282.307617,4269.871582,4223.333496,4536.153809,4523.333496,4407.05127,4412.692383,6534,2,51,,,,0,4,4,4,4,4,4,4,4,4,4,4,4,4,4,100,,,,,,,,,,,,,,,,,29,0,0.632106,0.31897,-0.621033,0.336182,0.989867,-0.009278,0.035161,-5.819249,1.930749,79.68457,,,,,,,,,,,,,,,,,,,,,,,,,,,,,,,,,,,,,,,,,,,,,,,,,,,,,,,,,,,,,,,,,,,,,,,,,,,,,,,,,,,,,,,,,,,,,,,,,,,,,,,,,,
1702363173,1702363173,117,0,4482.563965,4453.974121,4381.666504,4495.769043,4326.922852,4313.846191,4322.179688,4295.769043,4287.436035,4235,4557.692383,4542.179688,4422.94873,4427.94873,6745,2,51,,,,0,4,4,4,4,4,4,4,4,4,4,4,4,4,4,100,,,,,,,,,,,,,,,,,,,,,,,,,,,,,,,,,,,,,,,,,,,,,,,,,,,,,,,,,,,,,,,,,,,,,,,,,,,,,,,,,,,,,,,,,,,,,,,,,,,,,,,,,,,,,,,,,,,,,,,,,,,,,,,,,,,,,,
1702363173,1702363173,118,0,4436.794922,4445.769043,4378.333496,4487.563965,4304.487305,4307.436035,4321.282227,4292.179688,4289.615234,4242.692383,4552.307617,4534.871582,4411.922852,4423.461426,6037,2,51,,,,0,4,4,4,4,4,4,4,4,4,4,4,4,4,4,100,,,,,,,,,,,,,,,,,,,,,,,,,,,,,,,,,,,,,,,,,,,,,,,,,,,,,,,,,,,,,,,,,,,,,,,,,,,,,,,,,,,,,,,,,,,,,,,,,,,,,,,,,,,,,,,,,,,,,,,,,,,,,,,,,,,,,,
1702363173,1702363173,119,0,4421.153809,4436.922852,4368.974121,4475.128418,4316.410156,4311.025879,4318.974121,4287.692383,4287.179688,4244.102539,4540.769043,4534.487305,4410.128418,4418.589844,6170,2,51,,,,0,4,4,4,4,4,4,4,4,4,4,4,4,4,4,100,,,,,,,,,,,,,,,,,,,,,,,,,,,,,,,,,,,,,,,,,,,,,,,,,,,,,,,,,,,,,,,,,,,,,,,,,,,,,,,,,,,,,,,,,,,,,,,,,,,,,,,,,,,,,,,,,,,,,,,,,,,,,,,,,,,,,,
1702363173,1702363173,120,0,4459.358887,4446.025879,4381.410156,4494.230957,4361.410156,4329.871582,4335.641113,4301.794922,4302.563965,4257.179688,4561.282227,4560.897461,4435,4446.025879,6534,2,51,,,,0,4,4,4,4,4,4,4,4,4,4,4,4,4,4,100,,,,,,,,,,,,,,,,,30,0,0.632321,0.318176,-0.621155,0.336304,0.983518,-0.012697,0.042486,-5.837324,2.004341,79.766113,,,,,,,,,,,,,,,,,,,,,,,,,,,,,,,,,,,,,,,,,,,,,,,,,,,,,,,,,,,,,,,,,,,,,,,,,,,,,,,,,,,,,,,,,,,,,,,,,,,,,,,,,,
1702363173,1702363173,121,0,4462.307617,4445.769043,4395.384766,4508.974121,4369.230957,4334.230957,4343.589844,4310.897461,4318.589844,4270.512695,4584.743652,4572.692383,4447.05127,4463.205078,6745,2,51,,,,0,4,4,4,4,4,4,4,4,4,4,4,4,4,4,100,,,,,,,,,,,,,,,,,,,,,,,,,,,,,,,,,,,,,,,,,,,,,,,,,,,,,,,,,,,,,,,,,,,,,,,,,,,,,,,,,,,,,,,,,,,,,,,,,,,,,,,,,,,,,,,,,,,,,,,,,,,,,,,,,,,,,,
1702363173,1702363173,122,0,4456.922852,4441.153809,4400.641113,4506.538574,4344.487305,4337.436035,4347.692383,4314.487305,4321.025879,4273.205078,4591.282227,4571.922852,4447.179688,4458.974121,6037,2,51,,,,0,4,4,4,4,4,4,4,4,4,4,4,4,4,4,100,,,,,,,,,,,,,,,,,,,,,,,,,,,,,,,,,,,,,,,,,,,,,,,,,,,,,,,,,,,,,,,,,,,,,,,,,,,,,,,,,,,,,,,,,,,,,,,,,,,,,,,,,,,,,,,,,,,,,,,,,,,,,,,,,,,,,,
1702363173,1702363173,123,0,4490.128418,4446.538574,4417.820313,4517.94873,4354.615234,4358.205078,4369.487305,4332.563965,4331.410156,4285.256348,4607.179688,4599.871582,4465.384766,4479.871582,6170,2,51,,,,0,4,4,4,4,4,4,4,4,4,4,4,4,4,4,100,,,,,,,,,,,,,,,,,,,,,,,,,,,,,,,,,,,,,,,,,,,,,,,,,,,,,,,,,,,,,,,,,,,,,,,,,,,,,,,,,,,,,,,,,,,,,,,,,,,,,,,,,,,,,,,,,,,,,,,,,,,,,,,,,,,,,,
1702363173,1702363173,124,0,4514.615234,4434.743652,4431.666504,4535.641113,4397.692383,4371.410156,4385.641113,4347.05127,4353.589844,4302.94873,4632.563965,4632.563965,4478.846191,4517.436035,6534,2,51,,,,0,4,4,4,4,4,4,4,4,4,4,4,4,4,4,100,,,,,,,,,,,,,,,,,31,0,0.632386,0.317993,-0.621216,0.336243,0.989379,0.003907,0.033207,-5.770258,2.020573,79.8395,,,,,,,,,,,,,,,,,,,,,,,,,,,,,,,,,,,,,,,,,,,,,,,,,,,,,,,,,,,,,,,,,,,,,,,,,,,,,,,,,,,,,,,,,,,,,,,,,,,,,,,,,,
1702363173,1702363173,125,0,4511.025879,4414.487305,4430.128418,4539.871582,4423.077148,4374.358887,4384.487305,4343.846191,4361.410156,4311.666504,4643.205078,4633.589844,4473.717773,4543.205078,6745,2,51,,,,0,4,4,4,4,4,4,4,4,4,4,4,4,4,4,100,,,,,,,,,,,,,,,,,,,,,,,,,,,,,,,,,,,,,,,,,,,,,,,,,,,,,,,,,,,,,,,,,,,,,,,,,,,,,,,,,,,,,,,,,,,,,,,,,,,,,,,,,,,,,,,,,,,,,,,,,,,,,,,,,,,,,,
1702363173,1702363173,126,0,4512.94873,4416.538574,4432.692383,4537.05127,4411.922852,4385.384766,4391.794922,4341.538574,4359.230957,4320,4644.102539,4627.436035,4479.230957,4541.794922,6037,2,51,,,,0,4,4,4,4,4,4,4,4,4,4,4,4,4,4,100,,,,,,,,,,,,,,,,,,,,,,,,,,,,,,,,,,,,,,,,,,,,,,,,,,,,,,,,,,,,,,,,,19.834799,1.63256,2.374195,1.242714,1.07687,56.983242,9.881972,2.312485,0.827904,1.370731,6.668627,0.955531,0.850318,0.351111,0.594373,13.361242,1.382245,1.52216,0.587278,0.992046,8.488014,1.448506,1.698945,1.471583,1.214987,4.222629,0.54909,0.435363,0.202168,0.544611,5.979323,1.080609,0.831464,0.504253,0.611738,1.863453,0.52544,0.573428,0.183194,0.445511,3.044839,0.76035,0.96276,0.397408,0.715297,4.659205,1.423608,1.894711,0.909247,0.968897,7.340721,2.176135,2.409417,0.819624,0.968305,9.949807,2.774445,2.290063,0.907112,1.239541,12.770824,2.411321,1.615886,0.834607,1.251253,16.696045,2.212676,3.660706,0.847653,1.492485
1702363173,1702363173,127,0,4534.230957,4435,4445.384766,4546.282227,4408.205078,4397.692383,4409.871582,4353.717773,4367.307617,4329.358887,4654.102539,4642.94873,4492.05127,4525.641113,51,2,51,,,,0,4,4,4,4,4,4,4,4,4,4,4,4,4,4,100,,,,,,,,,,,,,,,,,,,,,,,,,,,,,,,,,,,,,,,,,,,,,,,,,,,,,,,,,,,,,,,,,,,,,,,,,,,,,,,,,,,,,,,,,,,,,,,,,,,,,,,,,,,,,,,,,,,,,,,,,,,,,,,,,,,,,,
1702363173,1702363173,0,0,4561.794922,4448.333496,4453.461426,4563.974121,4438.205078,4405.256348,4417.307617,4361.538574,4375.641113,4332.820313,4662.94873,4663.717773,4496.410156,4542.820313,4210,2,51,,,,0,4,4,4,4,4,4,4,4,4,4,4,4,4,4,100,,,,,,,,,,,,,,,,,0,0,0.632387,0.317688,-0.621338,0.336304,0.99475,-0.007813,0.030277,-5.676566,1.951849,79.772217,,,,,,,,,,,,,,,,,,,,,,,,,,,,,,,,,,,,,,,,,,,,,,,,,,,,,,,,,,,,,,,,,,,,,,,,,,,,,,,,,,,,,,,,,,,,,,,,,,,,,,,,,,
1702363173,1702363173,1,0,4577.692383,4457.307617,4460.641113,4573.717773,4465,4411.025879,4423.333496,4366.153809,4383.333496,4340.641113,4677.692383,4680.128418,4510.769043,4587.563965,5384,2,51,,,,0,4,4,4,4,4,4,4,4,4,4,4,4,4,4,100,,,,,,,,,,,,,,,,,,,,,,,,,,,,,,,,,,,,,,,,,,,,,,,,,,,,,,,,,,,,,,,,,,,,,,,,,,,,,,,,,,,,,,,,,,,,,,,,,,,,,,,,,,,,,,,,,,,,,,,,,,,,,,,,,,,,,,
1702363173,1702363173,2,0,4561.153809,4465,4471.153809,4571.538574,4461.794922,4417.820313,4435.769043,4377.436035,4396.538574,4356.538574,4700.769043,4697.05127,4527.05127,4602.563965,5454,2,51,,,,0,4,4,4,4,4,4,4,4,4,4,4,4,4,4,100,,,,,,,,,,,,,,,,,,,,,,,,,,,,,,,,,,,,,,,,,,,,,,,,,,,,,,,,,,,,,,,,,,,,,,,,,,,,,,,,,,,,,,,,,,,,,,,,,,,,,,,,,,,,,,,,,,,,,,,,,,,,,,,,,,,,,,
1702363173,1702363173,3,0,4542.436035,4471.794922,4478.077148,4569.871582,4459.743652,4428.333496,4446.153809,4384.743652,4401.538574,4367.307617,4706.538574,4708.205078,4530.384766,4585.641113,5429,2,51,,,,0,4,4,4,4,4,4,4,4,4,4,4,4,4,4,100,,,,,,,,,,,,,,,,,,,,,,,,,,,,,,,,,,,,,,,,,,,,,,,,,,,,,,,,,,,,,,,,,,,,,,,,,,,,,,,,,,,,,,,,,,,,,,,,,,,,,,,,,,,,,,,,,,,,,,,,,,,,,,,,,,,,,,
1702363173,1702363173,4,0,4558.974121,4474.230957,4474.358887,4564.230957,4461.282227,4426.153809,4442.436035,4378.205078,4393.846191,4360.897461,4691.922852,4699.358887,4523.589844,4575.128418,5352,2,51,,,,0,4,4,4,4,4,4,4,4,4,4,4,4,4,4,100,,,,,,,,,,,,,,,,,1,0,0.632049,0.317505,-0.621643,0.336548,1.004029,-0.005372,0.013185,-5.825576,2.073331,79.811661,,,,,,,,,,,,,,,,,,,,,,,,,,,,,,,,,,,,,,,,,,,,,,,,,,,,,,,,,,,,,,,,,,,,,,,,,,,,,,,,,,,,,,,,,,,,,,,,,,,,,,,,,,
1702363173,1702363173,5,0,4587.307617,4475.641113,4471.794922,4564.615234,4457.05127,4419.615234,4438.974121,4379.743652,4401.922852,4359.487305,4695.128418,4694.615234,4522.94873,4585.769043,4200,2,51,,,,0,4,4,4,4,4,4,4,4,4,4,4,4,4,4,100,,,,,,,,,,,,,,,,,,,,,,,,,,,,,,,,,,,,,,,,,,,,,,,,,,,,,,,,,,,,,,,,,,,,,,,,,,,,,,,,,,,,,,,,,,,,,,,,,,,,,,,,,,,,,,,,,,,,,,,,,,,,,,,,,,,,,,
1702363173,1702363173,6,0,4585.512695,4486.538574,4481.922852,4576.922852,4475.256348,4426.025879,4449.871582,4397.179688,4423.333496,4378.846191,4716.922852,4711.666504,4540.641113,4611.282227,5143,2,51,,,,0,4,4,4,4,4,4,4,4,4,4,4,4,4,4,100,,,,,,,,,,,,,,,,,,,,,,,,,,,,,,,,,,,,,,,,,,,,,,,,,,,,,,,,,,,,,,,,,,,,,,,,,,,,,,,,,,,,,,,,,,,,,,,,,,,,,,,,,,,,,,,,,,,,,,,,,,,,,,,,,,,,,,
1702363173,1702363173,7,0,4564.871582,4481.410156,4476.025879,4562.563965,4481.282227,4424.487305,4446.153809,4393.974121,4415.256348,4381.025879,4705.128418,4706.794922,4548.333496,4609.743652,3891,2,51,,,,0,4,4,4,4,4,4,4,4,4,4,4,4,4,4,100,,,,,,,,,,,,,,,,,,,,,,,,,,,,,,,,,,,,,,,,,,,,,,,,,,,,,,,,,,,,,,,,,,,,,,,,,,,,,,,,,,,,,,,,,,,,,,,,,,,,,,,,,,,,,,,,,,,,,,,,,,,,,,,,,,,,,,
1702363173,1702363173,8,0,4555.256348,4460.641113,4456.538574,4534.487305,4445.769043,4409.102539,4429.615234,4373.461426,4395.384766,4358.077148,4675.769043,4678.846191,4532.179688,4576.282227,4493,2,51,,,,0,4,4,4,4,4,4,4,4,4,4,4,4,4,4,100,,,,,,,,,,,,,,,,,2,0,0.631738,0.317627,-0.621765,0.336792,0.99768,-0.01172,0.030765,-5.743018,2.099331,79.697166,,,,,,,,,,,,,,,,,,,,,,,,,,,,,,,,,,,,,,,,,,,,,,,,,,,,,,,,,,,,,,,,,,,,,,,,,,,,,,,,,,,,,,,,,,,,,,,,,,,,,,,,,,
1702363173,1702363173,9,0,4544.230957,4465.769043,4465.256348,4535,4437.820313,4413.333496,4436.666504,4377.436035,4403.846191,4350.897461,4687.820313,4687.436035,4528.974121,4571.025879,5422,2,51,,,,0,4,4,4,4,4,4,4,4,4,4,4,4,4,4,100,,,,,,,,,,,,,,,,,,,,,,,,,,,,,,,,,,,,,,,,,,,,,,,,,,,,,,,,,,,,,,,,,,,,,,,,,,,,,,,,,,,,,,,,,,,,,,,,,,,,,,,,,,,,,,,,,,,,,,,,,,,,,,,,,,,,,,
1702363173,1702363173,10,0,4537.563965,4481.666504,4478.974121,4542.436035,4462.820313,4420.641113,4449.358887,4392.05127,4414.871582,4356.794922,4706.922852,4710,4540.128418,4593.846191,5955,2,51,,,,0,4,4,4,4,4,4,4,4,4,4,4,4,4,4,100,,,,,,,,,,,,,,,,,,,,,,,,,,,,,,,,,,,,,,,,,,,,,,,,,,,,,,,,,,,,,,,,,,,,,,,,,,,,,,,,,,,,,,,,,,,,,,,,,,,,,,,,,,,,,,,,,,,,,,,,,,,,,,,,,,,,,,
1702363173,1702363173,11,0,4568.717773,4478.461426,4473.717773,4545,4466.922852,4412.436035,4442.563965,4388.974121,4410,4363.461426,4696.538574,4699.487305,4541.153809,4604.102539,6080,2,51,,,,0,4,4,4,4,4,4,4,4,4,4,4,4,4,4,100,,,,,,,,,,,,,,,,,,,,,,,,,,,,,,,,,,,,,,,,,,,,,,,,,,,,,,,,,,,,,,,,,,,,,,,,,,,,,,,,,,,,,,,,,,,,,,,,,,,,,,,,,,,,,,,,,,,,,,,,,,,,,,,,,,,,,,
1702363173,1702363173,12,0,4587.820313,4460.256348,4473.205078,4552.179688,4462.692383,4420.769043,4443.077148,4387.563965,4412.563965,4376.922852,4695.641113,4690.897461,4545,4609.743652,6434,2,51,,,,0,4,4,4,4,4,4,4,4,4,4,4,4,4,4,100,,,,,,,,,,,,,,,,,3,0,0.631512,0.317871,-0.621704,0.337097,0.995239,-0.024417,0.035649,-5.635383,2.122732,79.794113,,,,,,,,,,,,,,,,,,,,,,,,,,,,,,,,,,,,,,,,,,,,,,,,,,,,,,,,,,,,,,,,,,,,,,,,,,,,,,,,,,,,,,,,,,,,,,,,,,,,,,,,,,
1702363173,1702363173,13,0,4549.743652,4415.384766,4468.333496,4532.05127,4444.615234,4426.922852,4441.922852,4386.794922,4406.153809,4362.563965,4695,4683.589844,4540.512695,4594.358887,6638,2,51,,,,0,4,4,4,4,4,4,4,4,4,4,4,4,4,4,100,,,,,,,,,,,,,,,,,,,,,,,,,,,,,,,,,,,,,,,,,,,,,,,,,,,,,,,,,,,,,,,,,,,,,,,,,,,,,,,,,,,,,,,,,,,,,,,,,,,,,,,,,,,,,,,,,,,,,,,,,,,,,,,,,,,,,,
1702363173,1702363173,14,0,4524.615234,4376.538574,4453.846191,4509.230957,4430.256348,4412.179688,4432.307617,4380.512695,4392.692383,4334.487305,4680.512695,4671.153809,4527.307617,4552.692383,5955,2,51,,,,0,4,4,4,4,4,4,4,4,4,4,4,4,4,4,100,,,,,,,,,,,,,,,,,,,,,,,,,,,,,,,,,,,,,,,,,,,,,,,,,,,,,,,,,,,,,,,,,16.444561,1.521749,2.440129,1.586952,1.311553,50.586395,12.582101,1.934969,0.842675,1.481021,5.307514,1.141333,0.691647,0.380476,0.72643,11.76121,1.617321,1.255893,0.611987,1.120234,7.338393,1.389396,1.337081,1.398337,1.411829,3.56003,0.613025,0.410885,0.245657,0.638575,4.722105,1.104324,0.716511,0.532341,0.704269,1.37726,0.530047,0.479966,0.201339,0.472296,2.305353,0.707554,0.85862,0.450854,0.772724,3.56265,1.420625,1.624595,0.918999,1.069511,5.79915,2.165085,2.182538,0.844642,1.012586,7.367542,3.11892,1.930311,0.98633,1.475767,9.669662,1.970255,1.283709,0.843705,1.348385,12.598464,1.989404,3.715388,1.067861,1.707214
1702363173,1702363173,15,0,4547.692383,4386.538574,4459.102539,4524.358887,4459.230957,4413.077148,4445.769043,4390.512695,4405.256348,4348.846191,4689.743652,4685.897461,4541.025879,4558.589844,6080,2,51,,,,0,4,4,4,4,4,4,4,4,4,4,4,4,4,4,100,,,,,,,,,,,,,,,,,,,,,,,,,,,,,,,,,,,,,,,,,,,,,,,,,,,,,,,,,,,,,,,,,,,,,,,,,,,,,,,,,,,,,,,,,,,,,,,,,,,,,,,,,,,,,,,,,,,,,,,,,,,,,,,,,,,,,,
1702363173,1702363173,16,0,4548.205078,4377.94873,4459.358887,4520,4457.307617,4415.769043,4448.077148,4390.641113,4407.563965,4364.102539,4690.641113,4680,4538.974121,4594.743652,0,2,51,,,,0,4,4,4,4,4,4,4,4,4,4,4,4,4,4,100,,,,,,,,,,,,,,,,,4,0,0.631723,0.31781,-0.621521,0.337097,1.004517,-0.028812,0.0293,-5.538511,1.977125,79.681374,,,,,,,,,,,,,,,,,,,,,,,,,,,,,,,,,,,,,,,,,,,,,,,,,,,,,,,,,,,,,,,,,,,,,,,,,,,,,,,,,,,,,,,,,,,,,,,,,,,,,,,,,,
1702363173,1702363173,17,0,4516.153809,4336.538574,4444.615234,4491.794922,4414.871582,4400.641113,4427.436035,4371.794922,4386.538574,4346.666504,4666.282227,4648.974121,4513.846191,4577.94873,0,2,51,,,,0,4,4,4,4,4,4,4,4,4,4,4,4,4,4,100,,,,,,,,,,,,,,,,,,,,,,,,,,,,,,,,,,,,,,,,,,,,,,,,,,,,,,,,,,,,,,,,,,,,,,,,,,,,,,,,,,,,,,,,,,,,,,,,,,,,,,,,,,,,,,,,,,,,,,,,,,,,,,,,,,,,,,
1702363173,1702363173,18,0,4515.769043,4334.102539,4449.743652,4497.692383,4419.358887,4401.282227,4429.102539,4371.282227,4386.794922,4332.94873,4663.461426,4657.179688,4521.538574,4542.307617,0,2,51,,,,0,4,4,4,4,4,4,4,4,4,4,4,4,4,4,100,,,,,,,,,,,,,,,,,,,,,,,,,,,,,,,,,,,,,,,,,,,,,,,,,,,,,,,,,,,,,,,,,,,,,,,,,,,,,,,,,,,,,,,,,,,,,,,,,,,,,,,,,,,,,,,,,,,,,,,,,,,,,,,,,,,,,,
1702363173,1702363173,19,0,4548.717773,4359.102539,4462.05127,4516.153809,4449.358887,4416.922852,4442.563965,4385.256348,4400.384766,4342.692383,4680.512695,4683.077148,4545.128418,4556.410156,0,2,51,,,,0,4,4,4,4,4,4,4,4,4,4,4,4,4,4,100,,,,,,,,,,,,,,,,,,,,,,,,,,,,,,,,,,,,,,,,,,,,,,,,,,,,,,,,,,,,,,,,,,,,,,,,,,,,,,,,,,,,,,,,,,,,,,,,,,,,,,,,,,,,,,,,,,,,,,,,,,,,,,,,,,,,,,
1702363173,1702363173,20,0,4545.128418,4350.512695,4458.077148,4502.179688,4432.307617,4406.538574,4430.769043,4383.461426,4393.461426,4346.794922,4681.538574,4672.94873,4538.333496,4577.820313,0,2,51,,,,0,4,4,4,4,4,4,4,4,4,4,4,4,4,4,100,,,,,,,,,,,,,,,,,5,0,0.631985,0.317688,-0.621582,0.336609,0.997192,-0.012209,0.034184,-5.567994,1.979413,79.663231,,,,,,,,,,,,,,,,,,,,,,,,,,,,,,,,,,,,,,,,,,,,,,,,,,,,,,,,,,,,,,,,,,,,,,,,,,,,,,,,,,,,,,,,,,,,,,,,,,,,,,,,,,
1702363173,1702363173,21,0,4500.897461,4336.410156,4459.615234,4488.974121,4421.922852,4397.94873,4430.897461,4384.615234,4398.717773,4352.307617,4686.282227,4666.794922,4537.94873,4577.307617,0,2,51,,,,0,4,4,4,4,4,4,4,4,4,4,4,4,4,4,100,,,,,,,,,,,,,,,,,,,,,,,,,,,,,,,,,,,,,,,,,,,,,,,,,,,,,,,,,,,,,,,,,,,,,,,,,,,,,,,,,,,,,,,,,,,,,,,,,,,,,,,,,,,,,,,,,,,,,,,,,,,,,,,,,,,,,,
1702363173,1702363173,22,0,4501.922852,4341.410156,4460.641113,4490.384766,4446.410156,4410,4443.205078,4391.538574,4416.025879,4365.384766,4692.05127,4673.589844,4552.05127,4568.333496,0,2,51,,,,0,4,4,4,4,4,4,4,4,4,4,4,4,4,4,100,,,,,,,,,,,,,,,,,,,,,,,,,,,,,,,,,,,,,,,,,,,,,,,,,,,,,,,,,,,,,,,,,,,,,,,,,,,,,,,,,,,,,,,,,,,,,,,,,,,,,,,,,,,,,,,,,,,,,,,,,,,,,,,,,,,,,,
1702363173,1702363173,23,0,4549.615234,4339.743652,4449.230957,4486.538574,4443.717773,4413.461426,4434.615234,4383.846191,4406.025879,4354.871582,4678.205078,4662.94873,4542.94873,4554.102539,0,2,51,,,,0,4,4,4,4,4,4,4,4,4,4,4,4,4,4,100,,,,,,,,,,,,,,,,,,,,,,,,,,,,,,,,,,,,,,,,,,,,,,,,,,,,,,,,,,,,,,,,,,,,,,,,,,,,,,,,,,,,,,,,,,,,,,,,,,,,,,,,,,,,,,,,,,,,,,,,,,,,,,,,,,,,,,
1702363173,1702363173,24,0,4534.615234,4344.615234,4456.282227,4488.461426,4424.487305,4413.589844,4434.743652,4382.563965,4395.128418,4342.436035,4678.717773,4668.333496,4536.922852,4559.743652,0,2,51,,,,0,4,4,4,4,4,4,4,4,4,4,4,4,4,4,100,,,,,,,,,,,,,,,,,6,0,0.632131,0.317932,-0.621704,0.335876,0.967403,-0.011232,0.030277,-5.577861,1.881471,79.696907,,,,,,,,,,,,,,,,,,,,,,,,,,,,,,,,,,,,,,,,,,,,,,,,,,,,,,,,,,,,,,,,,,,,,,,,,,,,,,,,,,,,,,,,,,,,,,,,,,,,,,,,,,
1702363173,1702363173,25,0,4482.563965,4355.384766,4465.384766,4489.358887,4426.025879,4411.794922,4438.333496,4385,4400.769043,4348.077148,4685.897461,4675.384766,4542.436035,4560.641113,0,2,51,,,,0,4,4,4,4,4,4,4,4,4,4,4,4,4,4,100,,,,,,,,,,,,,,,,,,,,,,,,,,,,,,,,,,,,,,,,,,,,,,,,,,,,,,,,,,,,,,,,,,,,,,,,,,,,,,,,,,,,,,,,,,,,,,,,,,,,,,,,,,,,,,,,,,,,,,,,,,,,,,,,,,,,,,
1702363173,1702363173,26,0,4501.025879,4347.94873,4444.230957,4479.230957,4423.461426,4396.666504,4412.692383,4374.615234,4398.333496,4349.102539,4667.820313,4650.256348,4529.487305,4538.077148,0,2,51,,,,0,4,4,4,4,4,4,4,4,4,4,4,4,4,4,100,,,,,,,,,,,,,,,,,,,,,,,,,,,,,,,,,,,,,,,,,,,,,,,,,,,,,,,,,,,,,,,,,,,,,,,,,,,,,,,,,,,,,,,,,,,,,,,,,,,,,,,,,,,,,,,,,,,,,,,,,,,,,,,,,,,,,,
1702363173,1702363173,27,0,4523.333496,4323.974121,4431.666504,4468.205078,4411.282227,4389.358887,4388.974121,4371.922852,4390.641113,4340.512695,4656.282227,4636.153809,4514.743652,4527.94873,0,2,51,,,,0,4,4,4,4,4,4,4,4,4,4,4,4,4,4,100,,,,,,,,,,,,,,,,,,,,,,,,,,,,,,,,,,,,,,,,,,,,,,,,,,,,,,,,,,,,,,,,,,,,,,,,,,,,,,,,,,,,,,,,,,,,,,,,,,,,,,,,,,,,,,,,,,,,,,,,,,,,,,,,,,,,,,
1702363173,1702363173,28,0,4484.487305,4304.102539,4445.897461,4467.307617,4420.384766,4399.743652,4398.589844,4385.256348,4401.538574,4343.333496,4677.820313,4653.846191,4526.538574,4543.205078,0,2,51,,,,0,4,4,4,4,4,4,4,4,4,4,4,4,4,4,100,,,,,,,,,,,,,,,,,7,0,0.63217,0.317993,-0.621765,0.335632,0.983518,-0.016604,0.037114,-5.736742,1.893324,79.743889,,,,,,,,,,,,,,,,,,,,,,,,,,,,,,,,,,,,,,,,,,,,,,,,,,,,,,,,,,,,,,,,,,,,,,,,,,,,,,,,,,,,,,,,,,,,,,,,,,,,,,,,,,
1702363173,1702363173,29,0,4463.461426,4276.794922,4438.717773,4461.538574,4414.102539,4395.512695,4402.820313,4383.589844,4402.820313,4340.897461,4677.563965,4646.282227,4528.974121,4545.128418,0,2,51,,,,0,4,4,4,4,4,4,4,4,4,4,4,4,4,4,100,,,,,,,,,,,,,,,,,,,,,,,,,,,,,,,,,,,,,,,,,,,,,,,,,,,,,,,,,,,,,,,,,,,,,,,,,,,,,,,,,,,,,,,,,,,,,,,,,,,,,,,,,,,,,,,,,,,,,,,,,,,,,,,,,,,,,,
1702363173,1702363173,30,0,4471.282227,4237.563965,4412.563965,4441.025879,4384.358887,4378.589844,4382.307617,4367.179688,4381.153809,4318.461426,4640.769043,4608.717773,4495.897461,4516.153809,0,2,51,,,,0,4,4,4,4,4,4,4,4,4,4,4,4,4,4,100,,,,,,,,,,,,,,,,,,,,,,,,,,,,,,,,,,,,,,,,,,,,,,,,,,,,,,,,,,,,,,,,,13.669043,1.459853,2.56106,1.979673,1.716929,44.564552,14.804204,1.736328,0.875641,1.570493,4.230753,1.462326,0.547128,0.424302,0.871012,9.459665,1.991596,1.0254,0.617604,1.230761,5.882505,1.374349,0.991501,1.458638,1.69192,2.797937,0.692027,0.381845,0.333489,0.729862,3.695831,1.231976,0.599224,0.57375,0.800626,1.2117,0.591162,0.368944,0.248039,0.489638,1.907918,0.739406,0.72873,0.536527,0.809239,3.151801,1.569684,1.28111,0.938194,1.178069,5.092459,2.311172,1.861388,0.925581,1.044154,5.657759,3.815438,1.572793,1.117173,1.727259,7.911777,1.796858,0.992371,0.86485,1.456851,9.245347,1.804457,3.742676,1.399027,1.87193
1702363173,1702363173,31,0,4459.743652,4222.563965,4405.769043,4423.333496,4388.077148,4376.666504,4368.974121,4364.102539,4368.461426,4308.333496,4622.692383,4596.153809,4472.179688,4488.461426,0,2,51,,,,0,4,4,4,4,4,4,4,4,4,4,4,4,4,4,100,,,,,,,,,,,,,,,,,,,,,,,,,,,,,,,,,,,,,,,,,,,,,,,,,,,,,,,,,,,,,,,,,,,,,,,,,,,,,,,,,,,,,,,,,,,,,,,,,,,,,,,,,,,,,,,,,,,,,,,,,,,,,,,,,,,,,,
1702363173,1702363173,32,0,4438.205078,4226.410156,4407.563965,4420.897461,4393.589844,4376.410156,4367.94873,4364.871582,4368.717773,4304.487305,4620.512695,4598.205078,4471.282227,4482.820313,0,2,51,,,,0,4,4,4,4,4,4,4,4,4,4,4,4,4,4,100,,,,,,,,,,,,,,,,,8,0,0.632363,0.317749,-0.621826,0.335388,0.984495,-0.00293,0.032719,-5.763067,1.970658,79.769493,,,,,,,,,,,,,,,,,,,,,,,,,,,,,,,,,,,,,,,,,,,,,,,,,,,,,,,,,,,,,,,,,,,,,,,,,,,,,,,,,,,,,,,,,,,,,,,,,,,,,,,,,,
1702363173,1702363173,33,0,4425.897461,4228.205078,4406.922852,4425.769043,4370.641113,4372.563965,4375.512695,4363.589844,4374.102539,4302.436035,4621.922852,4599.487305,4479.358887,4512.563965,0,2,51,,,,0,4,4,4,4,4,4,4,4,4,4,4,4,4,4,100,,,,,,,,,,,,,,,,,,,,,,,,,,,,,,,,,,,,,,,,,,,,,,,,,,,,,,,,,,,,,,,,,,,,,,,,,,,,,,,,,,,,,,,,,,,,,,,,,,,,,,,,,,,,,,,,,,,,,,,,,,,,,,,,,,,,,,
1702363173,1702363173,34,0,4430.897461,4237.94873,4413.333496,4423.333496,4374.358887,4381.794922,4386.153809,4367.05127,4377.05127,4309.743652,4628.974121,4612.179688,4488.846191,4531.922852,0,2,51,,,,0,4,4,4,4,4,4,4,4,4,4,4,4,4,4,100,,,,,,,,,,,,,,,,,,,,,,,,,,,,,,,,,,,,,,,,,,,,,,,,,,,,,,,,,,,,,,,,,,,,,,,,,,,,,,,,,,,,,,,,,,,,,,,,,,,,,,,,,,,,,,,,,,,,,,,,,,,,,,,,,,,,,,
1702363173,1702363173,35,0,4443.974121,4248.077148,4413.717773,4416.025879,4401.666504,4386.025879,4384.487305,4363.717773,4366.666504,4304.102539,4625.128418,4614.102539,4481.410156,4500.512695,0,2,51,,,,0,4,4,4,4,4,4,4,4,4,4,4,4,4,4,100,,,,,,,,,,,,,,,,,,,,,,,,,,,,,,,,,,,,,,,,,,,,,,,,,,,,,,,,,,,,,,,,,,,,,,,,,,,,,,,,,,,,,,,,,,,,,,,,,,,,,,,,,,,,,,,,,,,,,,,,,,,,,,,,,,,,,,
1702363173,1702363173,36,0,4434.358887,4234.871582,4401.153809,4412.307617,4385.384766,4367.94873,4368.333496,4353.077148,4355.512695,4286.794922,4612.94873,4594.487305,4463.589844,4473.077148,0,2,51,,,,0,4,4,4,4,4,4,4,4,4,4,4,4,4,4,100,,,,,,,,,,,,,,,,,9,0,0.63267,0.317322,-0.621765,0.335327,0.98596,-0.00586,0.035161,-5.68676,1.923593,79.809212,,,,,,,,,,,,,,,,,,,,,,,,,,,,,,,,,,,,,,,,,,,,,,,,,,,,,,,,,,,,,,,,,,,,,,,,,,,,,,,,,,,,,,,,,,,,,,,,,,,,,,,,,,
1702363173,1702363173,37,0,4402.436035,4215.384766,4390.641113,4407.820313,4350,4352.692383,4354.743652,4346.282227,4355.897461,4285.256348,4606.922852,4577.436035,4455.897461,4488.333496,0,2,51,,,,0,4,4,4,4,4,4,4,4,4,4,4,4,4,4,100,,,,,,,,,,,,,,,,,,,,,,,,,,,,,,,,,,,,,,,,,,,,,,,,,,,,,,,,,,,,,,,,,,,,,,,,,,,,,,,,,,,,,,,,,,,,,,,,,,,,,,,,,,,,,,,,,,,,,,,,,,,,,,,,,,,,,,
1702363173,1702363173,38,0,4386.153809,4212.563965,4398.846191,4403.205078,4362.820313,4366.025879,4360.128418,4351.666504,4360.256348,4297.436035,4607.05127,4585.128418,4455.256348,4504.615234,0,2,51,,,,0,4,4,4,4,4,4,4,4,4,4,4,4,4,4,100,,,,,,,,,,,,,,,,,,,,,,,,,,,,,,,,,,,,,,,,,,,,,,,,,,,,,,,,,,,,,,,,,,,,,,,,,,,,,,,,,,,,,,,,,,,,,,,,,,,,,,,,,,,,,,,,,,,,,,,,,,,,,,,,,,,,,,
1702363173,1702363173,39,0,4401.538574,4218.717773,4418.077148,4409.743652,4391.922852,4382.05127,4371.025879,4362.179688,4368.717773,4306.410156,4618.589844,4611.666504,4473.717773,4503.077148,0,2,51,,,,0,4,4,4,4,4,4,4,4,4,4,4,4,4,4,100,,,,,,,,,,,,,,,,,,,,,,,,,,,,,,,,,,,,,,,,,,,,,,,,,,,,,,,,,,,,,,,,,,,,,,,,,,,,,,,,,,,,,,,,,,,,,,,,,,,,,,,,,,,,,,,,,,,,,,,,,,,,,,,,,,,,,,
1702363173,1702363173,40,0,4428.461426,4218.333496,4413.974121,4416.922852,4375.128418,4368.077148,4358.205078,4355.641113,4364.743652,4292.436035,4619.871582,4609.102539,4483.077148,4510.256348,0,2,51,,,,0,4,4,4,4,4,4,4,4,4,4,4,4,4,4,100,,,,,,,,,,,,,,,,,10,0,0.632846,0.316711,-0.621765,0.335571,0.990844,-0.018069,0.031742,-5.634751,1.864567,79.961624,,,,,,,,,,,,,,,,,,,,,,,,,,,,,,,,,,,,,,,,,,,,,,,,,,,,,,,,,,,,,,,,,,,,,,,,,,,,,,,,,,,,,,,,,,,,,,,,,,,,,,,,,,
1702363173,1702363173,41,0,4414.615234,4188.974121,4388.717773,4399.102539,4344.743652,4349.743652,4338.205078,4342.307617,4344.358887,4265.897461,4585.256348,4573.077148,4427.94873,4490.384766,0,2,51,,,,0,4,4,4,4,4,4,4,4,4,4,4,4,4,4,100,,,,,,,,,,,,,,,,,,,,,,,,,,,,,,,,,,,,,,,,,,,,,,,,,,,,,,,,,,,,,,,,,,,,,,,,,,,,,,,,,,,,,,,,,,,,,,,,,,,,,,,,,,,,,,,,,,,,,,,,,,,,,,,,,,,,,,
1702363173,1702363173,42,0,4359.487305,4147.820313,4379.743652,4364.102539,4351.922852,4355.641113,4337.179688,4343.974121,4346.794922,4270,4568.333496,4563.461426,4388.717773,4456.282227,0,2,51,,,,0,4,4,4,4,4,4,4,4,4,4,4,4,4,4,100,,,,,,,,,,,,,,,,,,,,,,,,,,,,,,,,,,,,,,,,,,,,,,,,,,,,,,,,,,,,,,,,,,,,,,,,,,,,,,,,,,,,,,,,,,,,,,,,,,,,,,,,,,,,,,,,,,,,,,,,,,,,,,,,,,,,,,
1702363173,1702363173,43,0,4346.410156,4136.538574,4382.820313,4346.538574,4355.769043,4358.205078,4337.307617,4348.717773,4359.358887,4285.384766,4586.538574,4576.922852,4432.179688,4465.128418,0,2,51,,,,0,4,4,4,4,4,4,4,4,4,4,4,4,4,4,100,,,,,,,,,,,,,,,,,,,,,,,,,,,,,,,,,,,,,,,,,,,,,,,,,,,,,,,,,,,,,,,,,,,,,,,,,,,,,,,,,,,,,,,,,,,,,,,,,,,,,,,,,,,,,,,,,,,,,,,,,,,,,,,,,,,,,,
1702363173,1702363173,44,0,4380.512695,4141.410156,4377.692383,4346.666504,4333.974121,4344.487305,4327.05127,4343.077148,4349.871582,4280.641113,4594.230957,4568.846191,4473.333496,4476.666504,0,2,51,,,,0,4,4,4,4,4,4,4,4,4,4,4,4,4,4,100,,,,,,,,,,,,,,,,,11,0,0.633128,0.316101,-0.621887,0.335388,0.993774,0.000977,0.027835,-5.587943,1.944777,79.882133,,,,,,,,,,,,,,,,,,,,,,,,,,,,,,,,,,,,,,,,,,,,,,,,,,,,,,,,,,,,,,,,,,,,,,,,,,,,,,,,,,,,,,,,,,,,,,,,,,,,,,,,,,
1702363173,1702363173,45,0,4368.589844,4121.666504,4362.179688,4327.563965,4315.512695,4332.94873,4314.743652,4332.563965,4335.512695,4275.641113,4585.512695,4545.512695,4457.94873,4447.436035,0,2,51,,,,0,4,4,4,4,4,4,4,4,4,4,4,4,4,4,100,,,,,,,,,,,,,,,,,,,,,,,,,,,,,,,,,,,,,,,,,,,,,,,,,,,,,,,,,,,,,,,,,,,,,,,,,,,,,,,,,,,,,,,,,,,,,,,,,,,,,,,,,,,,,,,,,,,,,,,,,,,,,,,,,,,,,,
1702363173,1702363173,46,0,4301.025879,4088.333252,4347.436035,4291.538574,4305.641113,4330.769043,4309.487305,4325.384766,4332.05127,4269.487305,4577.94873,4530,4448.974121,4419.230957,0,2,51,,,,0,4,4,4,4,4,4,4,4,4,4,4,4,4,4,100,1,25,1,1,1,1,1,1,1,1,3,1,1,1,1,1,,,,,,,,,,,,,,,,,,,,,,,,,,,,,,,,,,,,,,,,,,,,,,,,,12.980146,1.525296,2.727422,2.388834,2.315474,39.829296,15.965485,1.755682,0.922972,1.627786,4.078032,1.870477,0.44523,0.484204,0.997662,8.11631,2.460182,0.883176,0.6238,1.307312,5.061484,1.42547,0.726236,1.653089,2.025263,2.536529,0.77591,0.355031,0.454741,0.806734,3.421485,1.439963,0.513418,0.624918,0.883739,1.433573,0.690637,0.275962,0.313027,0.497591,1.969324,0.838005,0.611878,0.632928,0.8208,3.380487,1.855515,0.967975,0.960142,1.279075,5.350589,2.623358,1.537219,1.055217,1.057555,5.431097,4.745755,1.292847,1.282151,1.947227,6.858256,1.924566,0.79918,0.905013,1.55847,7.515066,1.697845,3.748536,1.826159,1.985102
1702363173,1702363173,47,0,4283.846191,4080.128174,4340.641113,4273.974121,4303.974121,4328.717773,4313.974121,4328.974121,4336.025879,4265.512695,4578.846191,4524.230957,4477.179688,4420.897461,0,2,51,,,,0,4,4,4,4,4,4,4,4,4,4,4,4,4,4,100,,,,,,,,,,,,,,,,,,,,,,,,,,,,,,,,,,,,,,,,,,,,,,,,,,,,,,,,,,,,,,,,,,,,,,,,,,,,,,,,,,,,,,,,,,,,,,,,,,,,,,,,,,,,,,,,,,,,,,,,,,,,,,,,,,,,,,
1702363173,1702363173,48,0,4312.436035,4097.692383,4336.538574,4276.153809,4306.538574,4327.94873,4317.05127,4336.153809,4347.436035,4284.358887,4586.025879,4521.282227,4499.743652,4416.282227,0,2,51,,,,0,4,4,4,4,4,4,4,4,4,4,4,4,4,4,100,,,,,,,,,,,,,,,,,12,0,0.633056,0.315857,-0.622314,0.334961,0.990355,-0.000977,0.025394,-5.529149,1.950299,79.993919,,,,,,,,,,,,,,,,,,,,,,,,,,,,,,,,,,,,,,,,,,,,,,,,,,,,,,,,,,,,,,,,,,,,,,,,,,,,,,,,,,,,,,,,,,,,,,,,,,,,,,,,,,
1702363173,1702363173,49,0,4302.820313,4108.461426,4330,4267.94873,4299.743652,4323.205078,4304.743652,4330.641113,4342.820313,4291.025879,4590.897461,4512.05127,4504.871582,4398.974121,0,2,51,,,,0,4,4,4,4,4,4,4,4,4,4,4,4,4,4,100,,,,,,,,,,,,,,,,,,,,,,,,,,,,,,,,,,,,,,,,,,,,,,,,,,,,,,,,,,,,,,,,,,,,,,,,,,,,,,,,,,,,,,,,,,,,,,,,,,,,,,,,,,,,,,,,,,,,,,,,,,,,,,,,,,,,,,
1702363173,1702363173,50,0,4273.077148,4101.922852,4322.307617,4242.820313,4281.666504,4313.974121,4293.077148,4321.794922,4325.641113,4267.307617,4581.666504,4505,4505,4388.846191,0,2,51,,,,0,4,4,4,4,4,4,4,4,4,4,4,4,4,4,100,,,,,,,,,,,,,,,,,,,,,,,,,,,,,,,,,,,,,,,,,,,,,,,,,,,,,,,,,,,,,,,,,,,,,,,,,,,,,,,,,,,,,,,,,,,,,,,,,,,,,,,,,,,,,,,,,,,,,,,,,,,,,,,,,,,,,,
1702363173,1702363173,51,0,4264.358887,4105.384766,4316.410156,4231.794922,4267.436035,4310.256348,4294.230957,4320,4323.846191,4259.871582,4575.128418,4505.256348,4500.384766,4388.589844,0,2,51,,,,0,4,4,4,4,4,4,4,4,4,4,4,4,4,4,100,,,,,,,,,,,,,,,,,,,,,,,,,,,,,,,,,,,,,,,,,,,,,,,,,,,,,,,,,,,,,,,,,,,,,,,,,,,,,,,,,,,,,,,,,,,,,,,,,,,,,,,,,,,,,,,,,,,,,,,,,,,,,,,,,,,,,,
1702363173,1702363173,52,0,4269.871582,4128.077148,4313.717773,4241.025879,4267.436035,4310.512695,4296.538574,4320,4326.538574,4270.512695,4578.589844,4505.512695,4493.846191,4388.974121,0,2,51,,,,0,4,4,4,4,4,4,4,4,4,4,4,4,4,4,100,,,,,,,,,,,,,,,,,13,0,0.633339,0.31604,-0.622131,0.334595,0.986937,-0.013674,0.021487,-5.526234,1.788602,79.944527,,,,,,,,,,,,,,,,,,,,,,,,,,,,,,,,,,,,,,,,,,,,,,,,,,,,,,,,,,,,,,,,,,,,,,,,,,,,,,,,,,,,,,,,,,,,,,,,,,,,,,,,,,
1702363173,1702363173,53,0,4271.410156,4147.820313,4314.615234,4236.922852,4270.256348,4309.871582,4293.846191,4322.563965,4326.025879,4268.717773,4577.820313,4505.897461,4492.94873,4380.128418,0,2,51,,,,0,4,4,4,4,4,4,4,4,4,4,4,4,4,4,100,,,,,,,,,,,,,,,,,,,,,,,,,,,,,,,,,,,,,,,,,,,,,,,,,,,,,,,,,,,,,,,,,,,,,,,,,,,,,,,,,,,,,,,,,,,,,,,,,,,,,,,,,,,,,,,,,,,,,,,,,,,,,,,,,,,,,,
1702363173,1702363173,54,0,4259.487305,4160.128418,4308.205078,4220.641113,4261.282227,4304.230957,4280.769043,4321.410156,4328.205078,4262.563965,4572.307617,4501.025879,4481.538574,4370.641113,0,2,51,,,,0,4,4,4,4,4,4,4,4,4,4,4,4,4,4,100,,,,,,,,,,,,,,,,,,,,,,,,,,,,,,,,,,,,,,,,,,,,,,,,,,,,,,,,,,,,,,,,,,,,,,,,,,,,,,,,,,,,,,,,,,,,,,,,,,,,,,,,,,,,,,,,,,,,,,,,,,,,,,,,,,,,,,
1702363173,1702363173,55,0,4247.563965,4172.94873,4296.794922,4209.102539,4244.487305,4297.563965,4265.256348,4315,4320.512695,4254.487305,4559.871582,4485.128418,4458.717773,4361.410156,0,2,51,,,,0,4,4,4,4,4,4,4,4,4,4,4,4,4,4,100,,,,,,,,,,,,,,,,,,,,,,,,,,,,,,,,,,,,,,,,,,,,,,,,,,,,,,,,,,,,,,,,,,,,,,,,,,,,,,,,,,,,,,,,,,,,,,,,,,,,,,,,,,,,,,,,,,,,,,,,,,,,,,,,,,,,,,
1702363173,1702363173,56,0,4260,4190,4291.025879,4200.897461,4239.871582,4291.538574,4259.230957,4309.102539,4307.436035,4238.333496,4548.333496,4470.897461,4454.743652,4353.974121,0,2,51,,,,0,4,4,4,4,4,4,4,4,4,4,4,4,4,4,100,,,,,,,,,,,,,,,,,14,0,0.633363,0.316406,-0.621887,0.334656,0.997192,-0.024905,0.041509,-5.606944,1.726409,80.050072,,,,,,,,,,,,,,,,,,,,,,,,,,,,,,,,,,,,,,,,,,,,,,,,,,,,,,,,,,,,,,,,,,,,,,,,,,,,,,,,,,,,,,,,,,,,,,,,,,,,,,,,,,
1702363174,1702363174,57,0,4291.538574,4218.077148,4291.282227,4204.487305,4252.692383,4292.820313,4264.743652,4310.384766,4306.666504,4232.820313,4557.179688,4474.871582,4456.153809,4361.794922,0,2,51,,,,0,4,4,4,4,4,4,4,4,4,4,4,4,4,4,100,,,,,,,,,,,,,,,,,,,,,,,,,,,,,,,,,,,,,,,,,,,,,,,,,,,,,,,,,,,,,,,,,,,,,,,,,,,,,,,,,,,,,,,,,,,,,,,,,,,,,,,,,,,,,,,,,,,,,,,,,,,,,,,,,,,,,,
1702363174,1702363174,58,0,4313.717773,4248.077148,4300.256348,4219.358887,4266.025879,4303.846191,4273.333496,4320,4313.846191,4245.384766,4576.410156,4493.717773,4453.846191,4382.820313,0,2,51,,,,0,4,4,4,4,4,4,4,4,4,4,4,4,4,4,100,,,,,,,,,,,,,,,,,,,,,,,,,,,,,,,,,,,,,,,,,,,,,,,,,,,,,,,,,,,,,,,,,,,,,,,,,,,,,,,,,,,,,,,,,,,,,,,,,,,,,,,,,,,,,,,,,,,,,,,,,,,,,,,,,,,,,,
1702363174,1702363174,59,0,4327.179688,4268.846191,4310.128418,4220,4267.436035,4308.974121,4278.077148,4327.436035,4320.384766,4254.102539,4579.615234,4507.05127,4462.05127,4391.025879,0,2,51,,,,0,4,4,4,4,4,4,4,4,4,4,4,4,4,4,100,,,,,,,,,,,,,,,,,,,,,,,,,,,,,,,,,,,,,,,,,,,,,,,,,,,,,,,,,,,,,,,,,,,,,,,,,,,,,,,,,,,,,,,,,,,,,,,,,,,,,,,,,,,,,,,,,,,,,,,,,,,,,,,,,,,,,,
1702363174,1702363174,60,0,4340.641113,4287.307617,4314.230957,4215.769043,4263.205078,4305.128418,4281.666504,4327.563965,4323.846191,4252.307617,4574.230957,4510.769043,4466.410156,4387.179688,0,2,51,,,,0,4,4,4,4,4,4,4,4,4,4,4,4,4,4,100,,,,,,,,,,,,,,,,,15,0,0.633327,0.316284,-0.621887,0.334839,0.990844,-0.019045,0.025394,-5.596249,1.703768,80.228401,,,,,,,,,,,,,,,,,,,,,,,,,,,,,,,,,,,,,,,,,,,,,,,,,,,,,,,,,,,,,,,,,,,,,,,,,,,,,,,,,,,,,,,,,,,,,,,,,,,,,,,,,,
1702363174,1702363174,61,0,4352.692383,4298.846191,4313.846191,4217.436035,4266.025879,4302.692383,4281.410156,4318.717773,4315.512695,4246.153809,4573.077148,4507.436035,4453.717773,4377.94873,0,2,51,,,,0,4,4,4,4,4,4,4,4,4,4,4,4,4,4,100,,,,,,,,,,,,,,,,,,,,,,,,,,,,,,,,,,,,,,,,,,,,,,,,,,,,,,,,,,,,,,,,,,,,,,,,,,,,,,,,,,,,,,,,,,,,,,,,,,,,,,,,,,,,,,,,,,,,,,,,,,,,,,,,,,,,,,
1702363174,1702363174,62,0,4359.743652,4298.717773,4308.333496,4203.589844,4273.717773,4308.589844,4280.641113,4310.384766,4304.615234,4234.487305,4567.820313,4495.384766,4442.179688,4363.717773,0,2,51,,,,0,4,4,4,4,4,4,4,4,4,4,4,4,4,4,100,,,,,,,,,,,,,,,,,,,,,,,,,,,,,,,,,,,,,,,,,,,,,,,,,,,,,,,,,,,,,,,,,13.27836,1.689469,2.874504,2.765739,3.053798,36.34111,15.908688,1.962558,0.98798,1.648918,4.776124,2.266661,0.398989,0.553609,1.075741,7.64913,2.904475,0.829454,0.646816,1.340275,4.979747,1.509723,0.567183,1.915647,2.357029,2.832387,0.84474,0.338402,0.583145,0.857035,3.711035,1.657264,0.483548,0.673587,0.938288,1.916881,0.792287,0.226208,0.381404,0.499561,2.46162,0.967393,0.531114,0.712311,0.810996,4.300972,2.189071,0.75445,0.978992,1.349413,6.453925,3.008687,1.292736,1.202299,1.059281,6.398818,5.638628,1.137387,1.441241,2.093183,6.400428,2.267068,0.721057,0.963488,1.63221,7.166133,1.66365,3.702732,2.288571,2.069369
1702363174,1702363174,63,0,4371.922852,4304.487305,4309.230957,4195.384766,4277.820313,4311.922852,4288.589844,4318.846191,4314.871582,4237.179688,4564.871582,4490.512695,4446.410156,4354.615234,0,2,51,,,,0,4,4,4,4,4,4,4,4,4,4,4,4,4,4,100,,,,,,,,,,,,,,,,,,,,,,,,,,,,,,,,,,,,,,,,,,,,,,,,,,,,,,,,,,,,,,,,,,,,,,,,,,,,,,,,,,,,,,,,,,,,,,,,,,,,,,,,,,,,,,,,,,,,,,,,,,,,,,,,,,,,,,
1702363174,1702363174,64,0,4389.358887,4315.512695,4310.641113,4201.538574,4270.641113,4303.205078,4292.563965,4325.256348,4321.282227,4249.871582,4564.743652,4498.974121,4443.589844,4352.94873,4208,2,51,,,,0,4,4,4,4,4,4,4,4,4,4,4,4,4,4,100,,,,,,,,,,,,,,,,,16,0,0.63318,0.315979,-0.622192,0.334839,0.987425,-0.018069,0.016604,-5.703291,1.683391,80.10556,,,,,,,,,,,,,,,,,,,,,,,,,,,,,,,,,,,,,,,,,,,,,,,,,,,,,,,,,,,,,,,,,,,,,,,,,,,,,,,,,,,,,,,,,,,,,,,,,,,,,,,,,,
1702363174,1702363174,65,0,4394.358887,4315.256348,4301.666504,4193.717773,4258.589844,4290.641113,4277.563965,4313.589844,4301.153809,4236.538574,4550.256348,4491.025879,4426.282227,4353.205078,5394,2,51,,,,0,4,4,4,4,4,4,4,4,4,4,4,4,4,4,100,,,,,,,,,,,,,,,,,,,,,,,,,,,,,,,,,,,,,,,,,,,,,,,,,,,,,,,,,,,,,,,,,,,,,,,,,,,,,,,,,,,,,,,,,,,,,,,,,,,,,,,,,,,,,,,,,,,,,,,,,,,,,,,,,,,,,,
1702363174,1702363174,66,0,4396.794922,4311.538574,4298.333496,4182.94873,4259.615234,4287.05127,4267.563965,4307.179688,4288.717773,4215.769043,4538.205078,4476.794922,4423.589844,4355.512695,5405,2,51,,,,0,4,4,4,4,4,4,4,4,4,4,4,4,4,4,100,,,,,,,,,,,,,,,,,,,,,,,,,,,,,,,,,,,,,,,,,,,,,,,,,,,,,,,,,,,,,,,,,,,,,,,,,,,,,,,,,,,,,,,,,,,,,,,,,,,,,,,,,,,,,,,,,,,,,,,,,,,,,,,,,,,,,,
1702363174,1702363174,67,0,4413.205078,4316.025879,4305.256348,4188.333496,4267.692383,4292.94873,4276.538574,4315,4296.794922,4218.846191,4544.358887,4482.692383,4435.512695,4355.512695,5437,2,51,,,,0,4,4,4,4,4,4,4,4,4,4,4,4,4,4,100,,,,,,,,,,,,,,,,,,,,,,,,,,,,,,,,,,,,,,,,,,,,,,,,,,,,,,,,,,,,,,,,,,,,,,,,,,,,,,,,,,,,,,,,,,,,,,,,,,,,,,,,,,,,,,,,,,,,,,,,,,,,,,,,,,,,,,
1702363174,1702363174,68,0,4413.205078,4315.256348,4302.179688,4187.563965,4266.410156,4294.871582,4283.205078,4314.487305,4296.922852,4220.256348,4548.846191,4487.436035,4435.256348,4347.307617,5337,2,51,,,,0,4,4,4,4,4,4,4,4,4,4,4,4,4,4,100,,,,,,,,,,,,,,,,,17,0,0.633013,0.315674,-0.622681,0.334534,0.986449,-0.011232,0.031254,-5.849628,1.548385,80.045006,,,,,,,,,,,,,,,,,,,,,,,,,,,,,,,,,,,,,,,,,,,,,,,,,,,,,,,,,,,,,,,,,,,,,,,,,,,,,,,,,,,,,,,,,,,,,,,,,,,,,,,,,,
1702363174,1702363174,69,0,4395.256348,4298.333496,4293.205078,4173.589844,4263.333496,4287.436035,4274.615234,4308.717773,4290.128418,4214.102539,4541.922852,4476.794922,4422.563965,4339.871582,4203,2,51,,,,0,4,4,4,4,4,4,4,4,4,4,4,4,4,4,100,,,,,,,,,,,,,,,,,,,,,,,,,,,,,,,,,,,,,,,,,,,,,,,,,,,,,,,,,,,,,,,,,,,,,,,,,,,,,,,,,,,,,,,,,,,,,,,,,,,,,,,,,,,,,,,,,,,,,,,,,,,,,,,,,,,,,,
1702363174,1702363174,70,0,4400.769043,4279.102539,4295.256348,4169.358887,4265.128418,4278.974121,4268.077148,4310.384766,4294.615234,4224.102539,4530.641113,4474.487305,4413.333496,4341.538574,5155,2,51,,,,0,4,4,4,4,4,4,4,4,4,4,4,4,4,4,100,,,,,,,,,,,,,,,,,,,,,,,,,,,,,,,,,,,,,,,,,,,,,,,,,,,,,,,,,,,,,,,,,,,,,,,,,,,,,,,,,,,,,,,,,,,,,,,,,,,,,,,,,,,,,,,,,,,,,,,,,,,,,,,,,,,,,,
1702363174,1702363174,71,0,4417.692383,4264.615234,4298.077148,4167.820313,4257.307617,4279.230957,4267.179688,4313.589844,4298.717773,4232.692383,4527.692383,4481.025879,4411.282227,4346.282227,3899,2,51,,,,0,4,4,4,4,4,4,4,4,4,4,4,4,4,4,100,,,,,,,,,,,,,,,,,,,,,,,,,,,,,,,,,,,,,,,,,,,,,,,,,,,,,,,,,,,,,,,,,,,,,,,,,,,,,,,,,,,,,,,,,,,,,,,,,,,,,,,,,,,,,,,,,,,,,,,,,,,,,,,,,,,,,,
1702363174,1702363174,72,0,4407.820313,4242.563965,4288.846191,4150.641113,4236.410156,4275.641113,4254.358887,4307.179688,4289.358887,4213.589844,4522.820313,4466.025879,4406.410156,4334.102539,4510,2,51,,,,0,4,4,4,4,4,4,4,4,4,4,4,4,4,4,100,,,,,,,,,,,,,,,,,18,0,0.632883,0.315369,-0.62323,0.334045,0.99768,-0.016115,0.014162,-5.997999,1.693547,80.123833,,,,,,,,,,,,,,,,,,,,,,,,,,,,,,,,,,,,,,,,,,,,,,,,,,,,,,,,,,,,,,,,,,,,,,,,,,,,,,,,,,,,,,,,,,,,,,,,,,,,,,,,,,
1702363174,1702363174,73,0,4386.794922,4217.94873,4280,4135.256348,4230.641113,4271.922852,4244.102539,4304.615234,4281.153809,4198.974121,4506.538574,4450,4380.512695,4316.153809,5457,2,51,,,,0,4,4,4,4,4,4,4,4,4,4,4,4,4,4,100,,,,,,,,,,,,,,,,,,,,,,,,,,,,,,,,,,,,,,,,,,,,,,,,,,,,,,,,,,,,,,,,,,,,,,,,,,,,,,,,,,,,,,,,,,,,,,,,,,,,,,,,,,,,,,,,,,,,,,,,,,,,,,,,,,,,,,
1702363174,1702363174,74,0,4379.230957,4205,4279.615234,4132.179688,4244.615234,4273.846191,4249.615234,4308.974121,4280.897461,4207.436035,4497.179688,4455.897461,4360.384766,4322.692383,5961,2,51,,,,0,4,4,4,4,4,4,4,4,4,4,4,4,4,4,100,,,,,,,,,,,,,,,,,,,,,,,,,,,,,,,,,,,,,,,,,,,,,,,,,,,,,,,,,,,,,,,,,,,,,,,,,,,,,,,,,,,,,,,,,,,,,,,,,,,,,,,,,,,,,,,,,,,,,,,,,,,,,,,,,,,,,,
1702363174,1702363174,75,0,4381.538574,4199.871582,4279.615234,4127.692383,4257.05127,4269.487305,4251.282227,4304.615234,4281.025879,4207.692383,4499.871582,4456.922852,4376.410156,4333.077148,6103,2,51,,,,0,4,4,4,4,4,4,4,4,4,4,4,4,4,4,100,,,,,,,,,,,,,,,,,,,,,,,,,,,,,,,,,,,,,,,,,,,,,,,,,,,,,,,,,,,,,,,,,,,,,,,,,,,,,,,,,,,,,,,,,,,,,,,,,,,,,,,,,,,,,,,,,,,,,,,,,,,,,,,,,,,,,,
1702363174,1702363174,76,0,4382.692383,4190.384766,4275.641113,4119.230957,4241.922852,4263.589844,4245.769043,4296.922852,4275.256348,4197.563965,4505,4447.692383,4404.358887,4326.538574,6461,2,51,,,,0,4,4,4,4,4,4,4,4,4,4,4,4,4,4,100,,,,,,,,,,,,,,,,,19,0,0.633049,0.315247,-0.623352,0.333618,0.996215,-0.014162,0.018557,-5.864866,1.840859,80.061455,,,,,,,,,,,,,,,,,,,,,,,,,,,,,,,,,,,,,,,,,,,,,,,,,,,,,,,,,,,,,,,,,,,,,,,,,,,,,,,,,,,,,,,,,,,,,,,,,,,,,,,,,,
1702363174,1702363174,77,0,4383.974121,4185.641113,4274.230957,4115.897461,4219.743652,4263.589844,4250.897461,4299.487305,4275.384766,4199.230957,4509.358887,4451.153809,4417.307617,4326.922852,6671,2,51,,,,0,4,4,4,4,4,4,4,4,4,4,4,4,4,4,100,,,,,,,,,,,,,,,,,,,,,,,,,,,,,,,,,,,,,,,,,,,,,,,,,,,,,,,,,,,,,,,,,,,,,,,,,,,,,,,,,,,,,,,,,,,,,,,,,,,,,,,,,,,,,,,,,,,,,,,,,,,,,,,,,,,,,,
1702363174,1702363174,78,0,4373.589844,4183.077148,4268.205078,4105.128418,4222.563965,4253.205078,4246.282227,4298.205078,4276.410156,4199.615234,4500.897461,4447.436035,4400,4326.922852,5961,2,51,,,,0,4,4,4,4,4,4,4,4,4,4,4,4,4,4,100,,,,,,,,,,,,,,,,,,,,,,,,,,,,,,,,,,,,,,,,,,,,,,,,,,,,,,,,,,,,,,,,,14.228105,1.893836,2.87895,3.047142,3.812454,34.432232,15.03241,2.272477,1.078335,1.638346,6.009183,2.519805,0.392076,0.619891,1.087708,8.001576,3.201102,0.810284,0.689715,1.327461,5.656978,1.541456,0.485338,2.144879,2.625253,3.608793,0.872168,0.334052,0.68491,0.873119,4.381323,1.792004,0.504468,0.70093,0.95757,2.542793,0.853241,0.223586,0.437838,0.49948,3.328719,1.075588,0.482708,0.757207,0.788349,5.733202,2.431515,0.647278,0.99623,1.367659,8.34622,3.304355,1.150302,1.324079,1.063258,8.310191,6.160487,1.0845,1.548025,2.14322,6.60038,2.675394,0.725269,1.042614,1.673044,8.101495,1.677254,3.516205,2.703487,2.153787
1702363174,1702363174,79,0,4348.717773,4179.230957,4257.563965,4089.230713,4226.410156,4239.743652,4227.307617,4289.743652,4265.897461,4185.512695,4475.384766,4428.717773,4373.589844,4306.922852,6103,2,51,,,,0,4,4,4,4,4,4,4,4,4,4,4,4,4,4,100,,,,,,,,,,,,,,,,,,,,,,,,,,,,,,,,,,,,,,,,,,,,,,,,,,,,,,,,,,,,,,,,,,,,,,,,,,,,,,,,,,,,,,,,,,,,,,,,,,,,,,,,,,,,,,,,,,,,,,,,,,,,,,,,,,,,,,
1702363174,1702363174,80,0,4343.974121,4195.641113,4266.025879,4092.820557,4223.461426,4256.794922,4236.794922,4295.641113,4265.897461,4185.897461,4477.692383,4439.743652,4382.05127,4310.384766,6461,2,51,,,,0,4,4,4,4,4,4,4,4,4,4,4,4,4,4,100,,,,,,,,,,,,,,,,,20,0,0.633274,0.315125,-0.623413,0.333191,0.989867,-0.018557,0.013185,-5.945046,1.690106,79.955307,,,,,,,,,,,,,,,,,,,,,,,,,,,,,,,,,,,,,,,,,,,,,,,,,,,,,,,,,,,,,,,,,,,,,,,,,,,,,,,,,,,,,,,,,,,,,,,,,,,,,,,,,,
1702363174,1702363174,81,0,4358.846191,4217.179688,4277.94873,4103.846191,4229.743652,4272.94873,4259.487305,4307.179688,4280.769043,4207.692383,4502.820313,4458.846191,4397.94873,4331.922852,6671,2,51,,,,0,4,4,4,4,4,4,4,4,4,4,4,4,4,4,100,,,,,,,,,,,,,,,,,,,,,,,,,,,,,,,,,,,,,,,,,,,,,,,,,,,,,,,,,,,,,,,,,,,,,,,,,,,,,,,,,,,,,,,,,,,,,,,,,,,,,,,,,,,,,,,,,,,,,,,,,,,,,,,,,,,,,,
1702363174,1702363174,82,0,4365.641113,4219.487305,4276.922852,4105,4235.641113,4265.512695,4262.692383,4308.846191,4289.743652,4217.05127,4508.974121,4458.846191,4390.897461,4334.615234,5961,2,51,,,,0,4,4,4,4,4,4,4,4,4,4,4,4,4,4,100,,,,,,,,,,,,,,,,,,,,,,,,,,,,,,,,,,,,,,,,,,,,,,,,,,,,,,,,,,,,,,,,,,,,,,,,,,,,,,,,,,,,,,,,,,,,,,,,,,,,,,,,,,,,,,,,,,,,,,,,,,,,,,,,,,,,,,
1702363174,1702363174,83,0,4366.794922,4214.230957,4282.179688,4107.563965,4229.871582,4268.846191,4261.922852,4310.128418,4290.128418,4211.794922,4505,4469.358887,4395.384766,4340.384766,6103,2,51,,,,0,4,4,4,4,4,4,4,4,4,4,4,4,4,4,100,,,,,,,,,,,,,,,,,,,,,,,,,,,,,,,,,,,,,,,,,,,,,,,,,,,,,,,,,,,,,,,,,,,,,,,,,,,,,,,,,,,,,,,,,,,,,,,,,,,,,,,,,,,,,,,,,,,,,,,,,,,,,,,,,,,,,,
1702363174,1702363174,84,0,4370,4210,4288.974121,4111.153809,4233.974121,4280.128418,4266.922852,4309.615234,4284.615234,4212.307617,4502.436035,4480.256348,4405.128418,4349.615234,6461,2,51,,,,0,4,4,4,4,4,4,4,4,4,4,4,4,4,4,100,,,,,,,,,,,,,,,,,21,0,0.633374,0.314941,-0.623535,0.332947,0.998169,-0.001465,0.021975,-6.167208,1.787762,79.959778,,,,,,,,,,,,,,,,,,,,,,,,,,,,,,,,,,,,,,,,,,,,,,,,,,,,,,,,,,,,,,,,,,,,,,,,,,,,,,,,,,,,,,,,,,,,,,,,,,,,,,,,,,
1702363174,1702363174,85,0,4363.974121,4200,4281.794922,4108.077148,4242.94873,4274.487305,4265.256348,4306.794922,4277.692383,4217.05127,4498.205078,4470.128418,4388.846191,4339.102539,6671,2,51,,,,0,4,4,4,4,4,4,4,4,4,4,4,4,4,4,100,,,,,,,,,,,,,,,,,,,,,,,,,,,,,,,,,,,,,,,,,,,,,,,,,,,,,,,,,,,,,,,,,,,,,,,,,,,,,,,,,,,,,,,,,,,,,,,,,,,,,,,,,,,,,,,,,,,,,,,,,,,,,,,,,,,,,,
1702363174,1702363174,86,0,4364.871582,4207.94873,4280.897461,4112.05127,4243.333496,4273.589844,4267.820313,4309.230957,4282.179688,4216.410156,4504.871582,4468.077148,4387.307617,4344.230957,5961,2,51,,,,0,4,4,4,4,4,4,4,4,4,4,4,4,4,4,100,,,,,,,,,,,,,,,,,,,,,,,,,,,,,,,,,,,,,,,,,,,,,,,,,,,,,,,,,,,,,,,,,,,,,,,,,,,,,,,,,,,,,,,,,,,,,,,,,,,,,,,,,,,,,,,,,,,,,,,,,,,,,,,,,,,,,,
1702363174,1702363174,87,0,4377.307617,4233.461426,4295,4127.436035,4257.820313,4281.666504,4274.615234,4315.256348,4295.512695,4216.922852,4515.128418,4482.94873,4402.820313,4374.871582,6103,2,51,,,,0,4,4,4,4,4,4,4,4,4,4,4,4,4,4,100,,,,,,,,,,,,,,,,,,,,,,,,,,,,,,,,,,,,,,,,,,,,,,,,,,,,,,,,,,,,,,,,,,,,,,,,,,,,,,,,,,,,,,,,,,,,,,,,,,,,,,,,,,,,,,,,,,,,,,,,,,,,,,,,,,,,,,
1702363174,1702363174,88,0,4367.820313,4236.282227,4292.692383,4126.410156,4255.128418,4272.307617,4263.717773,4313.077148,4292.94873,4220.512695,4504.102539,4477.179688,4393.205078,4377.692383,6461,2,51,,,,0,4,4,4,4,4,4,4,4,4,4,4,4,4,4,100,,,,,,,,,,,,,,,,,22,0,0.63344,0.314575,-0.623718,0.332825,0.998169,0.001465,0.024417,-6.100487,1.725653,79.947136,,,,,,,,,,,,,,,,,,,,,,,,,,,,,,,,,,,,,,,,,,,,,,,,,,,,,,,,,,,,,,,,,,,,,,,,,,,,,,,,,,,,,,,,,,,,,,,,,,,,,,,,,,
1702363174,1702363174,89,0,4355.256348,4229.230957,4279.615234,4116.025879,4235.256348,4265.897461,4257.820313,4310.256348,4282.436035,4216.410156,4491.922852,4461.922852,4378.974121,4365.769043,6671,2,51,,,,0,4,4,4,4,4,4,4,4,4,4,4,4,4,4,100,,,,,,,,,,,,,,,,,,,,,,,,,,,,,,,,,,,,,,,,,,,,,,,,,,,,,,,,,,,,,,,,,,,,,,,,,,,,,,,,,,,,,,,,,,,,,,,,,,,,,,,,,,,,,,,,,,,,,,,,,,,,,,,,,,,,,,
1702363174,1702363174,90,0,4353.974121,4233.461426,4278.461426,4114.358887,4241.794922,4270.641113,4262.436035,4305.897461,4276.922852,4203.974121,4487.692383,4453.846191,4375.769043,4364.743652,5961,2,51,,,,0,4,4,4,4,4,4,4,4,4,4,4,4,4,4,100,,,,,,,,,,,,,,,,,,,,,,,,,,,,,,,,,,,,,,,,,,,,,,,,,,,,,,,,,,,,,,,,,,,,,,,,,,,,,,,,,,,,,,,,,,,,,,,,,,,,,,,,,,,,,,,,,,,,,,,,,,,,,,,,,,,,,,
1702363174,1702363174,91,0,4342.05127,4235,4276.538574,4106.025879,4250.641113,4265.256348,4253.333496,4296.410156,4273.846191,4195,4476.538574,4443.205078,4365,4356.666504,6103,2,51,,,,0,4,4,4,4,4,4,4,4,4,4,4,4,4,4,100,,,,,,,,,,,,,,,,,,,,,,,,,,,,,,,,,,,,,,,,,,,,,,,,,,,,,,,,,,,,,,,,,,,,,,,,,,,,,,,,,,,,,,,,,,,,,,,,,,,,,,,,,,,,,,,,,,,,,,,,,,,,,,,,,,,,,,
1702363174,1702363174,92,0,4331.666504,4231.153809,4266.922852,4094.871826,4233.333496,4258.974121,4242.820313,4298.077148,4277.05127,4200.256348,4472.05127,4438.589844,4358.333496,4350,6461,2,51,,,,0,4,4,4,4,4,4,4,4,4,4,4,4,4,4,100,,,,,,,,,,,,,,,,,23,0,0.633591,0.31427,-0.623718,0.332825,0.982053,-0.019534,0.033207,-6.007105,1.653087,80.002419,,,,,,,,,,,,,,,,,,,,,,,,,,,,,,,,,,,,,,,,,,,,,,,,,,,,,,,,,,,,,,,,,,,,,,,,,,,,,,,,,,,,,,,,,,,,,,,,,,,,,,,,,,
1702363174,1702363174,93,0,4337.820313,4231.410156,4263.461426,4098.589844,4225.384766,4260.769043,4248.077148,4309.358887,4281.282227,4210.897461,4478.717773,4443.333496,4364.743652,4353.846191,6671,2,51,,,,0,4,4,4,4,4,4,4,4,4,4,4,4,4,4,100,,,,,,,,,,,,,,,,,,,,,,,,,,,,,,,,,,,,,,,,,,,,,,,,,,,,,,,,,,,,,,,,,,,,,,,,,,,,,,,,,,,,,,,,,,,,,,,,,,,,,,,,,,,,,,,,,,,,,,,,,,,,,,,,,,,,,,
1702363174,1702363174,94,0,4343.974121,4237.820313,4271.666504,4109.230957,4235.769043,4262.307617,4253.717773,4308.205078,4278.846191,4211.666504,4480.512695,4446.410156,4365.641113,4361.153809,5961,2,51,,,,0,4,4,4,4,4,4,4,4,4,4,4,4,4,4,100,,,,,,,,,,,,,,,,,,,,,,,,,,,,,,,,,,,,,,,,,,,,,,,,,,,,,,,,,,,,,,,,,15.534378,2.026542,2.669437,3.175983,4.441916,35.584999,14.009814,2.578836,1.188934,1.60051,7.415374,2.553889,0.401597,0.667179,1.033588,9.298686,3.284991,0.773401,0.739832,1.272972,6.977068,1.480469,0.443041,2.243341,2.77856,4.670211,0.850479,0.339571,0.729125,0.853846,5.204604,1.823932,0.551876,0.690826,0.943355,3.127789,0.84279,0.254569,0.470231,0.498209,4.342504,1.128808,0.450336,0.766153,0.76114,7.336194,2.495977,0.606751,1.018476,1.323833,10.57989,3.391515,1.089382,1.382192,1.07671,10.732965,6.114545,1.087864,1.570935,2.095653,7.398254,3.112882,0.779802,1.143626,1.689432,9.975746,1.697441,3.135953,2.990308,2.244678
1702363174,1702363174,95,0,4341.282227,4236.538574,4277.436035,4108.461426,4230.641113,4261.282227,4249.871582,4297.820313,4275.769043,4203.205078,4474.358887,4441.794922,4356.282227,4365.384766,6103,2,51,,,,0,4,4,4,4,4,4,4,4,4,4,4,4,4,4,100,,,,,,,,,,,,,,,,,,,,,,,,,,,,,,,,,,,,,,,,,,,,,,,,,,,,,,,,,,,,,,,,,,,,,,,,,,,,,,,,,,,,,,,,,,,,,,,,,,,,,,,,,,,,,,,,,,,,,,,,,,,,,,,,,,,,,,
1702363174,1702363174,96,0,4342.436035,4220.769043,4276.410156,4104.743652,4238.077148,4262.563965,4250.384766,4296.282227,4274.743652,4200.128418,4474.487305,4441.794922,4354.487305,4362.563965,6461,2,51,,,,0,4,4,4,4,4,4,4,4,4,4,4,4,4,4,100,,,,,,,,,,,,,,,,,24,0,0.63368,0.313904,-0.623779,0.332886,0.9801,-0.016115,0.031742,-5.973061,1.587779,79.968842,,,,,,,,,,,,,,,,,,,,,,,,,,,,,,,,,,,,,,,,,,,,,,,,,,,,,,,,,,,,,,,,,,,,,,,,,,,,,,,,,,,,,,,,,,,,,,,,,,,,,,,,,,
1702363174,1702363174,97,0,4342.436035,4202.436035,4278.974121,4107.563965,4255.769043,4260.512695,4249.487305,4299.487305,4270.897461,4201.538574,4474.230957,4445,4358.846191,4357.820313,6671,2,51,,,,0,4,4,4,4,4,4,4,4,4,4,4,4,4,4,100,,,,,,,,,,,,,,,,,,,,,,,,,,,,,,,,,,,,,,,,,,,,,,,,,,,,,,,,,,,,,,,,,,,,,,,,,,,,,,,,,,,,,,,,,,,,,,,,,,,,,,,,,,,,,,,,,,,,,,,,,,,,,,,,,,,,,,
1702363174,1702363174,98,0,4331.666504,4192.05127,4278.461426,4103.461426,4237.436035,4254.743652,4239.230957,4292.563965,4262.820313,4193.717773,4465.256348,4436.538574,4354.358887,4358.589844,5961,2,51,,,,0,4,4,4,4,4,4,4,4,4,4,4,4,4,4,100,,,,,,,,,,,,,,,,,,,,,,,,,,,,,,,,,,,,,,,,,,,,,,,,,,,,,,,,,,,,,,,,,,,,,,,,,,,,,,,,,,,,,,,,,,,,,,,,,,,,,,,,,,,,,,,,,,,,,,,,,,,,,,,,,,,,,,
1702363174,1702363174,99,0,4316.025879,4178.333496,4267.436035,4093.205078,4207.05127,4246.794922,4230.897461,4282.692383,4252.05127,4178.077148,4450.512695,4418.589844,4340,4351.282227,6103,2,51,,,,0,4,4,4,4,4,4,4,4,4,4,4,4,4,4,100,,,,,,,,,,,,,,,,,,,,,,,,,,,,,,,,,,,,,,,,,,,,,,,,,,,,,,,,,,,,,,,,,,,,,,,,,,,,,,,,,,,,,,,,,,,,,,,,,,,,,,,,,,,,,,,,,,,,,,,,,,,,,,,,,,,,,,
1702363174,1702363174,100,0,4301.922852,4155.641113,4257.692383,4087.692383,4211.153809,4242.179688,4228.717773,4285.256348,4246.025879,4172.692383,4438.333496,4408.717773,4330.512695,4334.743652,6461,2,51,,,,0,4,4,4,4,4,4,4,4,4,4,4,4,4,4,100,,,,,,,,,,,,,,,,,25,0,0.633833,0.31311,-0.624023,0.332886,0.979612,-0.008302,0.02637,-5.875755,1.462334,79.955292,,,,,,,,,,,,,,,,,,,,,,,,,,,,,,,,,,,,,,,,,,,,,,,,,,,,,,,,,,,,,,,,,,,,,,,,,,,,,,,,,,,,,,,,,,,,,,,,,,,,,,,,,,
1702363174,1702363174,101,0,4302.94873,4150.384766,4260.128418,4091.025635,4232.94873,4246.153809,4232.436035,4293.717773,4253.205078,4178.333496,4445.384766,4417.692383,4339.615234,4339.487305,6671,2,51,,,,0,4,4,4,4,4,4,4,4,4,4,4,4,4,4,100,,,,,,,,,,,,,,,,,,,,,,,,,,,,,,,,,,,,,,,,,,,,,,,,,,,,,,,,,,,,,,,,,,,,,,,,,,,,,,,,,,,,,,,,,,,,,,,,,,,,,,,,,,,,,,,,,,,,,,,,,,,,,,,,,,,,,,
1702363174,1702363174,102,0,4316.153809,4165.128418,4267.307617,4096.922852,4226.794922,4249.102539,4234.615234,4294.615234,4264.615234,4187.05127,4458.974121,4429.615234,4349.615234,4355.512695,5961,2,51,,,,0,4,4,4,4,4,4,4,4,4,4,4,4,4,4,100,,,,,,,,,,,,,,,,,,,,,,,,,,,,,,,,,,,,,,,,,,,,,,,,,,,,,,,,,,,,,,,,,,,,,,,,,,,,,,,,,,,,,,,,,,,,,,,,,,,,,,,,,,,,,,,,,,,,,,,,,,,,,,,,,,,,,,
1702363174,1702363174,103,0,4316.282227,4166.794922,4268.461426,4100.128418,4209.358887,4243.205078,4231.666504,4290.769043,4263.717773,4194.102539,4456.282227,4429.230957,4347.563965,4358.846191,6103,2,51,,,,0,4,4,4,4,4,4,4,4,4,4,4,4,4,4,100,,,,,,,,,,,,,,,,,,,,,,,,,,,,,,,,,,,,,,,,,,,,,,,,,,,,,,,,,,,,,,,,,,,,,,,,,,,,,,,,,,,,,,,,,,,,,,,,,,,,,,,,,,,,,,,,,,,,,,,,,,,,,,,,,,,,,,
1702363174,1702363174,104,0,4318.205078,4166.410156,4273.589844,4111.153809,4229.871582,4245.769043,4235.897461,4293.205078,4260.384766,4200.512695,4458.461426,4435.641113,4356.794922,4371.538574,6461,2,51,,,,0,4,4,4,4,4,4,4,4,4,4,4,4,4,4,100,,,,,,,,,,,,,,,,,26,0,0.633879,0.312805,-0.62439,0.332397,1.003541,-0.006837,0.019534,-5.854846,1.582767,79.959763,,,,,,,,,,,,,,,,,,,,,,,,,,,,,,,,,,,,,,,,,,,,,,,,,,,,,,,,,,,,,,,,,,,,,,,,,,,,,,,,,,,,,,,,,,,,,,,,,,,,,,,,,,
1702363174,1702363174,105,0,4330.769043,4191.282227,4282.05127,4124.487305,4255.384766,4260,4248.333496,4300.128418,4269.102539,4204.102539,4474.358887,4450.512695,4376.282227,4390.897461,6671,2,51,,,,0,4,4,4,4,4,4,4,4,4,4,4,4,4,4,100,,,,,,,,,,,,,,,,,,,,,,,,,,,,,,,,,,,,,,,,,,,,,,,,,,,,,,,,,,,,,,,,,,,,,,,,,,,,,,,,,,,,,,,,,,,,,,,,,,,,,,,,,,,,,,,,,,,,,,,,,,,,,,,,,,,,,,
1702363174,1702363174,106,0,4338.077148,4223.974121,4283.333496,4127.05127,4238.846191,4262.820313,4251.282227,4300.256348,4272.436035,4201.538574,4478.974121,4451.538574,4385.769043,4399.871582,5961,2,51,,,,0,4,4,4,4,4,4,4,4,4,4,4,4,4,4,100,,,,,,,,,,,,,,,,,,,,,,,,,,,,,,,,,,,,,,,,,,,,,,,,,,,,,,,,,,,,,,,,,,,,,,,,,,,,,,,,,,,,,,,,,,,,,,,,,,,,,,,,,,,,,,,,,,,,,,,,,,,,,,,,,,,,,,
1702363174,1702363174,107,0,4343.589844,4237.820313,4285.128418,4122.820313,4223.974121,4256.538574,4245.384766,4294.743652,4266.922852,4198.846191,4469.358887,4450.512695,4378.589844,4407.563965,6103,2,51,,,,0,4,4,4,4,4,4,4,4,4,4,4,4,4,4,100,,,,,,,,,,,,,,,,,,,,,,,,,,,,,,,,,,,,,,,,,,,,,,,,,,,,,,,,,,,,,,,,,,,,,,,,,,,,,,,,,,,,,,,,,,,,,,,,,,,,,,,,,,,,,,,,,,,,,,,,,,,,,,,,,,,,,,
1702363174,1702363174,108,0,4364.230957,4253.846191,4294.743652,4130.128418,4245.897461,4260,4247.94873,4296.025879,4269.230957,4203.205078,4472.692383,4463.333496,4382.436035,4428.333496,6461,2,51,,,,0,4,4,4,4,4,4,4,4,4,4,4,4,4,4,100,,,,,,,,,,,,,,,,,27,0,0.634037,0.3125,-0.624512,0.332153,0.975705,-0.007813,0.029789,-5.786028,1.691157,80.013786,,,,,,,,,,,,,,,,,,,,,,,,,,,,,,,,,,,,,,,,,,,,,,,,,,,,,,,,,,,,,,,,,,,,,,,,,,,,,,,,,,,,,,,,,,,,,,,,,,,,,,,,,,
1702363174,1702363174,109,0,4397.179688,4285.641113,4302.436035,4145.769043,4251.538574,4261.922852,4254.487305,4304.102539,4276.282227,4213.333496,4498.589844,4476.153809,4426.282227,4465.512695,6671,2,51,,,,0,4,4,4,4,4,4,4,4,4,4,4,4,4,4,100,,,,,,,,,,,,,,,,,,,,,,,,,,,,,,,,,,,,,,,,,,,,,,,,,,,,,,,,,,,,,,,,,,,,,,,,,,,,,,,,,,,,,,,,,,,,,,,,,,,,,,,,,,,,,,,,,,,,,,,,,,,,,,,,,,,,,,
1702363174,1702363174,110,0,4436.410156,4313.077148,4310,4154.615234,4245.384766,4261.282227,4260.384766,4311.153809,4278.717773,4230.384766,4532.820313,4491.538574,4489.615234,4512.94873,5961,2,51,,,,0,4,4,4,4,4,4,4,4,4,4,4,4,4,4,100,1,16.666666,1,1,1,0,1,1,1,3,3,1,1,1,1,1,,,,,,,,,,,,,,,,,,,,,,,,,,,,,,,,,,,,,,,,,,,,,,,,,17.549452,2.028095,2.268513,3.124193,4.805751,41.373146,13.402267,2.753198,1.296592,1.53261,8.607937,2.374991,0.412757,0.681703,0.928833,11.487035,3.176705,0.708154,0.774669,1.183397,8.658421,1.339858,0.419522,2.15571,2.783118,5.686311,0.792016,0.348109,0.70349,0.803691,5.96783,1.779258,0.59473,0.64272,0.90175,3.49538,0.758065,0.294618,0.472889,0.492577,5.166208,1.11379,0.418477,0.749042,0.732272,8.648423,2.364531,0.583502,1.051473,1.224162,12.474363,3.235389,1.06917,1.360321,1.092486,13.016418,5.508935,1.112414,1.505334,1.963622,8.754754,3.584871,0.891328,1.264807,1.692402,12.162792,1.702901,2.599564,3.102788,2.310203
1702363174,1702363174,111,0,4472.692383,4326.410156,4326.153809,4157.307617,4261.025879,4270,4263.461426,4312.436035,4284.102539,4236.794922,4555.128418,4511.538574,4527.05127,4558.717773,6103,2,51,,,,0,4,4,4,4,4,4,4,4,4,4,4,4,4,4,100,,,,,,,,,,,,,,,,,,,,,,,,,,,,,,,,,,,,,,,,,,,,,,,,,,,,,,,,,,,,,,,,,,,,,,,,,,,,,,,,,,,,,,,,,,,,,,,,,,,,,,,,,,,,,,,,,,,,,,,,,,,,,,,,,,,,,,
1702363174,1702363174,112,0,4483.589844,4328.717773,4331.153809,4151.410156,4263.589844,4263.974121,4257.820313,4306.410156,4280.897461,4221.410156,4559.102539,4515.641113,4536.794922,4583.333496,6461,2,51,,,,0,4,4,4,4,4,4,4,4,4,4,4,4,4,4,100,,,,,,,,,,,,,,,,,28,0,0.634129,0.312134,-0.624634,0.332092,0.998657,-0.023929,0.032719,-5.807425,1.505375,79.895744,,,,,,,,,,,,,,,,,,,,,,,,,,,,,,,,,,,,,,,,,,,,,,,,,,,,,,,,,,,,,,,,,,,,,,,,,,,,,,,,,,,,,,,,,,,,,,,,,,,,,,,,,,
1702363174,1702363174,113,0,4481.025879,4331.153809,4326.922852,4146.666504,4248.077148,4250,4258.974121,4301.922852,4268.717773,4213.461426,4557.94873,4512.05127,4547.563965,4587.307617,6671,2,51,,,,0,4,4,4,4,4,4,4,4,4,4,4,4,4,4,100,,,,,,,,,,,,,,,,,,,,,,,,,,,,,,,,,,,,,,,,,,,,,,,,,,,,,,,,,,,,,,,,,,,,,,,,,,,,,,,,,,,,,,,,,,,,,,,,,,,,,,,,,,,,,,,,,,,,,,,,,,,,,,,,,,,,,,
1702363174,1702363174,114,0,4469.230957,4333.974121,4327.307617,4145.897461,4244.615234,4255,4265.512695,4300.128418,4268.589844,4223.205078,4553.333496,4512.436035,4548.205078,4567.05127,5961,2,51,,,,0,4,4,4,4,4,4,4,4,4,4,4,4,4,4,100,,,,,,,,,,,,,,,,,,,,,,,,,,,,,,,,,,,,,,,,,,,,,,,,,,,,,,,,,,,,,,,,,,,,,,,,,,,,,,,,,,,,,,,,,,,,,,,,,,,,,,,,,,,,,,,,,,,,,,,,,,,,,,,,,,,,,,
1702363174,1702363174,115,0,4436.538574,4323.974121,4316.153809,4132.820313,4245.897461,4260,4257.692383,4295.897461,4269.743652,4215.256348,4532.820313,4496.666504,4524.230957,4534.487305,6103,2,51,,,,0,4,4,4,4,4,4,4,4,4,4,4,4,4,4,100,,,,,,,,,,,,,,,,,,,,,,,,,,,,,,,,,,,,,,,,,,,,,,,,,,,,,,,,,,,,,,,,,,,,,,,,,,,,,,,,,,,,,,,,,,,,,,,,,,,,,,,,,,,,,,,,,,,,,,,,,,,,,,,,,,,,,,
1702363174,1702363174,116,0,4406.153809,4307.307617,4299.743652,4116.538574,4234.230957,4247.820313,4248.333496,4293.333496,4261.538574,4200.641113,4514.615234,4479.615234,4497.94873,4523.717773,6461,2,51,,,,0,4,4,4,4,4,4,4,4,4,4,4,4,4,4,100,,,,,,,,,,,,,,,,,29,0,0.633975,0.311584,-0.625,0.332214,0.982542,-0.015139,0.037602,-5.976683,1.588171,80.056168,,,,,,,,,,,,,,,,,,,,,,,,,,,,,,,,,,,,,,,,,,,,,,,,,,,,,,,,,,,,,,,,,,,,,,,,,,,,,,,,,,,,,,,,,,,,,,,,,,,,,,,,,,
1702363174,1702363174,117,0,4381.666504,4290,4289.743652,4108.205078,4214.743652,4234.487305,4245.641113,4288.205078,4253.846191,4197.94873,4507.179688,4474.102539,4478.846191,4512.307617,6671,2,51,,,,0,4,4,4,4,4,4,4,4,4,4,4,4,4,4,100,,,,,,,,,,,,,,,,,,,,,,,,,,,,,,,,,,,,,,,,,,,,,,,,,,,,,,,,,,,,,,,,,,,,,,,,,,,,,,,,,,,,,,,,,,,,,,,,,,,,,,,,,,,,,,,,,,,,,,,,,,,,,,,,,,,,,,
1702363174,1702363174,118,0,4350.512695,4268.461426,4282.94873,4097.436035,4213.589844,4233.974121,4237.563965,4279.230957,4247.307617,4187.563965,4491.410156,4459.615234,4458.974121,4472.820313,5961,2,51,,,,0,4,4,4,4,4,4,4,4,4,4,4,4,4,4,100,,,,,,,,,,,,,,,,,,,,,,,,,,,,,,,,,,,,,,,,,,,,,,,,,,,,,,,,,,,,,,,,,,,,,,,,,,,,,,,,,,,,,,,,,,,,,,,,,,,,,,,,,,,,,,,,,,,,,,,,,,,,,,,,,,,,,,
1702363174,1702363174,119,0,4315.384766,4234.871582,4274.487305,4080.897461,4223.205078,4234.102539,4228.846191,4274.743652,4241.794922,4178.461426,4468.333496,4441.794922,4441.666504,4438.717773,6103,2,51,,,,0,4,4,4,4,4,4,4,4,4,4,4,4,4,4,100,,,,,,,,,,,,,,,,,,,,,,,,,,,,,,,,,,,,,,,,,,,,,,,,,,,,,,,,,,,,,,,,,,,,,,,,,,,,,,,,,,,,,,,,,,,,,,,,,,,,,,,,,,,,,,,,,,,,,,,,,,,,,,,,,,,,,,
1702363174,1702363174,120,0,4298.333496,4210.384766,4270.897461,4078.076904,4221.025879,4230.897461,4232.307617,4279.615234,4243.077148,4182.820313,4464.102539,4443.846191,4437.692383,4437.692383,6461,2,51,,,,0,4,4,4,4,4,4,4,4,4,4,4,4,4,4,100,,,,,,,,,,,,,,,,,30,0,0.633603,0.311157,-0.625427,0.33252,0.984984,-0.006348,0.023929,-6.179015,1.579354,80.033882,,,,,,,,,,,,,,,,,,,,,,,,,,,,,,,,,,,,,,,,,,,,,,,,,,,,,,,,,,,,,,,,,,,,,,,,,,,,,,,,,,,,,,,,,,,,,,,,,,,,,,,,,,
1702363174,1702363174,121,0,4290.897461,4202.307617,4266.922852,4078.333252,4216.153809,4231.410156,4237.563965,4281.025879,4243.974121,4180.641113,4463.974121,4445.128418,4430.897461,4428.077148,6671,2,51,,,,0,4,4,4,4,4,4,4,4,4,4,4,4,4,4,100,,,,,,,,,,,,,,,,,,,,,,,,,,,,,,,,,,,,,,,,,,,,,,,,,,,,,,,,,,,,,,,,,,,,,,,,,,,,,,,,,,,,,,,,,,,,,,,,,,,,,,,,,,,,,,,,,,,,,,,,,,,,,,,,,,,,,,
1702363174,1702363174,122,0,4270.641113,4191.282227,4254.743652,4065.128174,4211.666504,4231.538574,4226.538574,4271.794922,4234.743652,4172.692383,4442.307617,4425.512695,4406.922852,4392.94873,5961,2,51,,,,0,4,4,4,4,4,4,4,4,4,4,4,4,4,4,100,,,,,,,,,,,,,,,,,,,,,,,,,,,,,,,,,,,,,,,,,,,,,,,,,,,,,,,,,,,,,,,,,,,,,,,,,,,,,,,,,,,,,,,,,,,,,,,,,,,,,,,,,,,,,,,,,,,,,,,,,,,,,,,,,,,,,,
1702363174,1702363174,123,0,4262.436035,4191.538574,4256.025879,4062.564209,4210.256348,4226.282227,4218.717773,4270.256348,4232.94873,4176.025879,4435.512695,4425.384766,4399.615234,4386.922852,6103,2,51,,,,0,4,4,4,4,4,4,4,4,4,4,4,4,4,4,100,,,,,,,,,,,,,,,,,,,,,,,,,,,,,,,,,,,,,,,,,,,,,,,,,,,,,,,,,,,,,,,,,,,,,,,,,,,,,,,,,,,,,,,,,,,,,,,,,,,,,,,,,,,,,,,,,,,,,,,,,,,,,,,,,,,,,,
1702363174,1702363174,124,0,4267.820313,4201.538574,4266.282227,4066.281982,4214.743652,4217.820313,4223.205078,4276.153809,4239.358887,4175.641113,4444.358887,4440.769043,4410.769043,4400.512695,6461,2,51,,,,0,4,4,4,4,4,4,4,4,4,4,4,4,4,4,100,,,,,,,,,,,,,,,,,31,0,0.633299,0.310974,-0.625793,0.332581,0.998657,-0.016604,0.031254,-6.344447,1.521418,80.163826,,,,,,,,,,,,,,,,,,,,,,,,,,,,,,,,,,,,,,,,,,,,,,,,,,,,,,,,,,,,,,,,,,,,,,,,,,,,,,,,,,,,,,,,,,,,,,,,,,,,,,,,,,
1702363174,1702363174,125,0,4256.025879,4194.358887,4259.358887,4056.666748,4206.025879,4216.666504,4222.692383,4271.666504,4237.436035,4169.871582,4435.128418,4431.153809,4402.692383,4388.461426,6671,2,51,,,,0,4,4,4,4,4,4,4,4,4,4,4,4,4,4,100,,,,,,,,,,,,,,,,,,,,,,,,,,,,,,,,,,,,,,,,,,,,,,,,,,,,,,,,,,,,,,,,,,,,,,,,,,,,,,,,,,,,,,,,,,,,,,,,,,,,,,,,,,,,,,,,,,,,,,,,,,,,,,,,,,,,,,
1702363174,1702363174,126,0,4232.436035,4174.871582,4243.589844,4043.205078,4187.05127,4218.974121,4213.333496,4261.025879,4228.205078,4168.717773,4422.94873,4411.794922,4379.102539,4368.205078,5961,2,51,,,,0,4,4,4,4,4,4,4,4,4,4,4,4,4,4,100,,,,,,,,,,,,,,,,,,,,,,,,,,,,,,,,,,,,,,,,,,,,,,,,,,,,,,,,,,,,,,,,,20.815077,1.914766,1.779323,2.900168,4.824608,51.714966,13.21816,2.732262,1.372987,1.426548,9.224736,2.052246,0.415856,0.659682,0.797594,13.788145,2.9401,0.633523,0.777521,1.065708,10.220627,1.158235,0.403873,1.897017,2.632918,6.355817,0.726446,0.351132,0.620448,0.731702,6.466776,1.702063,0.607144,0.574399,0.839623,3.555433,0.624459,0.317128,0.44866,0.476863,5.524282,1.039255,0.377823,0.719587,0.697179,9.096081,2.096813,0.539146,1.090316,1.087707,13.269428,2.900156,1.043715,1.26801,1.092429,14.492964,4.541636,1.130079,1.374726,1.769069,10.171484,4.1173,1.087292,1.396746,1.686704,13.790592,1.668059,2.021024,3.041641,2.293461
1702363174,1702363174,127,0,4229.358887,4161.410156,4243.846191,4043.333252,4194.615234,4219.102539,4211.025879,4262.563965,4227.563965,4166.410156,4422.692383,4410.641113,4382.436035,4370.641113,51,2,51,,,,0,4,4,4,4,4,4,4,4,4,4,4,4,4,4,100,,,,,,,,,,,,,,,,,,,,,,,,,,,,,,,,,,,,,,,,,,,,,,,,,,,,,,,,,,,,,,,,,,,,,,,,,,,,,,,,,,,,,,,,,,,,,,,,,,,,,,,,,,,,,,,,,,,,,,,,,,,,,,,,,,,,,,
1702363174,1702363174,0,0,4237.94873,4147.94873,4252.05127,4052.94873,4209.358887,4217.692383,4216.538574,4267.179688,4233.333496,4169.487305,4421.282227,4417.307617,4397.692383,4376.410156,4248,2,51,,,,0,4,4,4,4,4,4,4,4,4,4,4,4,4,4,100,,,,,,,,,,,,,,,,,0,0,0.633084,0.311035,-0.625916,0.332703,0.984984,-0.021487,0.033696,-6.410002,1.635943,80.147446,,,,,,,,,,,,,,,,,,,,,,,,,,,,,,,,,,,,,,,,,,,,,,,,,,,,,,,,,,,,,,,,,,,,,,,,,,,,,,,,,,,,,,,,,,,,,,,,,,,,,,,,,,
1702363174,1702363174,1,0,4230.897461,4134.743652,4249.871582,4049.102539,4202.94873,4217.436035,4216.538574,4264.871582,4232.94873,4170.769043,4414.871582,4416.666504,4385.641113,4365.512695,5445,2,51,,,,0,4,4,4,4,4,4,4,4,4,4,4,4,4,4,100,,,,,,,,,,,,,,,,,,,,,,,,,,,,,,,,,,,,,,,,,,,,,,,,,,,,,,,,,,,,,,,,,,,,,,,,,,,,,,,,,,,,,,,,,,,,,,,,,,,,,,,,,,,,,,,,,,,,,,,,,,,,,,,,,,,,,,
1702363174,1702363174,2,0,4220.384766,4130.512695,4247.436035,4026.410156,4198.461426,4218.333496,4215.384766,4264.615234,4229.487305,4160.897461,4409.358887,4410.897461,4368.974121,4357.820313,5477,2,51,,,,0,4,4,4,4,4,4,4,4,4,4,4,4,4,4,100,,,,,,,,,,,,,,,,,,,,,,,,,,,,,,,,,,,,,,,,,,,,,,,,,,,,,,,,,,,,,,,,,,,,,,,,,,,,,,,,,,,,,,,,,,,,,,,,,,,,,,,,,,,,,,,,,,,,,,,,,,,,,,,,,,,,,,
1702363174,1702363174,3,0,4215.384766,4123.461426,4245.897461,4004.743652,4199.615234,4218.333496,4215.897461,4261.794922,4226.282227,4154.102539,4400.641113,4402.692383,4371.282227,4357.94873,5482,2,51,,,,0,4,4,4,4,4,4,4,4,4,4,4,4,4,4,100,,,,,,,,,,,,,,,,,,,,,,,,,,,,,,,,,,,,,,,,,,,,,,,,,,,,,,,,,,,,,,,,,,,,,,,,,,,,,,,,,,,,,,,,,,,,,,,,,,,,,,,,,,,,,,,,,,,,,,,,,,,,,,,,,,,,,,
1702363174,1702363174,4,0,4204.358887,4111.410156,4235.128418,3996.923096,4200.512695,4216.666504,4209.615234,4253.077148,4216.410156,4148.589844,4389.743652,4390.641113,4370.512695,4346.794922,5377,2,51,,,,0,4,4,4,4,4,4,4,4,4,4,4,4,4,4,100,,,,,,,,,,,,,,,,,1,0,0.632836,0.31073,-0.626221,0.332886,1.00061,-0.022952,0.02051,-6.352335,1.755682,79.999367,,,,,,,,,,,,,,,,,,,,,,,,,,,,,,,,,,,,,,,,,,,,,,,,,,,,,,,,,,,,,,,,,,,,,,,,,,,,,,,,,,,,,,,,,,,,,,,,,,,,,,,,,,
1702363174,1702363174,5,0,4184.615234,4103.077148,4219.102539,3988.333252,4196.410156,4213.205078,4194.358887,4243.589844,4205.128418,4135.384766,4376.153809,4373.717773,4349.102539,4326.410156,4243,2,51,,,,0,4,4,4,4,4,4,4,4,4,4,4,4,4,4,100,,,,,,,,,,,,,,,,,,,,,,,,,,,,,,,,,,,,,,,,,,,,,,,,,,,,,,,,,,,,,,,,,,,,,,,,,,,,,,,,,,,,,,,,,,,,,,,,,,,,,,,,,,,,,,,,,,,,,,,,,,,,,,,,,,,,,,
1702363174,1702363174,6,0,4179.358887,4106.410156,4220.128418,3982.564209,4187.692383,4213.974121,4188.846191,4242.820313,4204.358887,4134.615234,4370.128418,4373.333496,4341.538574,4325.384766,5202,2,51,,,,0,4,4,4,4,4,4,4,4,4,4,4,4,4,4,100,,,,,,,,,,,,,,,,,,,,,,,,,,,,,,,,,,,,,,,,,,,,,,,,,,,,,,,,,,,,,,,,,,,,,,,,,,,,,,,,,,,,,,,,,,,,,,,,,,,,,,,,,,,,,,,,,,,,,,,,,,,,,,,,,,,,,,
1702363174,1702363174,7,0,4192.05127,4121.666504,4238.589844,3989.615479,4191.153809,4217.94873,4203.717773,4254.230957,4215.128418,4151.410156,4384.871582,4393.333496,4365.769043,4343.333496,3927,2,51,,,,0,4,4,4,4,4,4,4,4,4,4,4,4,4,4,100,,,,,,,,,,,,,,,,,,,,,,,,,,,,,,,,,,,,,,,,,,,,,,,,,,,,,,,,,,,,,,,,,,,,,,,,,,,,,,,,,,,,,,,,,,,,,,,,,,,,,,,,,,,,,,,,,,,,,,,,,,,,,,,,,,,,,,
1702363174,1702363174,8,0,4197.179688,4133.077148,4247.05127,4000.256348,4205.128418,4216.922852,4214.230957,4264.358887,4226.794922,4160,4398.333496,4405.769043,4384.487305,4352.820313,4537,2,51,,,,0,4,4,4,4,4,4,4,4,4,4,4,4,4,4,100,,,,,,,,,,,,,,,,,2,0,0.632897,0.310425,-0.626343,0.332825,0.984984,-0.026859,0.018069,-6.383768,1.730114,79.982765,,,,,,,,,,,,,,,,,,,,,,,,,,,,,,,,,,,,,,,,,,,,,,,,,,,,,,,,,,,,,,,,,,,,,,,,,,,,,,,,,,,,,,,,,,,,,,,,,,,,,,,,,,
1702363174,1702363174,9,0,4200.769043,4135.512695,4244.743652,4006.410156,4213.077148,4222.436035,4213.205078,4264.102539,4232.307617,4165.128418,4402.692383,4407.307617,4385.512695,4356.410156,5462,2,51,,,,0,4,4,4,4,4,4,4,4,4,4,4,4,4,4,100,,,,,,,,,,,,,,,,,,,,,,,,,,,,,,,,,,,,,,,,,,,,,,,,,,,,,,,,,,,,,,,,,,,,,,,,,,,,,,,,,,,,,,,,,,,,,,,,,,,,,,,,,,,,,,,,,,,,,,,,,,,,,,,,,,,,,,
1702363174,1702363174,10,0,4214.615234,4146.666504,4247.94873,4007.94873,4225.256348,4236.794922,4215.512695,4266.025879,4238.205078,4181.666504,4410.641113,4414.102539,4391.538574,4367.307617,5993,2,51,,,,0,4,4,4,4,4,4,4,4,4,4,4,4,4,4,100,,,,,,,,,,,,,,,,,,,,,,,,,,,,,,,,,,,,,,,,,,,,,,,,,,,,,,,,,,,,,,,,,,,,,,,,,,,,,,,,,,,,,,,,,,,,,,,,,,,,,,,,,,,,,,,,,,,,,,,,,,,,,,,,,,,,,,
1702363174,1702363174,11,0,4218.589844,4158.333496,4252.94873,4010.256348,4235.512695,4238.846191,4218.333496,4274.743652,4247.436035,4192.179688,4418.077148,4419.615234,4400.256348,4378.974121,6132,2,51,,,,0,4,4,4,4,4,4,4,4,4,4,4,4,4,4,100,,,,,,,,,,,,,,,,,,,,,,,,,,,,,,,,,,,,,,,,,,,,,,,,,,,,,,,,,,,,,,,,,,,,,,,,,,,,,,,,,,,,,,,,,,,,,,,,,,,,,,,,,,,,,,,,,,,,,,,,,,,,,,,,,,,,,,
1702363174,1702363174,12,0,4206.538574,4149.743652,4251.922852,4010.512939,4217.94873,4230.512695,4215.256348,4273.333496,4246.025879,4188.846191,4413.461426,4417.94873,4392.692383,4377.05127,6501,2,51,,,,0,4,4,4,4,4,4,4,4,4,4,4,4,4,4,100,,,,,,,,,,,,,,,,,3,0,0.632875,0.310181,-0.626648,0.33252,0.995239,-0.020022,0.032719,-6.312058,1.607103,80.117821,,,,,,,,,,,,,,,,,,,,,,,,,,,,,,,,,,,,,,,,,,,,,,,,,,,,,,,,,,,,,,,,,,,,,,,,,,,,,,,,,,,,,,,,,,,,,,,,,,,,,,,,,,
1702363174,1702363174,13,0,4197.692383,4134.615234,4248.589844,4001.025635,4203.077148,4228.846191,4213.077148,4264.230957,4235.128418,4183.589844,4405.769043,4415.256348,4382.436035,4366.666504,6715,2,51,,,,0,4,4,4,4,4,4,4,4,4,4,4,4,4,4,100,,,,,,,,,,,,,,,,,,,,,,,,,,,,,,,,,,,,,,,,,,,,,,,,,,,,,,,,,,,,,,,,,,,,,,,,,,,,,,,,,,,,,,,,,,,,,,,,,,,,,,,,,,,,,,,,,,,,,,,,,,,,,,,,,,,,,,
1702363174,1702363174,14,0,4202.436035,4136.538574,4248.974121,4001.410156,4225.897461,4233.461426,4211.666504,4264.615234,4233.205078,4182.94873,4409.743652,4418.846191,4384.615234,4371.153809,5993,2,51,,,,0,4,4,4,4,4,4,4,4,4,4,4,4,4,4,100,,,,,,,,,,,,,,,,,,,,,,,,,,,,,,,,,,,,,,,,,,,,,,,,,,,,,,,,,,,,,,,,,24.675714,1.856992,1.344113,2.549587,4.499021,66.226555,13.089341,2.511346,1.397314,1.279567,9.185589,1.701184,0.412275,0.60931,0.663546,16.138512,2.649895,0.578294,0.747704,0.928736,11.281144,0.988007,0.401681,1.552184,2.361225,6.484312,0.682978,0.342606,0.509853,0.649322,6.596447,1.629667,0.584793,0.510439,0.762963,3.247378,0.482046,0.312299,0.407637,0.446982,5.232011,0.927734,0.336546,0.687897,0.649351,8.540385,1.792081,0.486548,1.12138,0.937862,12.630829,2.528453,1.026051,1.138906,1.058174,14.754154,3.515987,1.146476,1.22036,1.537916,12.516939,4.825791,1.416738,1.521858,1.666122,14.8344,1.646635,1.549672,2.851186,2.149158
1702363174,1702363174,15,0,4207.436035,4143.461426,4252.05127,4021.410156,4244.487305,4234.487305,4205.641113,4267.436035,4237.05127,4184.871582,4416.282227,4422.436035,4390.256348,4383.589844,6132,2,51,,,,0,4,4,4,4,4,4,4,4,4,4,4,4,4,4,100,,,,,,,,,,,,,,,,,,,,,,,,,,,,,,,,,,,,,,,,,,,,,,,,,,,,,,,,,,,,,,,,,,,,,,,,,,,,,,,,,,,,,,,,,,,,,,,,,,,,,,,,,,,,,,,,,,,,,,,,,,,,,,,,,,,,,,
1702363174,1702363174,16,0,4202.94873,4132.692383,4251.153809,4027.820557,4219.743652,4225.897461,4197.436035,4260.769043,4232.307617,4183.846191,4408.589844,4412.94873,4387.307617,4376.282227,0,2,51,,,,0,4,4,4,4,4,4,4,4,4,4,4,4,4,4,100,,,,,,,,,,,,,,,,,4,0,0.632845,0.309814,-0.626892,0.332458,0.99182,-0.031254,0.024417,-6.330852,1.546392,80.156036,,,,,,,,,,,,,,,,,,,,,,,,,,,,,,,,,,,,,,,,,,,,,,,,,,,,,,,,,,,,,,,,,,,,,,,,,,,,,,,,,,,,,,,,,,,,,,,,,,,,,,,,,,
1702363174,1702363174,17,0,4195.128418,4118.846191,4245,4018.333252,4201.538574,4215.769043,4199.358887,4255,4226.794922,4181.410156,4399.230957,4401.794922,4377.94873,4363.717773,0,2,51,,,,0,4,4,4,4,4,4,4,4,4,4,4,4,4,4,100,,,,,,,,,,,,,,,,,,,,,,,,,,,,,,,,,,,,,,,,,,,,,,,,,,,,,,,,,,,,,,,,,,,,,,,,,,,,,,,,,,,,,,,,,,,,,,,,,,,,,,,,,,,,,,,,,,,,,,,,,,,,,,,,,,,,,,
1702363174,1702363174,18,0,4199.615234,4119.230957,4247.563965,4027.179443,4217.436035,4218.846191,4213.077148,4263.205078,4231.922852,4182.179688,4408.846191,4410.769043,4382.179688,4374.871582,0,2,51,,,,0,4,4,4,4,4,4,4,4,4,4,4,4,4,4,100,,,,,,,,,,,,,,,,,,,,,,,,,,,,,,,,,,,,,,,,,,,,,,,,,,,,,,,,,,,,,,,,,,,,,,,,,,,,,,,,,,,,,,,,,,,,,,,,,,,,,,,,,,,,,,,,,,,,,,,,,,,,,,,,,,,,,,
1702363174,1702363174,19,0,4206.410156,4125.769043,4256.538574,4042.692383,4225,4225.128418,4217.05127,4268.717773,4238.974121,4186.025879,4421.410156,4422.94873,4394.358887,4392.307617,0,2,51,,,,0,4,4,4,4,4,4,4,4,4,4,4,4,4,4,100,,,,,,,,,,,,,,,,,,,,,,,,,,,,,,,,,,,,,,,,,,,,,,,,,,,,,,,,,,,,,,,,,,,,,,,,,,,,,,,,,,,,,,,,,,,,,,,,,,,,,,,,,,,,,,,,,,,,,,,,,,,,,,,,,,,,,,
1702363174,1702363174,20,0,4201.794922,4130,4256.410156,4043.076904,4216.538574,4227.307617,4213.205078,4264.230957,4239.230957,4184.615234,4418.077148,4419.230957,4394.615234,4393.333496,0,2,51,,,,0,4,4,4,4,4,4,4,4,4,4,4,4,4,4,100,,,,,,,,,,,,,,,,,5,0,0.632687,0.309265,-0.627258,0.332581,0.988402,-0.031742,0.035649,-6.3311,1.50842,80.090439,,,,,,,,,,,,,,,,,,,,,,,,,,,,,,,,,,,,,,,,,,,,,,,,,,,,,,,,,,,,,,,,,,,,,,,,,,,,,,,,,,,,,,,,,,,,,,,,,,,,,,,,,,
1702363174,1702363174,21,0,4203.461426,4145.384766,4257.692383,4044.487061,4227.307617,4235.256348,4222.436035,4266.153809,4240.384766,4186.666504,4417.307617,4418.589844,4390.256348,4396.410156,0,2,51,,,,0,4,4,4,4,4,4,4,4,4,4,4,4,4,4,100,,,,,,,,,,,,,,,,,,,,,,,,,,,,,,,,,,,,,,,,,,,,,,,,,,,,,,,,,,,,,,,,,,,,,,,,,,,,,,,,,,,,,,,,,,,,,,,,,,,,,,,,,,,,,,,,,,,,,,,,,,,,,,,,,,,,,,
1702363174,1702363174,22,0,4214.743652,4168.589844,4265.256348,4049.358887,4248.333496,4240.897461,4230.897461,4272.179688,4247.820313,4196.538574,4425,4428.077148,4393.846191,4408.717773,0,2,51,,,,0,4,4,4,4,4,4,4,4,4,4,4,4,4,4,100,,,,,,,,,,,,,,,,,,,,,,,,,,,,,,,,,,,,,,,,,,,,,,,,,,,,,,,,,,,,,,,,,,,,,,,,,,,,,,,,,,,,,,,,,,,,,,,,,,,,,,,,,,,,,,,,,,,,,,,,,,,,,,,,,,,,,,
1702363174,1702363174,23,0,4201.538574,4166.922852,4254.487305,4026.666748,4229.487305,4226.410156,4214.487305,4262.563965,4244.487305,4191.025879,4413.717773,4415.769043,4387.307617,4398.974121,0,2,51,,,,0,4,4,4,4,4,4,4,4,4,4,4,4,4,4,100,,,,,,,,,,,,,,,,,,,,,,,,,,,,,,,,,,,,,,,,,,,,,,,,,,,,,,,,,,,,,,,,,,,,,,,,,,,,,,,,,,,,,,,,,,,,,,,,,,,,,,,,,,,,,,,,,,,,,,,,,,,,,,,,,,,,,,
1702363174,1702363174,24,0,4182.94873,4156.922852,4240.256348,4004.871826,4203.974121,4215.641113,4204.615234,4258.205078,4235.769043,4179.743652,4400.384766,4401.666504,4369.743652,4380.641113,0,2,51,,,,0,4,4,4,4,4,4,4,4,4,4,4,4,4,4,100,,,,,,,,,,,,,,,,,6,0,0.63268,0.308594,-0.627563,0.332642,0.98596,-0.030277,0.025394,-6.414657,1.590911,80.148056,,,,,,,,,,,,,,,,,,,,,,,,,,,,,,,,,,,,,,,,,,,,,,,,,,,,,,,,,,,,,,,,,,,,,,,,,,,,,,,,,,,,,,,,,,,,,,,,,,,,,,,,,,
1702363174,1702363174,25,0,4213.333496,4186.025879,4266.025879,4038.461426,4235.256348,4242.94873,4238.589844,4283.077148,4256.282227,4205,4435.769043,4439.871582,4391.025879,4410.512695,0,2,51,,,,0,4,4,4,4,4,4,4,4,4,4,4,4,4,4,100,,,,,,,,,,,,,,,,,,,,,,,,,,,,,,,,,,,,,,,,,,,,,,,,,,,,,,,,,,,,,,,,,,,,,,,,,,,,,,,,,,,,,,,,,,,,,,,,,,,,,,,,,,,,,,,,,,,,,,,,,,,,,,,,,,,,,,
1702363174,1702363174,26,0,4257.179688,4235.897461,4305.769043,4084.871826,4288.461426,4283.205078,4282.307617,4311.025879,4291.794922,4247.94873,4487.820313,4496.794922,4444.230957,4465.897461,0,2,51,,,,0,4,4,4,4,4,4,4,4,4,4,4,4,4,4,100,,,,,,,,,,,,,,,,,,,,,,,,,,,,,,,,,,,,,,,,,,,,,,,,,,,,,,,,,,,,,,,,,,,,,,,,,,,,,,,,,,,,,,,,,,,,,,,,,,,,,,,,,,,,,,,,,,,,,,,,,,,,,,,,,,,,,,
1702363174,1702363174,27,0,4277.179688,4270.641113,4324.871582,4099.871582,4312.436035,4303.846191,4307.692383,4326.794922,4314.615234,4276.410156,4515.384766,4523.589844,4482.94873,4497.307617,0,2,51,,,,0,4,4,4,4,4,4,4,4,4,4,4,4,4,4,100,,,,,,,,,,,,,,,,,,,,,,,,,,,,,,,,,,,,,,,,,,,,,,,,,,,,,,,,,,,,,,,,,,,,,,,,,,,,,,,,,,,,,,,,,,,,,,,,,,,,,,,,,,,,,,,,,,,,,,,,,,,,,,,,,,,,,,
1702363174,1702363174,28,0,4309.615234,4309.102539,4348.461426,4124.615234,4337.94873,4321.666504,4339.358887,4348.461426,4338.461426,4308.205078,4550.512695,4554.102539,4513.077148,4529.615234,0,2,51,,,,0,4,4,4,4,4,4,4,4,4,4,4,4,4,4,100,,,,,,,,,,,,,,,,,7,0,0.632677,0.307861,-0.627991,0.33252,1.017702,-0.038579,0.026859,-6.423191,1.73182,80.133255,,,,,,,,,,,,,,,,,,,,,,,,,,,,,,,,,,,,,,,,,,,,,,,,,,,,,,,,,,,,,,,,,,,,,,,,,,,,,,,,,,,,,,,,,,,,,,,,,,,,,,,,,,
1702363174,1702363174,29,0,4346.025879,4349.230957,4376.794922,4160.384766,4381.410156,4344.487305,4372.307617,4366.538574,4362.05127,4343.846191,4583.846191,4592.820313,4542.94873,4565.512695,0,2,51,,,,0,4,4,4,4,4,4,4,4,4,4,4,4,4,4,100,,,,,,,,,,,,,,,,,,,,,,,,,,,,,,,,,,,,,,,,,,,,,,,,,,,,,,,,,,,,,,,,,,,,,,,,,,,,,,,,,,,,,,,,,,,,,,,,,,,,,,,,,,,,,,,,,,,,,,,,,,,,,,,,,,,,,,
1702363174,1702363174,30,0,4346.282227,4351.922852,4378.461426,4163.205078,4388.846191,4348.717773,4375.641113,4361.922852,4363.333496,4346.282227,4578.077148,4595.256348,4546.794922,4567.179688,0,2,51,,,,0,4,4,4,4,4,4,4,4,4,4,4,4,4,4,100,,,,,,,,,,,,,,,,,,,,,,,,,,,,,,,,,,,,,,,,,,,,,,,,,,,,,,,,,,,,,,,,,30.142504,2.308121,1.117731,2.141091,3.902298,82.683556,12.681737,2.145831,1.366294,1.101914,8.805859,1.466188,0.416441,0.548208,0.543671,17.587353,2.370019,0.566869,0.69836,0.784689,11.54564,0.873908,0.433138,1.226155,2.023637,6.144667,0.681748,0.326132,0.405404,0.566746,6.534832,1.576233,0.545192,0.469889,0.677524,2.813333,0.375159,0.287347,0.362846,0.403984,4.626439,0.825738,0.310614,0.654464,0.586609,7.451582,1.569657,0.46141,1.125925,0.794937,12.0974,2.36788,1.065125,1.016301,0.982826,14.592813,2.768792,1.193196,1.083415,1.296836,17.46874,5.905889,1.903209,1.622812,1.620999,18.042812,1.977203,1.323519,2.599732,1.878325
1702363174,1702363174,31,0,4333.461426,4335.769043,4367.436035,4158.333496,4366.666504,4336.410156,4364.743652,4353.717773,4353.717773,4326.794922,4568.589844,4580.897461,4530.128418,4557.05127,0,2,51,,,,0,4,4,4,4,4,4,4,4,4,4,4,4,4,4,100,,,,,,,,,,,,,,,,,,,,,,,,,,,,,,,,,,,,,,,,,,,,,,,,,,,,,,,,,,,,,,,,,,,,,,,,,,,,,,,,,,,,,,,,,,,,,,,,,,,,,,,,,,,,,,,,,,,,,,,,,,,,,,,,,,,,,,
1702363174,1702363174,32,0,4348.717773,4344.743652,4378.589844,4181.025879,4378.461426,4344.871582,4377.563965,4365,4365.256348,4340.128418,4591.282227,4600,4541.153809,4575.128418,0,2,51,,,,0,4,4,4,4,4,4,4,4,4,4,4,4,4,4,100,,,,,,,,,,,,,,,,,8,0,0.632617,0.307434,-0.628357,0.332336,0.98303,-0.02637,0.037114,-6.347539,1.691971,80.203262,,,,,,,,,,,,,,,,,,,,,,,,,,,,,,,,,,,,,,,,,,,,,,,,,,,,,,,,,,,,,,,,,,,,,,,,,,,,,,,,,,,,,,,,,,,,,,,,,,,,,,,,,,
1702363174,1702363174,33,0,4364.743652,4351.666504,4392.820313,4198.974121,4404.487305,4362.94873,4395.128418,4375.641113,4379.230957,4368.717773,4607.692383,4623.846191,4564.230957,4592.563965,0,2,51,,,,0,4,4,4,4,4,4,4,4,4,4,4,4,4,4,100,,,,,,,,,,,,,,,,,,,,,,,,,,,,,,,,,,,,,,,,,,,,,,,,,,,,,,,,,,,,,,,,,,,,,,,,,,,,,,,,,,,,,,,,,,,,,,,,,,,,,,,,,,,,,,,,,,,,,,,,,,,,,,,,,,,,,,
1702363174,1702363174,34,0,4362.05127,4330,4391.410156,4199.871582,4397.563965,4360.256348,4394.743652,4372.563965,4374.615234,4367.05127,4598.205078,4618.205078,4561.794922,4586.282227,0,2,51,,,,0,4,4,4,4,4,4,4,4,4,4,4,4,4,4,100,,,,,,,,,,,,,,,,,,,,,,,,,,,,,,,,,,,,,,,,,,,,,,,,,,,,,,,,,,,,,,,,,,,,,,,,,,,,,,,,,,,,,,,,,,,,,,,,,,,,,,,,,,,,,,,,,,,,,,,,,,,,,,,,,,,,,,
1702363174,1702363174,35,0,4360.384766,4313.333496,4391.922852,4200.897461,4387.05127,4355.128418,4392.436035,4371.410156,4369.615234,4354.743652,4593.974121,4611.538574,4550.384766,4582.307617,0,2,51,,,,0,4,4,4,4,4,4,4,4,4,4,4,4,4,4,100,,,,,,,,,,,,,,,,,,,,,,,,,,,,,,,,,,,,,,,,,,,,,,,,,,,,,,,,,,,,,,,,,,,,,,,,,,,,,,,,,,,,,,,,,,,,,,,,,,,,,,,,,,,,,,,,,,,,,,,,,,,,,,,,,,,,,,
1702363174,1702363174,36,0,4362.692383,4317.94873,4395.384766,4191.538574,4395.641113,4363.077148,4397.820313,4375.384766,4374.743652,4356.410156,4600.641113,4618.717773,4552.307617,4587.307617,0,2,51,,,,0,4,4,4,4,4,4,4,4,4,4,4,4,4,4,100,,,,,,,,,,,,,,,,,9,0,0.632355,0.306885,-0.629211,0.331726,0.998657,-0.017092,0.040044,-6.346118,1.522774,80.166267,,,,,,,,,,,,,,,,,,,,,,,,,,,,,,,,,,,,,,,,,,,,,,,,,,,,,,,,,,,,,,,,,,,,,,,,,,,,,,,,,,,,,,,,,,,,,,,,,,,,,,,,,,
1702363174,1702363174,37,0,4358.077148,4322.05127,4391.922852,4163.077148,4398.974121,4364.871582,4398.974121,4373.589844,4374.871582,4359.358887,4598.974121,4616.666504,4554.871582,4586.025879,0,2,51,,,,0,4,4,4,4,4,4,4,4,4,4,4,4,4,4,100,,,,,,,,,,,,,,,,,,,,,,,,,,,,,,,,,,,,,,,,,,,,,,,,,,,,,,,,,,,,,,,,,,,,,,,,,,,,,,,,,,,,,,,,,,,,,,,,,,,,,,,,,,,,,,,,,,,,,,,,,,,,,,,,,,,,,,
1702363174,1702363174,38,0,4349.102539,4322.563965,4385,4133.077148,4390.128418,4355,4387.820313,4367.820313,4366.794922,4352.820313,4591.025879,4604.230957,4547.692383,4580.256348,0,2,51,,,,0,4,4,4,4,4,4,4,4,4,4,4,4,4,4,100,,,,,,,,,,,,,,,,,,,,,,,,,,,,,,,,,,,,,,,,,,,,,,,,,,,,,,,,,,,,,,,,,,,,,,,,,,,,,,,,,,,,,,,,,,,,,,,,,,,,,,,,,,,,,,,,,,,,,,,,,,,,,,,,,,,,,,
1702363174,1702363174,39,0,4358.205078,4339.615234,4390.897461,4132.94873,4383.846191,4360.384766,4390.512695,4372.05127,4375.512695,4360.256348,4605.384766,4615.641113,4559.358887,4591.282227,0,2,51,,,,0,4,4,4,4,4,4,4,4,4,4,4,4,4,4,100,,,,,,,,,,,,,,,,,,,,,,,,,,,,,,,,,,,,,,,,,,,,,,,,,,,,,,,,,,,,,,,,,,,,,,,,,,,,,,,,,,,,,,,,,,,,,,,,,,,,,,,,,,,,,,,,,,,,,,,,,,,,,,,,,,,,,,
1702363174,1702363174,40,0,4379.358887,4370.641113,4408.205078,4156.410156,4397.692383,4378.589844,4416.153809,4387.820313,4396.794922,4386.025879,4632.563965,4642.94873,4586.922852,4613.846191,0,2,51,,,,0,4,4,4,4,4,4,4,4,4,4,4,4,4,4,100,,,,,,,,,,,,,,,,,10,0,0.632428,0.306458,-0.6297,0.331055,0.990844,-0.020999,0.023929,-6.461506,1.520497,80.249641,,,,,,,,,,,,,,,,,,,,,,,,,,,,,,,,,,,,,,,,,,,,,,,,,,,,,,,,,,,,,,,,,,,,,,,,,,,,,,,,,,,,,,,,,,,,,,,,,,,,,,,,,,
1702363174,1702363174,41,0,4383.461426,4384.615234,4414.358887,4168.205078,4420.384766,4385.512695,4427.563965,4394.487305,4400.769043,4397.307617,4637.563965,4646.922852,4587.05127,4620.512695,0,2,51,,,,0,4,4,4,4,4,4,4,4,4,4,4,4,4,4,100,,,,,,,,,,,,,,,,,,,,,,,,,,,,,,,,,,,,,,,,,,,,,,,,,,,,,,,,,,,,,,,,,,,,,,,,,,,,,,,,,,,,,,,,,,,,,,,,,,,,,,,,,,,,,,,,,,,,,,,,,,,,,,,,,,,,,,
1702363174,1702363174,42,0,4372.307617,4377.820313,4408.717773,4166.666504,4422.820313,4380.897461,4417.820313,4386.538574,4392.692383,4385.256348,4628.974121,4635.128418,4568.846191,4611.794922,0,2,51,,,,0,4,4,4,4,4,4,4,4,4,4,4,4,4,4,100,,,,,,,,,,,,,,,,,,,,,,,,,,,,,,,,,,,,,,,,,,,,,,,,,,,,,,,,,,,,,,,,,,,,,,,,,,,,,,,,,,,,,,,,,,,,,,,,,,,,,,,,,,,,,,,,,,,,,,,,,,,,,,,,,,,,,,
1702363174,1702363174,43,0,4369.743652,4377.05127,4404.487305,4168.333496,4410.384766,4375.384766,4409.230957,4380.384766,4387.692383,4372.307617,4625,4631.922852,4569.871582,4606.282227,0,2,51,,,,0,4,4,4,4,4,4,4,4,4,4,4,4,4,4,100,,,,,,,,,,,,,,,,,,,,,,,,,,,,,,,,,,,,,,,,,,,,,,,,,,,,,,,,,,,,,,,,,,,,,,,,,,,,,,,,,,,,,,,,,,,,,,,,,,,,,,,,,,,,,,,,,,,,,,,,,,,,,,,,,,,,,,
1702363174,1702363174,44,0,4365,4370.384766,4397.05127,4166.153809,4391.794922,4370.512695,4404.615234,4376.666504,4379.230957,4360,4612.94873,4627.820313,4561.410156,4597.436035,0,2,51,,,,0,4,4,4,4,4,4,4,4,4,4,4,4,4,4,100,,,,,,,,,,,,,,,,,11,0,0.632366,0.30603,-0.630066,0.330872,0.984984,-0.028324,0.02051,-6.465356,1.385114,80.224678,,,,,,,,,,,,,,,,,,,,,,,,,,,,,,,,,,,,,,,,,,,,,,,,,,,,,,,,,,,,,,,,,,,,,,,,,,,,,,,,,,,,,,,,,,,,,,,,,,,,,,,,,,
1702363174,1702363174,45,0,4356.794922,4366.153809,4399.102539,4173.461426,4389.871582,4377.692383,4409.230957,4380.641113,4381.282227,4359.487305,4608.333496,4629.871582,4548.974121,4598.461426,0,2,51,,,,0,4,4,4,4,4,4,4,4,4,4,4,4,4,4,100,,,,,,,,,,,,,,,,,,,,,,,,,,,,,,,,,,,,,,,,,,,,,,,,,,,,,,,,,,,,,,,,,,,,,,,,,,,,,,,,,,,,,,,,,,,,,,,,,,,,,,,,,,,,,,,,,,,,,,,,,,,,,,,,,,,,,,
1702363174,1702363174,46,0,4366.794922,4382.692383,4415,4197.94873,4415,4389.615234,4418.333496,4391.794922,4398.077148,4383.205078,4632.563965,4645.256348,4575.128418,4617.05127,0,2,51,,,,0,4,4,4,4,4,4,4,4,4,4,4,4,4,4,100,1,16.666666,1,1,1,0,1,1,1,1,3,1,1,1,1,1,,,,,,,,,,,,,,,,,,,,,,,,,,,,,,,,,,,,,,,,,,,,,,,,,37.646961,3.786371,1.206453,1.745228,3.152197,98.497665,12.049067,1.718477,1.286163,0.913775,8.524081,1.455314,0.455635,0.495444,0.444412,18.38718,2.166489,0.638327,0.647457,0.647801,11.182483,0.84143,0.51858,0.998594,1.685225,5.63482,0.725017,0.315843,0.330657,0.490215,6.484372,1.524751,0.531586,0.456211,0.58912,2.419524,0.341722,0.273737,0.325067,0.353952,4.006414,0.798928,0.334892,0.615193,0.513392,6.509995,1.540754,0.521776,1.093818,0.671548,12.952498,2.67368,1.231546,0.932825,0.8746,14.726453,2.540722,1.30511,0.983886,1.065725,26.554918,7.57595,2.549783,1.681128,1.541036,25.876581,3.114221,1.410587,2.343769,1.534457
1702363174,1702363174,47,0,4366.025879,4376.922852,4406.025879,4195.512695,4411.153809,4376.410156,4401.794922,4385.897461,4394.615234,4387.94873,4644.871582,4638.205078,4600,4612.307617,0,2,51,,,,0,4,4,4,4,4,4,4,4,4,4,4,4,4,4,100,,,,,,,,,,,,,,,,,,,,,,,,,,,,,,,,,,,,,,,,,,,,,,,,,,,,,,,,,,,,,,,,,,,,,,,,,,,,,,,,,,,,,,,,,,,,,,,,,,,,,,,,,,,,,,,,,,,,,,,,,,,,,,,,,,,,,,
1702363174,1702363174,48,0,4354.743652,4353.974121,4392.179688,4186.153809,4391.282227,4367.179688,4386.538574,4377.179688,4390.769043,4380.384766,4644.871582,4629.230957,4612.820313,4606.282227,0,2,51,,,,0,4,4,4,4,4,4,4,4,4,4,4,4,4,4,100,,,,,,,,,,,,,,,,,12,0,0.63199,0.305176,-0.63092,0.33075,0.993774,-0.024905,0.027347,-6.46882,1.346602,80.285545,,,,,,,,,,,,,,,,,,,,,,,,,,,,,,,,,,,,,,,,,,,,,,,,,,,,,,,,,,,,,,,,,,,,,,,,,,,,,,,,,,,,,,,,,,,,,,,,,,,,,,,,,,
1702363174,1702363174,49,0,4363.846191,4347.692383,4408.077148,4208.974121,4411.410156,4380.897461,4400.641113,4389.230957,4410,4396.922852,4661.153809,4646.410156,4648.846191,4629.358887,0,2,51,,,,0,4,4,4,4,4,4,4,4,4,4,4,4,4,4,100,,,,,,,,,,,,,,,,,,,,,,,,,,,,,,,,,,,,,,,,,,,,,,,,,,,,,,,,,,,,,,,,,,,,,,,,,,,,,,,,,,,,,,,,,,,,,,,,,,,,,,,,,,,,,,,,,,,,,,,,,,,,,,,,,,,,,,
1702363174,1702363174,50,0,4350.384766,4307.436035,4401.666504,4205.384766,4402.692383,4371.025879,4385.897461,4385.128418,4399.615234,4391.794922,4655.897461,4632.692383,4659.487305,4622.436035,0,2,51,,,,0,4,4,4,4,4,4,4,4,4,4,4,4,4,4,100,,,,,,,,,,,,,,,,,,,,,,,,,,,,,,,,,,,,,,,,,,,,,,,,,,,,,,,,,,,,,,,,,,,,,,,,,,,,,,,,,,,,,,,,,,,,,,,,,,,,,,,,,,,,,,,,,,,,,,,,,,,,,,,,,,,,,,
1702363174,1702363174,51,0,4313.589844,4243.205078,4372.563965,4175.256348,4351.282227,4350.128418,4350.897461,4367.94873,4374.743652,4364.871582,4636.025879,4601.922852,4639.743652,4590.512695,0,2,51,,,,0,4,4,4,4,4,4,4,4,4,4,4,4,4,4,100,,,,,,,,,,,,,,,,,,,,,,,,,,,,,,,,,,,,,,,,,,,,,,,,,,,,,,,,,,,,,,,,,,,,,,,,,,,,,,,,,,,,,,,,,,,,,,,,,,,,,,,,,,,,,,,,,,,,,,,,,,,,,,,,,,,,,,
1702363174,1702363174,52,0,4315,4227.820313,4376.794922,4187.307617,4348.077148,4357.436035,4357.820313,4376.282227,4387.05127,4375.128418,4649.358887,4611.410156,4665.641113,4598.846191,0,2,51,,,,0,4,4,4,4,4,4,4,4,4,4,4,4,4,4,100,,,,,,,,,,,,,,,,,13,0,0.631716,0.304382,-0.631897,0.330139,0.993285,-0.029789,0.01758,-6.338605,1.428609,80.223656,,,,,,,,,,,,,,,,,,,,,,,,,,,,,,,,,,,,,,,,,,,,,,,,,,,,,,,,,,,,,,,,,,,,,,,,,,,,,,,,,,,,,,,,,,,,,,,,,,,,,,,,,,
1702363174,1702363174,53,0,4325,4215.384766,4382.94873,4205.128418,4354.487305,4355.769043,4367.94873,4378.717773,4390.384766,4387.179688,4659.615234,4615.384766,4695.769043,4610.769043,0,2,51,,,,0,4,4,4,4,4,4,4,4,4,4,4,4,4,4,100,,,,,,,,,,,,,,,,,,,,,,,,,,,,,,,,,,,,,,,,,,,,,,,,,,,,,,,,,,,,,,,,,,,,,,,,,,,,,,,,,,,,,,,,,,,,,,,,,,,,,,,,,,,,,,,,,,,,,,,,,,,,,,,,,,,,,,
1702363174,1702363174,54,0,4316.538574,4176.922852,4369.743652,4195.897461,4337.692383,4346.282227,4355.256348,4365.128418,4373.205078,4377.563965,4645.256348,4595.384766,4682.94873,4597.94873,0,2,51,,,,0,4,4,4,4,4,4,4,4,4,4,4,4,4,4,100,,,,,,,,,,,,,,,,,,,,,,,,,,,,,,,,,,,,,,,,,,,,,,,,,,,,,,,,,,,,,,,,,,,,,,,,,,,,,,,,,,,,,,,,,,,,,,,,,,,,,,,,,,,,,,,,,,,,,,,,,,,,,,,,,,,,,,
1702363174,1702363174,55,0,4328.077148,4178.333496,4375.128418,4210.384766,4356.794922,4362.436035,4354.871582,4370.256348,4381.666504,4380.384766,4651.666504,4602.820313,4682.307617,4607.563965,0,2,51,,,,0,4,4,4,4,4,4,4,4,4,4,4,4,4,4,100,,,,,,,,,,,,,,,,,,,,,,,,,,,,,,,,,,,,,,,,,,,,,,,,,,,,,,,,,,,,,,,,,,,,,,,,,,,,,,,,,,,,,,,,,,,,,,,,,,,,,,,,,,,,,,,,,,,,,,,,,,,,,,,,,,,,,,
1702363174,1702363174,56,0,4330.769043,4186.538574,4377.94873,4224.358887,4361.282227,4355.384766,4349.743652,4370.256348,4380.256348,4372.436035,4652.436035,4605.641113,4689.871582,4616.153809,0,2,51,,,,0,4,4,4,4,4,4,4,4,4,4,4,4,4,4,100,,,,,,,,,,,,,,,,,14,0,0.631615,0.303101,-0.632996,0.329407,1.00061,-0.033207,0.003418,-6.304744,1.235748,80.284622,,,,,,,,,,,,,,,,,,,,,,,,,,,,,,,,,,,,,,,,,,,,,,,,,,,,,,,,,,,,,,,,,,,,,,,,,,,,,,,,,,,,,,,,,,,,,,,,,,,,,,,,,,
1702363175,1702363175,57,0,4310.641113,4165.128418,4363.846191,4213.846191,4331.794922,4329.743652,4340.256348,4358.333496,4358.205078,4351.666504,4634.615234,4587.436035,4678.846191,4600.256348,0,2,51,,,,0,4,4,4,4,4,4,4,4,4,4,4,4,4,4,100,,,,,,,,,,,,,,,,,,,,,,,,,,,,,,,,,,,,,,,,,,,,,,,,,,,,,,,,,,,,,,,,,,,,,,,,,,,,,,,,,,,,,,,,,,,,,,,,,,,,,,,,,,,,,,,,,,,,,,,,,,,,,,,,,,,,,,
1702363175,1702363175,58,0,4305.384766,4155.641113,4360.769043,4220.128418,4326.794922,4331.666504,4349.102539,4359.871582,4358.846191,4350.384766,4629.487305,4584.743652,4662.436035,4587.436035,0,2,51,,,,0,4,4,4,4,4,4,4,4,4,4,4,4,4,4,100,,,,,,,,,,,,,,,,,,,,,,,,,,,,,,,,,,,,,,,,,,,,,,,,,,,,,,,,,,,,,,,,,,,,,,,,,,,,,,,,,,,,,,,,,,,,,,,,,,,,,,,,,,,,,,,,,,,,,,,,,,,,,,,,,,,,,,
1702363175,1702363175,59,0,4298.077148,4155,4359.230957,4233.205078,4326.410156,4337.563965,4344.743652,4356.922852,4358.333496,4353.077148,4619.358887,4575.384766,4648.333496,4578.077148,0,2,51,,,,0,4,4,4,4,4,4,4,4,4,4,4,4,4,4,100,,,,,,,,,,,,,,,,,,,,,,,,,,,,,,,,,,,,,,,,,,,,,,,,,,,,,,,,,,,,,,,,,,,,,,,,,,,,,,,,,,,,,,,,,,,,,,,,,,,,,,,,,,,,,,,,,,,,,,,,,,,,,,,,,,,,,,
1702363175,1702363175,60,0,4277.820313,4137.820313,4348.205078,4224.230957,4305.384766,4321.025879,4322.94873,4341.922852,4339.487305,4337.820313,4597.307617,4549.743652,4632.820313,4562.05127,0,2,51,,,,0,4,4,4,4,4,4,4,4,4,4,4,4,4,4,100,,,,,,,,,,,,,,,,,15,0,0.631683,0.301086,-0.634521,0.328186,0.984984,-0.050299,0.01758,-6.32427,1.12884,80.339493,,,,,,,,,,,,,,,,,,,,,,,,,,,,,,,,,,,,,,,,,,,,,,,,,,,,,,,,,,,,,,,,,,,,,,,,,,,,,,,,,,,,,,,,,,,,,,,,,,,,,,,,,,
1702363175,1702363175,61,0,4273.846191,4133.461426,4348.461426,4224.487305,4305.256348,4313.333496,4329.102539,4346.666504,4338.717773,4327.307617,4590.641113,4549.871582,4623.846191,4555.897461,0,2,51,,,,0,4,4,4,4,4,4,4,4,4,4,4,4,4,4,100,,,,,,,,,,,,,,,,,,,,,,,,,,,,,,,,,,,,,,,,,,,,,,,,,,,,,,,,,,,,,,,,,,,,,,,,,,,,,,,,,,,,,,,,,,,,,,,,,,,,,,,,,,,,,,,,,,,,,,,,,,,,,,,,,,,,,,
1702363175,1702363175,62,0,4274.487305,4149.358887,4351.666504,4243.205078,4316.922852,4323.077148,4345,4359.102539,4348.077148,4333.333496,4592.94873,4562.94873,4619.358887,4555.128418,0,2,51,,,,0,4,4,4,4,4,4,4,4,4,4,4,4,4,4,100,,,,,,,,,,,,,,,,,,,,,,,,,,,,,,,,,,,,,,,,,,,,,,,,,,,,,,,,,,,,,,,,,47.302513,6.53058,1.588254,1.420455,2.372261,110.421875,11.80899,1.386734,1.180977,0.736612,8.856987,1.720703,0.571396,0.467227,0.364742,18.019472,2.164283,0.843789,0.619966,0.531502,11.006432,0.947702,0.695611,0.900957,1.405382,5.466951,0.827829,0.345485,0.297851,0.422533,6.873771,1.52649,0.627007,0.462083,0.504365,2.420193,0.41164,0.313014,0.300314,0.304631,3.937831,0.905493,0.453337,0.568123,0.436907,6.515827,1.795932,0.724798,1.030561,0.569267,16.038074,3.612704,1.565266,0.896263,0.752757,16.139797,2.953511,1.525415,0.921499,0.857664,38.53857,9.905095,3.311229,1.682411,1.41776,39.096222,5.331988,1.774708,2.116499,1.191566
1702363175,1702363175,63,0,4258.205078,4144.358887,4340.384766,4242.692383,4302.94873,4317.94873,4331.666504,4347.436035,4338.974121,4325.641113,4580.128418,4545.769043,4604.358887,4537.820313,0,2,51,,,,0,4,4,4,4,4,4,4,4,4,4,4,4,4,4,100,,,,,,,,,,,,,,,,,,,,,,,,,,,,,,,,,,,,,,,,,,,,,,,,,,,,,,,,,,,,,,,,,,,,,,,,,,,,,,,,,,,,,,,,,,,,,,,,,,,,,,,,,,,,,,,,,,,,,,,,,,,,,,,,,,,,,,
1702363175,1702363175,64,0,4256.410156,4137.436035,4338.461426,4239.230957,4303.589844,4311.794922,4320.512695,4339.487305,4336.538574,4316.025879,4579.358887,4537.436035,4597.05127,4531.282227,4228,2,51,,,,0,4,4,4,4,4,4,4,4,4,4,4,4,4,4,100,,,,,,,,,,,,,,,,,16,0,0.631964,0.299622,-0.635376,0.327332,1.000122,-0.055183,0.013185,-6.40851,1.165956,80.655548,,,,,,,,,,,,,,,,,,,,,,,,,,,,,,,,,,,,,,,,,,,,,,,,,,,,,,,,,,,,,,,,,,,,,,,,,,,,,,,,,,,,,,,,,,,,,,,,,,,,,,,,,,
1702363175,1702363175,65,0,4278.077148,4156.666504,4353.717773,4259.230957,4322.563965,4319.871582,4332.307617,4354.615234,4353.333496,4331.282227,4598.077148,4563.974121,4612.692383,4554.102539,5414,2,51,,,,0,4,4,4,4,4,4,4,4,4,4,4,4,4,4,100,,,,,,,,,,,,,,,,,,,,,,,,,,,,,,,,,,,,,,,,,,,,,,,,,,,,,,,,,,,,,,,,,,,,,,,,,,,,,,,,,,,,,,,,,,,,,,,,,,,,,,,,,,,,,,,,,,,,,,,,,,,,,,,,,,,,,,
1702363175,1702363175,66,0,4283.205078,4165.897461,4356.410156,4273.717773,4315.384766,4323.077148,4337.94873,4357.94873,4357.563965,4342.307617,4600.128418,4573.846191,4618.589844,4564.230957,5455,2,51,,,,0,4,4,4,4,4,4,4,4,4,4,4,4,4,4,100,,,,,,,,,,,,,,,,,,,,,,,,,,,,,,,,,,,,,,,,,,,,,,,,,,,,,,,,,,,,,,,,,,,,,,,,,,,,,,,,,,,,,,,,,,,,,,,,,,,,,,,,,,,,,,,,,,,,,,,,,,,,,,,,,,,,,,
1702363175,1702363175,67,0,4263.077148,4148.717773,4341.922852,4265.384766,4289.743652,4314.230957,4326.794922,4340.897461,4340.384766,4323.974121,4580.128418,4550,4590,4538.461426,5464,2,51,,,,0,4,4,4,4,4,4,4,4,4,4,4,4,4,4,100,,,,,,,,,,,,,,,,,,,,,,,,,,,,,,,,,,,,,,,,,,,,,,,,,,,,,,,,,,,,,,,,,,,,,,,,,,,,,,,,,,,,,,,,,,,,,,,,,,,,,,,,,,,,,,,,,,,,,,,,,,,,,,,,,,,,,,
1702363175,1702363175,68,0,4266.666504,4160.897461,4346.538574,4278.589844,4294.871582,4321.410156,4335.128418,4344.871582,4341.666504,4324.102539,4581.922852,4551.282227,4585.512695,4537.179688,5349,2,51,,,,0,4,4,4,4,4,4,4,4,4,4,4,4,4,4,100,,,,,,,,,,,,,,,,,17,0,0.632059,0.296875,-0.637756,0.325012,1.002075,-0.016604,0.019045,-6.417659,1.09936,80.75666,,,,,,,,,,,,,,,,,,,,,,,,,,,,,,,,,,,,,,,,,,,,,,,,,,,,,,,,,,,,,,,,,,,,,,,,,,,,,,,,,,,,,,,,,,,,,,,,,,,,,,,,,,
1702363175,1702363175,69,0,4308.846191,4219.102539,4380.769043,4328.846191,4340.897461,4350.128418,4368.717773,4372.563965,4374.102539,4365.897461,4619.102539,4595.512695,4636.410156,4582.820313,4225,2,51,,,,0,4,4,4,4,4,4,4,4,4,4,4,4,4,4,100,,,,,,,,,,,,,,,,,,,,,,,,,,,,,,,,,,,,,,,,,,,,,,,,,,,,,,,,,,,,,,,,,,,,,,,,,,,,,,,,,,,,,,,,,,,,,,,,,,,,,,,,,,,,,,,,,,,,,,,,,,,,,,,,,,,,,,
1702363175,1702363175,70,0,4322.436035,4241.922852,4390.256348,4347.820313,4362.05127,4350.769043,4371.538574,4371.794922,4379.358887,4377.692383,4626.922852,4606.153809,4649.358887,4591.282227,5178,2,51,,,,0,4,4,4,4,4,4,4,4,4,4,4,4,4,4,100,,,,,,,,,,,,,,,,,,,,,,,,,,,,,,,,,,,,,,,,,,,,,,,,,,,,,,,,,,,,,,,,,,,,,,,,,,,,,,,,,,,,,,,,,,,,,,,,,,,,,,,,,,,,,,,,,,,,,,,,,,,,,,,,,,,,,,
1702363175,1702363175,71,0,4291.538574,4218.205078,4364.358887,4321.410156,4333.077148,4323.589844,4340.256348,4347.179688,4350.128418,4343.077148,4592.692383,4568.461426,4602.05127,4551.538574,3914,2,51,,,,0,4,4,4,4,4,4,4,4,4,4,4,4,4,4,100,,,,,,,,,,,,,,,,,,,,,,,,,,,,,,,,,,,,,,,,,,,,,,,,,,,,,,,,,,,,,,,,,,,,,,,,,,,,,,,,,,,,,,,,,,,,,,,,,,,,,,,,,,,,,,,,,,,,,,,,,,,,,,,,,,,,,,
