Timestamp,OriginalTimestamp,EEG.Counter,EEG.Interpolated,EEG.AF3,EEG.F7,EEG.F3,EEG.FC5,EEG.T7,EEG.P7,EEG.O1,EEG.O2,EEG.P8,EEG.T8,EEG.FC6,EEG.F4,EEG.F8,EEG.AF4,EEG.RawCq,EEG.Battery,EEG.BatteryPercent,MarkerIndex,MarkerType,MarkerValueInt,EEG.MarkerHardware,CQ.AF3,CQ.F7,CQ.F3,CQ.FC5,CQ.T7,CQ.P7,CQ.O1,CQ.O2,CQ.P8,CQ.T8,CQ.FC6,CQ.F4,CQ.F8,CQ.AF4,CQ.Overall,EQ.SampleRateQuality,EQ.OVERALL,EQ.AF3,EQ.F7,EQ.F3,EQ.FC5,EQ.T7,EQ.P7,EQ.O1,EQ.O2,EQ.P8,EQ.T8,EQ.FC6,EQ.F4,EQ.F8,EQ.AF4,MOT.CounterMems,MOT.InterpolatedMems,MOT.Q0,MOT.Q1,MOT.Q2,MOT.Q3,MOT.AccX,MOT.AccY,MOT.AccZ,MOT.MagX,MOT.MagY,MOT.MagZ,PM.Attention.IsActive,PM.Attention.Scaled,PM.Attention.Raw,PM.Attention.Min,PM.Attention.Max,PM.Engagement.IsActive,PM.Engagement.Scaled,PM.Engagement.Raw,PM.Engagement.Min,PM.Engagement.Max,PM.Excitement.IsActive,PM.Excitement.Scaled,PM.Excitement.Raw,PM.Excitement.Min,PM.Excitement.Max,PM.LongTermExcitement,PM.Stress.IsActive,PM.Stress.Scaled,PM.Stress.Raw,PM.Stress.Min,PM.Stress.Max,PM.Relaxation.IsActive,PM.Relaxation.Scaled,PM.Relaxation.Raw,PM.Relaxation.Min,PM.Relaxation.Max,PM.Interest.IsActive,PM.Interest.Scaled,PM.Interest.Raw,PM.Interest.Min,PM.Interest.Max,PM.Focus.IsActive,PM.Focus.Scaled,PM.Focus.Raw,PM.Focus.Min,PM.Focus.Max,POW.AF3.Theta,POW.AF3.Alpha,POW.AF3.BetaL,POW.AF3.BetaH,POW.AF3.Gamma,POW.F7.Theta,POW.F7.Alpha,POW.F7.BetaL,POW.F7.BetaH,POW.F7.Gamma,POW.F3.Theta,POW.F3.Alpha,POW.F3.BetaL,POW.F3.BetaH,POW.F3.Gamma,POW.FC5.Theta,POW.FC5.Alpha,POW.FC5.BetaL,POW.FC5.BetaH,POW.FC5.Gamma,POW.T7.Theta,POW.T7.Alpha,POW.T7.BetaL,POW.T7.BetaH,POW.T7.Gamma,POW.P7.Theta,POW.P7.Alpha,POW.P7.BetaL,POW.P7.BetaH,POW.P7.Gamma,POW.O1.Theta,POW.O1.Alpha,POW.O1.BetaL,POW.O1.BetaH,POW.O1.Gamma,POW.O2.Theta,POW.O2.Alpha,POW.O2.BetaL,POW.O2.BetaH,POW.O2.Gamma,POW.P8.Theta,POW.P8.Alpha,POW.P8.BetaL,POW.P8.BetaH,POW.P8.Gamma,POW.T8.Theta,POW.T8.Alpha,POW.T8.BetaL,POW.T8.BetaH,POW.T8.Gamma,POW.FC6.Theta,POW.FC6.Alpha,POW.FC6.BetaL,POW.FC6.BetaH,POW.FC6.Gamma,POW.F4.Theta,POW.F4.Alpha,POW.F4.BetaL,POW.F4.BetaH,POW.F4.Gamma,POW.F8.Theta,POW.F8.Alpha,POW.F8.BetaL,POW.F8.BetaH,POW.F8.Gamma,POW.AF4.Theta,POW.AF4.Alpha,POW.AF4.BetaL,POW.AF4.BetaH,POW.AF4.Gamma
,,,,,,,,,,,,,,,,,,,,,,,,,,,,,,,,,,,,,,,,,,,,,,,,,,,,,,,,,,,,,,,,,,,,,,,,,,,,,,,,,,,,,,,,,,,,,,,,,,,,,,,,,,,,,,,,,,,,,,,,,,,,,,,,,,,,,,,,,,,,,,,,,,,,,,,,,,,,,,,,,,,,,,,,,,,,,
1702363257,1702363257,94,0,4296.538574,4260.128418,4336.410156,4253.974121,4314.102539,4297.179688,4285.897461,4318.846191,4323.205078,4308.333496,4400.512695,4506.153809,4446.666504,4460.384766,5933,2,51,,,,0,4,4,4,4,4,4,4,4,4,4,4,4,4,4,100,,,,,,,,,,,,,,,,,,,,,,,,,,,,,,,,,,,,,,,,,,,,,,,,,,,,,,,,,,,,,,,,,75.370773,8.926151,2.653469,2.231842,1.528848,111.877647,24.371449,3.983261,1.815547,5.618373,11.287997,1.921604,1.387837,1.474618,1.019236,97.269447,11.083978,6.267064,3.255928,3.497226,10.841793,3.638633,1.308233,3.349066,4.922766,6.42796,0.747162,0.667599,1.417841,1.157775,7.3531,1.682414,1.447143,2.23869,1.551213,3.127519,0.692885,0.519842,1.270104,0.773766,4.148834,1.314889,0.873522,1.697208,1.072707,8.957236,2.986075,1.399418,3.225758,2.045319,122.832428,9.392188,5.598156,4.54144,2.448674,22.507147,4.970532,2.146498,3.619672,2.422328,29.92458,11.205315,2.610078,3.190123,3.027022,68.303932,11.093413,2.531606,2.711305,1.970513
1702363257,1702363257,95,0,4289.743652,4263.974121,4331.282227,4253.589844,4312.436035,4296.025879,4287.436035,4315.128418,4319.102539,4308.461426,4399.743652,4504.743652,4450.641113,4456.922852,6042,2,51,,,,0,4,4,4,4,4,4,4,4,4,4,4,4,4,4,100,,,,,,,,,,,,,,,,,,,,,,,,,,,,,,,,,,,,,,,,,,,,,,,,,,,,,,,,,,,,,,,,,,,,,,,,,,,,,,,,,,,,,,,,,,,,,,,,,,,,,,,,,,,,,,,,,,,,,,,,,,,,,,,,,,,,,,
1702363257,1702363257,96,0,4276.153809,4249.358887,4322.436035,4244.358887,4297.94873,4277.307617,4273.589844,4307.563965,4307.563965,4296.794922,4385.641113,4490.256348,4442.820313,4443.717773,6431,2,51,,,,0,4,4,4,4,4,4,4,4,4,4,4,4,4,4,100,,,,,,,,,,,,,,,,,24,0,0.67271,0.253784,-0.619446,0.315186,0.991332,-0.044927,0.109877,-4.092381,-4.227652,86.730606,,,,,,,,,,,,,,,,,,,,,,,,,,,,,,,,,,,,,,,,,,,,,,,,,,,,,,,,,,,,,,,,,,,,,,,,,,,,,,,,,,,,,,,,,,,,,,,,,,,,,,,,,,
1702363257,1702363257,97,0,4281.538574,4255.128418,4326.025879,4248.461426,4297.94873,4280.384766,4268.717773,4310.256348,4310.256348,4295.897461,4381.538574,4492.563965,4438.589844,4444.102539,6641,2,51,,,,0,4,4,4,4,4,4,4,4,4,4,4,4,4,4,100,,,,,,,,,,,,,,,,,,,,,,,,,,,,,,,,,,,,,,,,,,,,,,,,,,,,,,,,,,,,,,,,,,,,,,,,,,,,,,,,,,,,,,,,,,,,,,,,,,,,,,,,,,,,,,,,,,,,,,,,,,,,,,,,,,,,,,
1702363257,1702363257,98,0,4278.205078,4258.717773,4324.230957,4241.153809,4297.307617,4288.461426,4264.487305,4307.692383,4311.153809,4295.128418,4373.974121,4486.666504,4436.922852,4437.563965,5933,2,51,,,,0,4,4,4,4,4,4,4,4,4,4,4,4,4,4,100,,,,,,,,,,,,,,,,,,,,,,,,,,,,,,,,,,,,,,,,,,,,,,,,,,,,,,,,,,,,,,,,,,,,,,,,,,,,,,,,,,,,,,,,,,,,,,,,,,,,,,,,,,,,,,,,,,,,,,,,,,,,,,,,,,,,,,
1702363257,1702363257,99,0,4266.153809,4252.94873,4319.743652,4225.128418,4283.589844,4276.794922,4256.153809,4301.410156,4302.05127,4283.717773,4366.538574,4476.922852,4435.512695,4426.922852,6042,2,51,,,,0,4,4,4,4,4,4,4,4,4,4,4,4,4,4,100,,,,,,,,,,,,,,,,,,,,,,,,,,,,,,,,,,,,,,,,,,,,,,,,,,,,,,,,,,,,,,,,,,,,,,,,,,,,,,,,,,,,,,,,,,,,,,,,,,,,,,,,,,,,,,,,,,,,,,,,,,,,,,,,,,,,,,
1702363257,1702363257,100,0,4287.436035,4278.077148,4337.179688,4241.538574,4306.282227,4282.436035,4268.077148,4316.282227,4315.512695,4297.179688,4390.769043,4504.102539,4458.333496,4453.205078,6431,2,51,,,,0,4,4,4,4,4,4,4,4,4,4,4,4,4,4,100,,,,,,,,,,,,,,,,,25,0,0.671597,0.255249,-0.618835,0.317566,0.963985,-0.067879,0.115248,-4.04981,-4.03822,86.607544,,,,,,,,,,,,,,,,,,,,,,,,,,,,,,,,,,,,,,,,,,,,,,,,,,,,,,,,,,,,,,,,,,,,,,,,,,,,,,,,,,,,,,,,,,,,,,,,,,,,,,,,,,
1702363257,1702363257,101,0,4304.615234,4296.153809,4347.563965,4253.461426,4336.538574,4294.871582,4280.512695,4325.256348,4329.487305,4317.692383,4405.256348,4524.615234,4471.153809,4471.666504,6641,2,51,,,,0,4,4,4,4,4,4,4,4,4,4,4,4,4,4,100,,,,,,,,,,,,,,,,,,,,,,,,,,,,,,,,,,,,,,,,,,,,,,,,,,,,,,,,,,,,,,,,,,,,,,,,,,,,,,,,,,,,,,,,,,,,,,,,,,,,,,,,,,,,,,,,,,,,,,,,,,,,,,,,,,,,,,
1702363257,1702363257,102,0,4279.358887,4271.666504,4330.769043,4227.94873,4312.05127,4285.897461,4270,4312.563965,4316.538574,4303.717773,4380.512695,4499.743652,4448.717773,4443.333496,5933,2,51,,,,0,4,4,4,4,4,4,4,4,4,4,4,4,4,4,100,,,,,,,,,,,,,,,,,,,,,,,,,,,,,,,,,,,,,,,,,,,,,,,,,,,,,,,,,,,,,,,,,,,,,,,,,,,,,,,,,,,,,,,,,,,,,,,,,,,,,,,,,,,,,,,,,,,,,,,,,,,,,,,,,,,,,,
1702363257,1702363257,103,0,4251.153809,4250.512695,4311.025879,4201.410156,4267.05127,4268.333496,4249.102539,4298.846191,4298.589844,4278.333496,4352.820313,4465.641113,4426.794922,4415.256348,6042,2,51,,,,0,4,4,4,4,4,4,4,4,4,4,4,4,4,4,100,,,,,,,,,,,,,,,,,,,,,,,,,,,,,,,,,,,,,,,,,,,,,,,,,,,,,,,,,,,,,,,,,,,,,,,,,,,,,,,,,,,,,,,,,,,,,,,,,,,,,,,,,,,,,,,,,,,,,,,,,,,,,,,,,,,,,,
1702363257,1702363257,104,0,4266.025879,4270,4318.717773,4213.717773,4276.666504,4272.820313,4253.846191,4303.717773,4305.384766,4289.743652,4365.128418,4476.025879,4442.436035,4431.794922,6431,2,51,,,,0,4,4,4,4,4,4,4,4,4,4,4,4,4,4,100,,,,,,,,,,,,,,,,,26,0,0.671182,0.25592,-0.618286,0.31897,0.989379,-0.061043,0.1089,-4.061496,-3.867732,86.66346,,,,,,,,,,,,,,,,,,,,,,,,,,,,,,,,,,,,,,,,,,,,,,,,,,,,,,,,,,,,,,,,,,,,,,,,,,,,,,,,,,,,,,,,,,,,,,,,,,,,,,,,,,
1702363257,1702363257,105,0,4296.282227,4300.384766,4341.666504,4240.641113,4318.717773,4294.615234,4278.461426,4319.102539,4321.922852,4313.461426,4398.333496,4510.128418,4469.487305,4458.846191,6641,2,51,,,,0,4,4,4,4,4,4,4,4,4,4,4,4,4,4,100,,,,,,,,,,,,,,,,,,,,,,,,,,,,,,,,,,,,,,,,,,,,,,,,,,,,,,,,,,,,,,,,,,,,,,,,,,,,,,,,,,,,,,,,,,,,,,,,,,,,,,,,,,,,,,,,,,,,,,,,,,,,,,,,,,,,,,
1702363257,1702363257,106,0,4297.820313,4309.743652,4347.307617,4244.871582,4328.974121,4302.820313,4285.128418,4324.871582,4325.128418,4311.922852,4410.512695,4517.307617,4476.025879,4460,5933,2,51,,,,0,4,4,4,4,4,4,4,4,4,4,4,4,4,4,100,,,,,,,,,,,,,,,,,,,,,,,,,,,,,,,,,,,,,,,,,,,,,,,,,,,,,,,,,,,,,,,,,,,,,,,,,,,,,,,,,,,,,,,,,,,,,,,,,,,,,,,,,,,,,,,,,,,,,,,,,,,,,,,,,,,,,,
1702363257,1702363257,107,0,4296.025879,4310.128418,4347.05127,4243.077148,4325.897461,4300.641113,4287.05127,4327.436035,4331.282227,4317.692383,4413.461426,4518.717773,4482.436035,4465.769043,6042,2,51,,,,0,4,4,4,4,4,4,4,4,4,4,4,4,4,4,100,,,,,,,,,,,,,,,,,,,,,,,,,,,,,,,,,,,,,,,,,,,,,,,,,,,,,,,,,,,,,,,,,,,,,,,,,,,,,,,,,,,,,,,,,,,,,,,,,,,,,,,,,,,,,,,,,,,,,,,,,,,,,,,,,,,,,,
1702363257,1702363257,108,0,4315.384766,4313.974121,4359.358887,4256.410156,4328.717773,4307.563965,4299.615234,4336.153809,4345,4337.436035,4424.871582,4535.512695,4493.589844,4487.307617,6431,2,51,,,,0,4,4,4,4,4,4,4,4,4,4,4,4,4,4,100,,,,,,,,,,,,,,,,,27,0,0.670994,0.256104,-0.618225,0.319336,1.001587,-0.067879,0.120132,-4.005346,-3.780958,86.563782,,,,,,,,,,,,,,,,,,,,,,,,,,,,,,,,,,,,,,,,,,,,,,,,,,,,,,,,,,,,,,,,,,,,,,,,,,,,,,,,,,,,,,,,,,,,,,,,,,,,,,,,,,
1702363257,1702363257,109,0,4337.94873,4334.743652,4376.025879,4277.307617,4339.358887,4320.128418,4312.05127,4346.666504,4353.974121,4343.205078,4441.153809,4553.205078,4502.94873,4504.102539,6641,2,51,,,,0,4,4,4,4,4,4,4,4,4,4,4,4,4,4,100,,,,,,,,,,,,,,,,,,,,,,,,,,,,,,,,,,,,,,,,,,,,,,,,,,,,,,,,,,,,,,,,,,,,,,,,,,,,,,,,,,,,,,,,,,,,,,,,,,,,,,,,,,,,,,,,,,,,,,,,,,,,,,,,,,,,,,
1702363257,1702363257,110,0,4339.487305,4348.589844,4376.282227,4284.102539,4351.666504,4322.94873,4316.538574,4346.666504,4351.794922,4338.589844,4445,4553.077148,4508.461426,4502.563965,5933,2,51,,,,0,4,4,4,4,4,4,4,4,4,4,4,4,4,4,100,1,8.333333,1,1,1,0,1,1,1,3,3,1,0,1,1,1,,,,,,,,,,,,,,,,,,,,,,,,,,,,,,,,,,,,,,,,,,,,,,,,,100.516724,11.628092,2.425836,2.140893,1.503208,156.261841,31.991859,4.598758,1.843196,4.340428,13.841299,2.247825,1.23527,1.305158,0.955694,99.946236,9.199161,5.630966,2.944487,3.157453,12.2597,3.425991,1.141237,2.999797,4.03574,6.328313,0.746516,0.58613,1.301143,1.115538,8.377604,1.614766,1.393953,1.992802,1.448008,3.397012,0.702341,0.535718,1.223226,0.743791,4.648612,1.54533,0.878113,1.570028,1.056067,9.738179,3.477648,1.341087,2.920106,1.816089,122.027382,11.086762,5.417329,3.990944,2.468658,27.19433,6.042069,2.150426,3.360038,2.378446,39.748402,13.433118,2.906974,3.178446,2.843985,91.364464,14.43817,2.756503,2.658265,2.009139
1702363257,1702363257,111,0,4340.769043,4345.641113,4376.666504,4291.282227,4370.897461,4335.128418,4332.307617,4351.153809,4359.743652,4357.179688,4454.358887,4560.384766,4519.743652,4505.512695,6042,2,51,,,,0,4,4,4,4,4,4,4,4,4,4,4,4,4,4,100,,,,,,,,,,,,,,,,,,,,,,,,,,,,,,,,,,,,,,,,,,,,,,,,,,,,,,,,,,,,,,,,,,,,,,,,,,,,,,,,,,,,,,,,,,,,,,,,,,,,,,,,,,,,,,,,,,,,,,,,,,,,,,,,,,,,,,
1702363257,1702363257,112,0,4350.128418,4347.563965,4387.05127,4302.820313,4386.922852,4341.538574,4342.05127,4359.358887,4372.692383,4374.743652,4468.846191,4577.563965,4529.487305,4520.128418,6431,2,51,,,,0,4,4,4,4,4,4,4,4,4,4,4,4,4,4,100,,,,,,,,,,,,,,,,,28,0,0.670951,0.256287,-0.618164,0.319397,0.983518,-0.057136,0.119155,-4.021478,-3.686196,86.457405,,,,,,,,,,,,,,,,,,,,,,,,,,,,,,,,,,,,,,,,,,,,,,,,,,,,,,,,,,,,,,,,,,,,,,,,,,,,,,,,,,,,,,,,,,,,,,,,,,,,,,,,,,
1702363257,1702363257,113,0,4337.179688,4334.743652,4380,4288.461426,4364.358887,4320.128418,4320.897461,4348.589844,4356.282227,4351.410156,4456.153809,4566.410156,4514.230957,4509.102539,6641,2,51,,,,0,4,4,4,4,4,4,4,4,4,4,4,4,4,4,100,,,,,,,,,,,,,,,,,,,,,,,,,,,,,,,,,,,,,,,,,,,,,,,,,,,,,,,,,,,,,,,,,,,,,,,,,,,,,,,,,,,,,,,,,,,,,,,,,,,,,,,,,,,,,,,,,,,,,,,,,,,,,,,,,,,,,,
1702363257,1702363257,114,0,4322.179688,4311.025879,4367.820313,4272.307617,4346.025879,4315.256348,4308.717773,4338.846191,4337.94873,4332.307617,4441.153809,4545.384766,4500.897461,4489.358887,5933,2,51,,,,0,4,4,4,4,4,4,4,4,4,4,4,4,4,4,100,,,,,,,,,,,,,,,,,,,,,,,,,,,,,,,,,,,,,,,,,,,,,,,,,,,,,,,,,,,,,,,,,,,,,,,,,,,,,,,,,,,,,,,,,,,,,,,,,,,,,,,,,,,,,,,,,,,,,,,,,,,,,,,,,,,,,,
1702363257,1702363257,115,0,4334.615234,4315.769043,4373.077148,4285.512695,4361.538574,4332.820313,4322.820313,4344.230957,4345.384766,4342.692383,4447.436035,4548.846191,4506.794922,4496.666504,6042,2,51,,,,0,4,4,4,4,4,4,4,4,4,4,4,4,4,4,100,,,,,,,,,,,,,,,,,,,,,,,,,,,,,,,,,,,,,,,,,,,,,,,,,,,,,,,,,,,,,,,,,,,,,,,,,,,,,,,,,,,,,,,,,,,,,,,,,,,,,,,,,,,,,,,,,,,,,,,,,,,,,,,,,,,,,,
1702363257,1702363257,116,0,4347.692383,4324.358887,4381.922852,4300.641113,4360.384766,4330.641113,4327.820313,4345.256348,4352.563965,4345.512695,4451.666504,4558.333496,4509.487305,4507.05127,6431,2,51,,,,0,4,4,4,4,4,4,4,4,4,4,4,4,4,4,100,,,,,,,,,,,,,,,,,29,0,0.671135,0.256348,-0.618286,0.318726,0.977658,-0.067879,0.106458,-3.885997,-3.584243,86.344994,,,,,,,,,,,,,,,,,,,,,,,,,,,,,,,,,,,,,,,,,,,,,,,,,,,,,,,,,,,,,,,,,,,,,,,,,,,,,,,,,,,,,,,,,,,,,,,,,,,,,,,,,,
1702363257,1702363257,117,0,4337.692383,4301.794922,4377.94873,4290.128418,4340.641113,4314.230957,4315.384766,4340.641113,4345.256348,4333.077148,4445.128418,4548.589844,4499.230957,4495.897461,6641,2,51,,,,0,4,4,4,4,4,4,4,4,4,4,4,4,4,4,100,,,,,,,,,,,,,,,,,,,,,,,,,,,,,,,,,,,,,,,,,,,,,,,,,,,,,,,,,,,,,,,,,,,,,,,,,,,,,,,,,,,,,,,,,,,,,,,,,,,,,,,,,,,,,,,,,,,,,,,,,,,,,,,,,,,,,,
1702363257,1702363257,118,0,4329.358887,4283.589844,4372.05127,4282.05127,4347.692383,4315.769043,4309.102539,4340.897461,4340.897461,4329.743652,4446.922852,4540.512695,4497.05127,4489.615234,5933,2,51,,,,0,4,4,4,4,4,4,4,4,4,4,4,4,4,4,100,,,,,,,,,,,,,,,,,,,,,,,,,,,,,,,,,,,,,,,,,,,,,,,,,,,,,,,,,,,,,,,,,,,,,,,,,,,,,,,,,,,,,,,,,,,,,,,,,,,,,,,,,,,,,,,,,,,,,,,,,,,,,,,,,,,,,,
1702363257,1702363257,119,0,4317.563965,4260.897461,4360.384766,4275.384766,4337.563965,4310.256348,4296.794922,4331.666504,4330.897461,4317.94873,4433.589844,4528.077148,4486.666504,4478.589844,6042,2,51,,,,0,4,4,4,4,4,4,4,4,4,4,4,4,4,4,100,,,,,,,,,,,,,,,,,,,,,,,,,,,,,,,,,,,,,,,,,,,,,,,,,,,,,,,,,,,,,,,,,,,,,,,,,,,,,,,,,,,,,,,,,,,,,,,,,,,,,,,,,,,,,,,,,,,,,,,,,,,,,,,,,,,,,,
1702363257,1702363257,120,0,4303.333496,4220.128418,4349.230957,4263.717773,4311.282227,4296.666504,4285.897461,4322.05127,4320.128418,4303.077148,4412.179688,4513.974121,4468.333496,4460.897461,6431,2,51,,,,0,4,4,4,4,4,4,4,4,4,4,4,4,4,4,100,,,,,,,,,,,,,,,,,30,0,0.671478,0.25592,-0.61853,0.317871,0.990844,-0.046881,0.103528,-3.730731,-3.492485,86.160492,,,,,,,,,,,,,,,,,,,,,,,,,,,,,,,,,,,,,,,,,,,,,,,,,,,,,,,,,,,,,,,,,,,,,,,,,,,,,,,,,,,,,,,,,,,,,,,,,,,,,,,,,,
1702363257,1702363257,121,0,4315,4215.384766,4361.794922,4275.897461,4338.077148,4307.692383,4302.307617,4334.102539,4333.077148,4319.487305,4426.025879,4530.897461,4481.666504,4472.820313,6641,2,51,,,,0,4,4,4,4,4,4,4,4,4,4,4,4,4,4,100,,,,,,,,,,,,,,,,,,,,,,,,,,,,,,,,,,,,,,,,,,,,,,,,,,,,,,,,,,,,,,,,,,,,,,,,,,,,,,,,,,,,,,,,,,,,,,,,,,,,,,,,,,,,,,,,,,,,,,,,,,,,,,,,,,,,,,
1702363257,1702363257,122,0,4315.128418,4225,4362.05127,4279.358887,4347.05127,4311.538574,4302.179688,4333.589844,4336.410156,4324.871582,4432.563965,4533.846191,4488.333496,4474.743652,5933,2,51,,,,0,4,4,4,4,4,4,4,4,4,4,4,4,4,4,100,,,,,,,,,,,,,,,,,,,,,,,,,,,,,,,,,,,,,,,,,,,,,,,,,,,,,,,,,,,,,,,,,,,,,,,,,,,,,,,,,,,,,,,,,,,,,,,,,,,,,,,,,,,,,,,,,,,,,,,,,,,,,,,,,,,,,,
1702363257,1702363257,123,0,4281.666504,4201.153809,4333.589844,4246.794922,4297.179688,4285.512695,4270,4312.94873,4308.974121,4290.384766,4395.512695,4491.410156,4453.589844,4436.153809,6042,2,51,,,,0,4,4,4,4,4,4,4,4,4,4,4,4,4,4,100,,,,,,,,,,,,,,,,,,,,,,,,,,,,,,,,,,,,,,,,,,,,,,,,,,,,,,,,,,,,,,,,,,,,,,,,,,,,,,,,,,,,,,,,,,,,,,,,,,,,,,,,,,,,,,,,,,,,,,,,,,,,,,,,,,,,,,
1702363257,1702363257,124,0,4267.05127,4186.794922,4324.615234,4231.922852,4284.230957,4273.205078,4257.94873,4303.717773,4289.871582,4268.589844,4371.025879,4467.820313,4429.230957,4417.05127,6431,2,51,,,,0,4,4,4,4,4,4,4,4,4,4,4,4,4,4,100,,,,,,,,,,,,,,,,,31,0,0.671608,0.255676,-0.618835,0.3172,0.981565,-0.037602,0.110853,-3.640991,-3.37657,86.094444,,,,,,,,,,,,,,,,,,,,,,,,,,,,,,,,,,,,,,,,,,,,,,,,,,,,,,,,,,,,,,,,,,,,,,,,,,,,,,,,,,,,,,,,,,,,,,,,,,,,,,,,,,
1702363257,1702363257,125,0,4279.871582,4201.666504,4336.922852,4243.333496,4303.333496,4279.102539,4261.666504,4304.102539,4293.846191,4276.025879,4379.615234,4483.333496,4433.205078,4431.153809,6641,2,51,,,,0,4,4,4,4,4,4,4,4,4,4,4,4,4,4,100,,,,,,,,,,,,,,,,,,,,,,,,,,,,,,,,,,,,,,,,,,,,,,,,,,,,,,,,,,,,,,,,,,,,,,,,,,,,,,,,,,,,,,,,,,,,,,,,,,,,,,,,,,,,,,,,,,,,,,,,,,,,,,,,,,,,,,
1702363257,1702363257,126,0,4279.871582,4211.153809,4329.230957,4234.230957,4286.794922,4266.922852,4249.487305,4298.589844,4293.205078,4273.717773,4378.589844,4482.05127,4431.153809,4430.384766,5933,2,51,,,,0,4,4,4,4,4,4,4,4,4,4,4,4,4,4,100,,,,,,,,,,,,,,,,,,,,,,,,,,,,,,,,,,,,,,,,,,,,,,,,,,,,,,,,,,,,,,,,,117.074394,13.31295,2.315337,1.996511,1.514807,190.586288,36.648464,5.222538,1.864367,3.153874,15.691835,2.52553,1.120501,1.123289,0.924592,105.94342,8.704613,4.943319,2.55891,2.795259,13.892637,3.261338,1.004668,2.580471,3.247496,6.553111,0.785657,0.577357,1.144112,1.096245,9.536331,1.616572,1.395808,1.737946,1.379579,3.764619,0.724084,0.56166,1.12296,0.724011,5.31611,1.742832,0.885351,1.383935,1.056404,10.753428,3.794156,1.298061,2.48941,1.6732,108.983658,12.025311,4.803207,3.371351,2.506968,30.698812,6.804859,2.184525,3.064036,2.358557,47.133003,14.294369,3.057323,2.990041,2.737755,106.893532,16.393982,2.939892,2.535648,2.058252
1702363257,1702363257,127,0,4263.461426,4209.230957,4312.563965,4216.666504,4263.974121,4256.922852,4241.922852,4295.512695,4281.922852,4256.922852,4364.615234,4464.487305,4419.102539,4409.615234,51,2,51,,,,0,4,4,4,4,4,4,4,4,4,4,4,4,4,4,100,,,,,,,,,,,,,,,,,,,,,,,,,,,,,,,,,,,,,,,,,,,,,,,,,,,,,,,,,,,,,,,,,,,,,,,,,,,,,,,,,,,,,,,,,,,,,,,,,,,,,,,,,,,,,,,,,,,,,,,,,,,,,,,,,,,,,,
1702363257,1702363257,0,0,4252.94873,4212.94873,4309.615234,4216.666504,4260.512695,4266.025879,4244.102539,4294.102539,4277.692383,4252.05127,4358.589844,4455.384766,4411.538574,4397.436035,4196,2,51,,,,0,4,4,4,4,4,4,4,4,4,4,4,4,4,4,100,,,,,,,,,,,,,,,,,0,0,0.67176,0.255737,-0.618958,0.316589,0.981565,-0.032719,0.109388,-3.676892,-3.338913,86.018333,,,,,,,,,,,,,,,,,,,,,,,,,,,,,,,,,,,,,,,,,,,,,,,,,,,,,,,,,,,,,,,,,,,,,,,,,,,,,,,,,,,,,,,,,,,,,,,,,,,,,,,,,,
1702363257,1702363257,1,0,4255.897461,4225,4309.615234,4216.922852,4255.769043,4259.615234,4241.282227,4288.077148,4277.94873,4253.205078,4354.487305,4449.230957,4403.717773,4402.05127,5385,2,51,,,,0,4,4,4,4,4,4,4,4,4,4,4,4,4,4,100,,,,,,,,,,,,,,,,,,,,,,,,,,,,,,,,,,,,,,,,,,,,,,,,,,,,,,,,,,,,,,,,,,,,,,,,,,,,,,,,,,,,,,,,,,,,,,,,,,,,,,,,,,,,,,,,,,,,,,,,,,,,,,,,,,,,,,
1702363257,1702363257,2,0,4262.692383,4234.358887,4311.282227,4214.102539,4256.153809,4244.102539,4239.487305,4285.769043,4274.743652,4250.512695,4353.205078,4449.358887,4402.563965,4410.384766,5419,2,51,,,,0,4,4,4,4,4,4,4,4,4,4,4,4,4,4,100,,,,,,,,,,,,,,,,,,,,,,,,,,,,,,,,,,,,,,,,,,,,,,,,,,,,,,,,,,,,,,,,,,,,,,,,,,,,,,,,,,,,,,,,,,,,,,,,,,,,,,,,,,,,,,,,,,,,,,,,,,,,,,,,,,,,,,
1702363257,1702363257,3,0,4272.94873,4248.717773,4324.871582,4221.153809,4277.436035,4255.769043,4248.077148,4288.974121,4279.102539,4258.205078,4367.563965,4463.717773,4421.282227,4421.666504,5432,2,51,,,,0,4,4,4,4,4,4,4,4,4,4,4,4,4,4,100,,,,,,,,,,,,,,,,,,,,,,,,,,,,,,,,,,,,,,,,,,,,,,,,,,,,,,,,,,,,,,,,,,,,,,,,,,,,,,,,,,,,,,,,,,,,,,,,,,,,,,,,,,,,,,,,,,,,,,,,,,,,,,,,,,,,,,
1702363257,1702363257,4,0,4289.102539,4276.153809,4335.128418,4217.307617,4297.05127,4279.615234,4260.897461,4298.205078,4289.487305,4274.743652,4389.230957,4482.692383,4443.717773,4436.794922,5328,2,51,,,,0,4,4,4,4,4,4,4,4,4,4,4,4,4,4,100,,,,,,,,,,,,,,,,,1,0,0.671933,0.256042,-0.61908,0.315735,0.97131,-0.041997,0.111342,-3.675869,-3.405022,85.999832,,,,,,,,,,,,,,,,,,,,,,,,,,,,,,,,,,,,,,,,,,,,,,,,,,,,,,,,,,,,,,,,,,,,,,,,,,,,,,,,,,,,,,,,,,,,,,,,,,,,,,,,,,
1702363257,1702363257,5,0,4281.153809,4275.256348,4322.692383,4175.384766,4281.282227,4271.538574,4253.717773,4298.205078,4285.256348,4271.538574,4383.589844,4474.871582,4431.794922,4426.666504,4136,2,51,,,,0,4,4,4,4,4,4,4,4,4,4,4,4,4,4,100,,,,,,,,,,,,,,,,,,,,,,,,,,,,,,,,,,,,,,,,,,,,,,,,,,,,,,,,,,,,,,,,,,,,,,,,,,,,,,,,,,,,,,,,,,,,,,,,,,,,,,,,,,,,,,,,,,,,,,,,,,,,,,,,,,,,,,
1702363257,1702363257,6,0,4251.410156,4245.256348,4302.179688,4124.358887,4249.230957,4245.256348,4228.974121,4282.820313,4271.538574,4248.589844,4353.333496,4443.974121,4397.05127,4393.974121,5161,2,51,,,,0,4,4,4,4,4,4,4,4,4,4,4,4,4,4,100,,,,,,,,,,,,,,,,,,,,,,,,,,,,,,,,,,,,,,,,,,,,,,,,,,,,,,,,,,,,,,,,,,,,,,,,,,,,,,,,,,,,,,,,,,,,,,,,,,,,,,,,,,,,,,,,,,,,,,,,,,,,,,,,,,,,,,
1702363257,1702363257,7,0,4258.333496,4259.230957,4309.871582,4117.436035,4262.436035,4252.94873,4237.05127,4285.897461,4278.974121,4255.641113,4359.487305,4449.487305,4405.256348,4400.641113,3911,2,51,,,,0,4,4,4,4,4,4,4,4,4,4,4,4,4,4,100,,,,,,,,,,,,,,,,,,,,,,,,,,,,,,,,,,,,,,,,,,,,,,,,,,,,,,,,,,,,,,,,,,,,,,,,,,,,,,,,,,,,,,,,,,,,,,,,,,,,,,,,,,,,,,,,,,,,,,,,,,,,,,,,,,,,,,
1702363257,1702363257,8,0,4261.922852,4277.94873,4309.487305,4107.94873,4275.769043,4264.871582,4243.589844,4289.743652,4275,4256.666504,4364.230957,4453.077148,4408.974121,4408.205078,4520,2,51,,,,0,4,4,4,4,4,4,4,4,4,4,4,4,4,4,100,,,,,,,,,,,,,,,,,2,0,0.6717,0.256226,-0.619568,0.315125,1.00061,-0.043951,0.113783,-3.724949,-3.381186,85.916519,,,,,,,,,,,,,,,,,,,,,,,,,,,,,,,,,,,,,,,,,,,,,,,,,,,,,,,,,,,,,,,,,,,,,,,,,,,,,,,,,,,,,,,,,,,,,,,,,,,,,,,,,,
1702363257,1702363257,9,0,4231.794922,4254.615234,4285.512695,4077.692383,4253.333496,4251.922852,4219.743652,4276.282227,4253.974121,4226.922852,4333.717773,4423.077148,4376.538574,4379.871582,5445,2,51,,,,0,4,4,4,4,4,4,4,4,4,4,4,4,4,4,100,,,,,,,,,,,,,,,,,,,,,,,,,,,,,,,,,,,,,,,,,,,,,,,,,,,,,,,,,,,,,,,,,,,,,,,,,,,,,,,,,,,,,,,,,,,,,,,,,,,,,,,,,,,,,,,,,,,,,,,,,,,,,,,,,,,,,,
1702363257,1702363257,10,0,4232.05127,4252.563965,4285.128418,4081.153809,4246.794922,4245.641113,4224.743652,4276.153809,4258.717773,4229.487305,4332.436035,4421.153809,4380.897461,4378.974121,5953,2,51,,,,0,4,4,4,4,4,4,4,4,4,4,4,4,4,4,100,,,,,,,,,,,,,,,,,,,,,,,,,,,,,,,,,,,,,,,,,,,,,,,,,,,,,,,,,,,,,,,,,,,,,,,,,,,,,,,,,,,,,,,,,,,,,,,,,,,,,,,,,,,,,,,,,,,,,,,,,,,,,,,,,,,,,,
1702363257,1702363257,11,0,4243.846191,4264.230957,4294.358887,4092.94873,4243.846191,4244.358887,4239.358887,4283.077148,4266.410156,4246.282227,4347.05127,4433.205078,4397.05127,4389.615234,6072,2,51,,,,0,4,4,4,4,4,4,4,4,4,4,4,4,4,4,100,,,,,,,,,,,,,,,,,,,,,,,,,,,,,,,,,,,,,,,,,,,,,,,,,,,,,,,,,,,,,,,,,,,,,,,,,,,,,,,,,,,,,,,,,,,,,,,,,,,,,,,,,,,,,,,,,,,,,,,,,,,,,,,,,,,,,,
1702363257,1702363257,12,0,4232.692383,4254.743652,4289.230957,4086.538574,4238.717773,4239.102539,4222.820313,4277.563965,4259.230957,4236.794922,4339.358887,4422.94873,4382.436035,4376.538574,6467,2,51,,,,0,4,4,4,4,4,4,4,4,4,4,4,4,4,4,100,,,,,,,,,,,,,,,,,3,0,0.671651,0.256287,-0.619751,0.314819,0.99475,-0.036626,0.103528,-3.602454,-3.359734,85.84153,,,,,,,,,,,,,,,,,,,,,,,,,,,,,,,,,,,,,,,,,,,,,,,,,,,,,,,,,,,,,,,,,,,,,,,,,,,,,,,,,,,,,,,,,,,,,,,,,,,,,,,,,,
1702363257,1702363257,13,0,4229.487305,4247.436035,4288.717773,4087.564209,4246.282227,4239.871582,4213.333496,4273.205078,4253.974121,4226.025879,4334.615234,4420.256348,4373.333496,4374.102539,6688,2,51,,,,0,4,4,4,4,4,4,4,4,4,4,4,4,4,4,100,,,,,,,,,,,,,,,,,,,,,,,,,,,,,,,,,,,,,,,,,,,,,,,,,,,,,,,,,,,,,,,,,,,,,,,,,,,,,,,,,,,,,,,,,,,,,,,,,,,,,,,,,,,,,,,,,,,,,,,,,,,,,,,,,,,,,,
1702363257,1702363257,14,0,4227.692383,4236.538574,4283.589844,4086.410156,4230.384766,4235.128418,4212.05127,4266.410156,4245.512695,4217.820313,4331.153809,4417.94873,4367.820313,4372.307617,5953,2,51,,,,0,4,4,4,4,4,4,4,4,4,4,4,4,4,4,100,,,,,,,,,,,,,,,,,,,,,,,,,,,,,,,,,,,,,,,,,,,,,,,,,,,,,,,,,,,,,,,,,118.395279,13.24286,2.192035,1.80565,1.529604,202.8414,36.545383,5.503043,1.876442,2.303346,15.817231,2.58288,1.027219,0.966686,0.923335,101.457008,8.108033,4.13427,2.155612,2.439101,14.441102,2.981248,0.880981,2.193127,2.699728,6.525729,0.819392,0.594822,0.984754,1.080275,10.042554,1.59174,1.406737,1.527383,1.345179,3.864262,0.712795,0.57008,0.992305,0.709324,5.533089,1.788229,0.85697,1.1747,1.057217,11.013556,3.754278,1.220562,2.043611,1.599577,87.325752,11.715538,3.88189,2.79301,2.519671,31.097258,6.841227,2.162689,2.771559,2.344161,49.177677,13.315982,2.924585,2.667171,2.643684,108.556313,16.147705,2.947823,2.339289,2.078259
1702363257,1702363257,15,0,4206.282227,4207.692383,4263.846191,4071.153809,4191.794922,4216.538574,4189.615234,4250.897461,4227.820313,4193.846191,4310,4392.563965,4341.153809,4345.641113,6072,2,51,,,,0,4,4,4,4,4,4,4,4,4,4,4,4,4,4,100,,,,,,,,,,,,,,,,,,,,,,,,,,,,,,,,,,,,,,,,,,,,,,,,,,,,,,,,,,,,,,,,,,,,,,,,,,,,,,,,,,,,,,,,,,,,,,,,,,,,,,,,,,,,,,,,,,,,,,,,,,,,,,,,,,,,,,
1702363257,1702363257,16,0,4205.897461,4202.436035,4263.974121,4076.794922,4199.487305,4215.769043,4183.974121,4254.102539,4231.410156,4195.256348,4311.922852,4389.230957,4338.461426,4342.436035,0,2,51,,,,0,4,4,4,4,4,4,4,4,4,4,4,4,4,4,100,,,,,,,,,,,,,,,,,4,0,0.671602,0.256348,-0.619995,0.314392,0.993285,-0.034672,0.08839,-3.592209,-3.323761,85.874046,,,,,,,,,,,,,,,,,,,,,,,,,,,,,,,,,,,,,,,,,,,,,,,,,,,,,,,,,,,,,,,,,,,,,,,,,,,,,,,,,,,,,,,,,,,,,,,,,,,,,,,,,,
1702363257,1702363257,17,0,4222.820313,4218.333496,4278.846191,4095.641113,4234.102539,4230.897461,4201.922852,4262.563965,4248.461426,4214.743652,4331.922852,4407.307617,4360.512695,4361.153809,0,2,51,,,,0,4,4,4,4,4,4,4,4,4,4,4,4,4,4,100,,,,,,,,,,,,,,,,,,,,,,,,,,,,,,,,,,,,,,,,,,,,,,,,,,,,,,,,,,,,,,,,,,,,,,,,,,,,,,,,,,,,,,,,,,,,,,,,,,,,,,,,,,,,,,,,,,,,,,,,,,,,,,,,,,,,,,
1702363257,1702363257,18,0,4217.692383,4215.128418,4275.769043,4096.025879,4232.94873,4228.077148,4203.333496,4258.077148,4244.102539,4206.410156,4328.846191,4407.307617,4355.256348,4357.820313,0,2,51,,,,0,4,4,4,4,4,4,4,4,4,4,4,4,4,4,100,,,,,,,,,,,,,,,,,,,,,,,,,,,,,,,,,,,,,,,,,,,,,,,,,,,,,,,,,,,,,,,,,,,,,,,,,,,,,,,,,,,,,,,,,,,,,,,,,,,,,,,,,,,,,,,,,,,,,,,,,,,,,,,,,,,,,,
1702363257,1702363257,19,0,4211.025879,4204.487305,4272.179688,4094.358887,4218.589844,4217.94873,4193.717773,4256.666504,4230.897461,4193.717773,4321.282227,4401.538574,4341.153809,4349.615234,0,2,51,,,,0,4,4,4,4,4,4,4,4,4,4,4,4,4,4,100,,,,,,,,,,,,,,,,,,,,,,,,,,,,,,,,,,,,,,,,,,,,,,,,,,,,,,,,,,,,,,,,,,,,,,,,,,,,,,,,,,,,,,,,,,,,,,,,,,,,,,,,,,,,,,,,,,,,,,,,,,,,,,,,,,,,,,
1702363257,1702363257,20,0,4218.205078,4205.512695,4278.974121,4105.128418,4209.102539,4219.230957,4195.897461,4263.717773,4230.128418,4200.512695,4323.333496,4405.384766,4344.230957,4353.077148,0,2,51,,,,0,4,4,4,4,4,4,4,4,4,4,4,4,4,4,100,,,,,,,,,,,,,,,,,5,0,0.671313,0.256592,-0.6203,0.314209,0.978147,-0.026859,0.09425,-3.632988,-3.258051,85.819977,,,,,,,,,,,,,,,,,,,,,,,,,,,,,,,,,,,,,,,,,,,,,,,,,,,,,,,,,,,,,,,,,,,,,,,,,,,,,,,,,,,,,,,,,,,,,,,,,,,,,,,,,,
1702363257,1702363257,21,0,4215.128418,4199.230957,4276.025879,4108.717773,4200.256348,4213.589844,4198.333496,4265.512695,4238.205078,4203.974121,4320.512695,4400.641113,4344.102539,4346.282227,0,2,51,,,,0,4,4,4,4,4,4,4,4,4,4,4,4,4,4,100,,,,,,,,,,,,,,,,,,,,,,,,,,,,,,,,,,,,,,,,,,,,,,,,,,,,,,,,,,,,,,,,,,,,,,,,,,,,,,,,,,,,,,,,,,,,,,,,,,,,,,,,,,,,,,,,,,,,,,,,,,,,,,,,,,,,,,
1702363257,1702363257,22,0,4196.922852,4172.692383,4260.641113,4097.94873,4198.461426,4203.589844,4187.692383,4255.897461,4231.153809,4187.179688,4306.666504,4380.769043,4327.820313,4328.974121,0,2,51,,,,0,4,4,4,4,4,4,4,4,4,4,4,4,4,4,100,,,,,,,,,,,,,,,,,,,,,,,,,,,,,,,,,,,,,,,,,,,,,,,,,,,,,,,,,,,,,,,,,,,,,,,,,,,,,,,,,,,,,,,,,,,,,,,,,,,,,,,,,,,,,,,,,,,,,,,,,,,,,,,,,,,,,,
1702363257,1702363257,23,0,4196.794922,4157.820313,4259.871582,4102.179688,4207.436035,4215.128418,4184.358887,4252.307617,4226.153809,4183.974121,4307.05127,4381.282227,4326.410156,4331.282227,0,2,51,,,,0,4,4,4,4,4,4,4,4,4,4,4,4,4,4,100,,,,,,,,,,,,,,,,,,,,,,,,,,,,,,,,,,,,,,,,,,,,,,,,,,,,,,,,,,,,,,,,,,,,,,,,,,,,,,,,,,,,,,,,,,,,,,,,,,,,,,,,,,,,,,,,,,,,,,,,,,,,,,,,,,,,,,
1702363257,1702363257,24,0,4218.589844,4168.333496,4277.563965,4128.589844,4220,4222.05127,4199.743652,4264.743652,4244.230957,4208.717773,4331.922852,4408.205078,4353.077148,4356.025879,0,2,51,,,,0,4,4,4,4,4,4,4,4,4,4,4,4,4,4,100,,,,,,,,,,,,,,,,,6,0,0.67079,0.257141,-0.620483,0.314514,0.984007,-0.03223,0.098157,-3.703022,-3.11558,85.771309,,,,,,,,,,,,,,,,,,,,,,,,,,,,,,,,,,,,,,,,,,,,,,,,,,,,,,,,,,,,,,,,,,,,,,,,,,,,,,,,,,,,,,,,,,,,,,,,,,,,,,,,,,
1702363257,1702363257,25,0,4229.743652,4167.563965,4282.563965,4145.512695,4229.230957,4215.384766,4212.436035,4274.615234,4254.230957,4221.410156,4342.820313,4418.333496,4367.692383,4366.666504,0,2,51,,,,0,4,4,4,4,4,4,4,4,4,4,4,4,4,4,100,,,,,,,,,,,,,,,,,,,,,,,,,,,,,,,,,,,,,,,,,,,,,,,,,,,,,,,,,,,,,,,,,,,,,,,,,,,,,,,,,,,,,,,,,,,,,,,,,,,,,,,,,,,,,,,,,,,,,,,,,,,,,,,,,,,,,,
1702363257,1702363257,26,0,4231.282227,4158.846191,4280.641113,4155.384766,4240.256348,4227.05127,4218.846191,4276.794922,4251.282227,4217.436035,4339.871582,4416.538574,4365.256348,4364.358887,0,2,51,,,,0,4,4,4,4,4,4,4,4,4,4,4,4,4,4,100,,,,,,,,,,,,,,,,,,,,,,,,,,,,,,,,,,,,,,,,,,,,,,,,,,,,,,,,,,,,,,,,,,,,,,,,,,,,,,,,,,,,,,,,,,,,,,,,,,,,,,,,,,,,,,,,,,,,,,,,,,,,,,,,,,,,,,
1702363257,1702363257,27,0,4224.871582,4150.128418,4279.743652,4157.94873,4234.487305,4230.128418,4216.153809,4272.05127,4246.153809,4209.871582,4336.922852,4410.897461,4355,4359.487305,0,2,51,,,,0,4,4,4,4,4,4,4,4,4,4,4,4,4,4,100,,,,,,,,,,,,,,,,,,,,,,,,,,,,,,,,,,,,,,,,,,,,,,,,,,,,,,,,,,,,,,,,,,,,,,,,,,,,,,,,,,,,,,,,,,,,,,,,,,,,,,,,,,,,,,,,,,,,,,,,,,,,,,,,,,,,,,
1702363257,1702363257,28,0,4201.794922,4118.461426,4262.436035,4140.128418,4198.846191,4203.974121,4194.358887,4251.666504,4231.666504,4186.538574,4318.717773,4383.333496,4329.230957,4336.153809,0,2,51,,,,0,4,4,4,4,4,4,4,4,4,4,4,4,4,4,100,,,,,,,,,,,,,,,,,7,0,0.67024,0.258057,-0.620605,0.314697,0.99182,-0.042974,0.10011,-3.849387,-3.104022,85.64418,,,,,,,,,,,,,,,,,,,,,,,,,,,,,,,,,,,,,,,,,,,,,,,,,,,,,,,,,,,,,,,,,,,,,,,,,,,,,,,,,,,,,,,,,,,,,,,,,,,,,,,,,,
1702363257,1702363257,29,0,4207.05127,4108.974121,4263.077148,4150,4191.153809,4209.615234,4196.153809,4250,4232.436035,4184.743652,4322.436035,4386.666504,4335,4339.102539,0,2,51,,,,0,4,4,4,4,4,4,4,4,4,4,4,4,4,4,100,,,,,,,,,,,,,,,,,,,,,,,,,,,,,,,,,,,,,,,,,,,,,,,,,,,,,,,,,,,,,,,,,,,,,,,,,,,,,,,,,,,,,,,,,,,,,,,,,,,,,,,,,,,,,,,,,,,,,,,,,,,,,,,,,,,,,,
1702363257,1702363257,30,0,4236.538574,4132.05127,4288.205078,4186.666504,4231.666504,4236.794922,4219.615234,4273.974121,4256.025879,4213.077148,4356.025879,4422.436035,4369.615234,4375.128418,0,2,51,,,,0,4,4,4,4,4,4,4,4,4,4,4,4,4,4,100,,,,,,,,,,,,,,,,,,,,,,,,,,,,,,,,,,,,,,,,,,,,,,,,,,,,,,,,,,,,,,,,,103.177132,11.37679,1.994004,1.592035,1.526893,186.146667,31.629982,5.310334,1.877858,1.846273,13.978886,2.358641,0.946136,0.855011,0.937998,82.603867,7.168722,3.339703,1.794159,2.114397,13.586767,2.549972,0.773151,1.928842,2.425801,6.101241,0.812397,0.605223,0.853943,1.052316,9.664216,1.51072,1.39731,1.385281,1.329172,3.631725,0.660007,0.556821,0.859428,0.691816,5.191491,1.657838,0.799555,0.978377,1.045241,10.247423,3.357965,1.115945,1.672142,1.563867,62.717308,10.151597,2.870184,2.326333,2.469248,27.892929,6.072377,2.062196,2.50557,2.314141,45.30571,10.777692,2.515307,2.282467,2.501199,95.197586,13.738812,2.737751,2.082781,2.045653
1702363257,1702363257,31,0,4225.256348,4114.487305,4279.487305,4178.077148,4237.563965,4220.769043,4207.05127,4271.794922,4252.179688,4211.922852,4351.410156,4411.153809,4359.743652,4367.436035,0,2,51,,,,0,4,4,4,4,4,4,4,4,4,4,4,4,4,4,100,,,,,,,,,,,,,,,,,,,,,,,,,,,,,,,,,,,,,,,,,,,,,,,,,,,,,,,,,,,,,,,,,,,,,,,,,,,,,,,,,,,,,,,,,,,,,,,,,,,,,,,,,,,,,,,,,,,,,,,,,,,,,,,,,,,,,,
1702363257,1702363257,32,0,4204.871582,4087.94873,4256.282227,4159.102539,4212.179688,4207.179688,4191.794922,4254.743652,4230.384766,4194.615234,4327.436035,4387.307617,4335.128418,4340.897461,0,2,51,,,,0,4,4,4,4,4,4,4,4,4,4,4,4,4,4,100,,,,,,,,,,,,,,,,,8,0,0.669549,0.259033,-0.620728,0.315125,0.995239,-0.032719,0.102063,-3.814448,-3.29362,85.613098,,,,,,,,,,,,,,,,,,,,,,,,,,,,,,,,,,,,,,,,,,,,,,,,,,,,,,,,,,,,,,,,,,,,,,,,,,,,,,,,,,,,,,,,,,,,,,,,,,,,,,,,,,
1702363257,1702363257,33,0,4225.641113,4118.846191,4273.589844,4186.794922,4226.025879,4232.692383,4211.025879,4265,4238.717773,4207.820313,4348.717773,4409.230957,4357.563965,4360.897461,0,2,51,,,,0,4,4,4,4,4,4,4,4,4,4,4,4,4,4,100,,,,,,,,,,,,,,,,,,,,,,,,,,,,,,,,,,,,,,,,,,,,,,,,,,,,,,,,,,,,,,,,,,,,,,,,,,,,,,,,,,,,,,,,,,,,,,,,,,,,,,,,,,,,,,,,,,,,,,,,,,,,,,,,,,,,,,
1702363257,1702363257,34,0,4234.358887,4140,4285.897461,4205.384766,4239.487305,4237.05127,4213.077148,4275.897461,4252.563965,4222.436035,4369.487305,4423.846191,4376.410156,4381.922852,0,2,51,,,,0,4,4,4,4,4,4,4,4,4,4,4,4,4,4,100,,,,,,,,,,,,,,,,,,,,,,,,,,,,,,,,,,,,,,,,,,,,,,,,,,,,,,,,,,,,,,,,,,,,,,,,,,,,,,,,,,,,,,,,,,,,,,,,,,,,,,,,,,,,,,,,,,,,,,,,,,,,,,,,,,,,,,
1702363257,1702363257,35,0,4215.384766,4123.589844,4268.461426,4192.820313,4216.282227,4212.307617,4194.743652,4266.794922,4246.794922,4215.897461,4353.846191,4410.256348,4361.282227,4369.743652,0,2,51,,,,0,4,4,4,4,4,4,4,4,4,4,4,4,4,4,100,,,,,,,,,,,,,,,,,,,,,,,,,,,,,,,,,,,,,,,,,,,,,,,,,,,,,,,,,,,,,,,,,,,,,,,,,,,,,,,,,,,,,,,,,,,,,,,,,,,,,,,,,,,,,,,,,,,,,,,,,,,,,,,,,,,,,,
1702363257,1702363257,36,0,4218.077148,4127.692383,4268.846191,4197.179688,4208.333496,4215.897461,4207.179688,4264.487305,4245.641113,4215,4349.358887,4410.384766,4360.256348,4368.205078,0,2,51,,,,0,4,4,4,4,4,4,4,4,4,4,4,4,4,4,100,,,,,,,,,,,,,,,,,9,0,0.66885,0.260315,-0.620728,0.315552,0.983518,-0.024417,0.093761,-3.783003,-3.230924,85.585121,,,,,,,,,,,,,,,,,,,,,,,,,,,,,,,,,,,,,,,,,,,,,,,,,,,,,,,,,,,,,,,,,,,,,,,,,,,,,,,,,,,,,,,,,,,,,,,,,,,,,,,,,,
1702363257,1702363257,37,0,4223.461426,4136.025879,4277.563965,4207.436035,4219.743652,4238.589844,4225.769043,4266.922852,4252.307617,4218.717773,4355.769043,4409.102539,4364.615234,4374.358887,0,2,51,,,,0,4,4,4,4,4,4,4,4,4,4,4,4,4,4,100,,,,,,,,,,,,,,,,,,,,,,,,,,,,,,,,,,,,,,,,,,,,,,,,,,,,,,,,,,,,,,,,,,,,,,,,,,,,,,,,,,,,,,,,,,,,,,,,,,,,,,,,,,,,,,,,,,,,,,,,,,,,,,,,,,,,,,
1702363257,1702363257,38,0,4217.563965,4132.820313,4272.436035,4208.205078,4222.94873,4236.922852,4217.94873,4265.512695,4249.743652,4215.897461,4350.641113,4398.846191,4353.589844,4375.128418,0,2,51,,,,0,4,4,4,4,4,4,4,4,4,4,4,4,4,4,100,,,,,,,,,,,,,,,,,,,,,,,,,,,,,,,,,,,,,,,,,,,,,,,,,,,,,,,,,,,,,,,,,,,,,,,,,,,,,,,,,,,,,,,,,,,,,,,,,,,,,,,,,,,,,,,,,,,,,,,,,,,,,,,,,,,,,,
1702363257,1702363257,39,0,4227.820313,4152.436035,4274.871582,4220.769043,4235.512695,4227.436035,4215.128418,4272.179688,4249.358887,4218.205078,4354.743652,4410.641113,4355.384766,4389.871582,0,2,51,,,,0,4,4,4,4,4,4,4,4,4,4,4,4,4,4,100,,,,,,,,,,,,,,,,,,,,,,,,,,,,,,,,,,,,,,,,,,,,,,,,,,,,,,,,,,,,,,,,,,,,,,,,,,,,,,,,,,,,,,,,,,,,,,,,,,,,,,,,,,,,,,,,,,,,,,,,,,,,,,,,,,,,,,
1702363257,1702363257,40,0,4237.692383,4170.769043,4282.179688,4233.717773,4251.153809,4230.641113,4224.230957,4278.461426,4255,4226.538574,4367.820313,4427.820313,4364.743652,4402.94873,0,2,51,,,,0,4,4,4,4,4,4,4,4,4,4,4,4,4,4,100,,,,,,,,,,,,,,,,,10,0,0.668022,0.262207,-0.620605,0.315979,1.001099,-0.004883,0.098645,-3.754703,-3.124498,85.35994,,,,,,,,,,,,,,,,,,,,,,,,,,,,,,,,,,,,,,,,,,,,,,,,,,,,,,,,,,,,,,,,,,,,,,,,,,,,,,,,,,,,,,,,,,,,,,,,,,,,,,,,,,
1702363257,1702363257,41,0,4236.794922,4164.743652,4281.666504,4235,4249.487305,4240.256348,4228.846191,4277.05127,4256.922852,4230.641113,4374.358887,4430.512695,4365.384766,4403.974121,0,2,51,,,,0,4,4,4,4,4,4,4,4,4,4,4,4,4,4,100,,,,,,,,,,,,,,,,,,,,,,,,,,,,,,,,,,,,,,,,,,,,,,,,,,,,,,,,,,,,,,,,,,,,,,,,,,,,,,,,,,,,,,,,,,,,,,,,,,,,,,,,,,,,,,,,,,,,,,,,,,,,,,,,,,,,,,
1702363257,1702363257,42,0,4232.436035,4152.94873,4273.333496,4228.077148,4234.358887,4236.025879,4218.077148,4268.846191,4249.487305,4220,4367.05127,4418.205078,4353.461426,4400.256348,0,2,51,,,,0,4,4,4,4,4,4,4,4,4,4,4,4,4,4,100,,,,,,,,,,,,,,,,,,,,,,,,,,,,,,,,,,,,,,,,,,,,,,,,,,,,,,,,,,,,,,,,,,,,,,,,,,,,,,,,,,,,,,,,,,,,,,,,,,,,,,,,,,,,,,,,,,,,,,,,,,,,,,,,,,,,,,
1702363257,1702363257,43,0,4205.256348,4128.205078,4249.871582,4202.436035,4198.205078,4208.205078,4187.820313,4248.717773,4225.641113,4189.615234,4335.256348,4384.230957,4320.256348,4373.077148,0,2,51,,,,0,4,4,4,4,4,4,4,4,4,4,4,4,4,4,100,,,,,,,,,,,,,,,,,,,,,,,,,,,,,,,,,,,,,,,,,,,,,,,,,,,,,,,,,,,,,,,,,,,,,,,,,,,,,,,,,,,,,,,,,,,,,,,,,,,,,,,,,,,,,,,,,,,,,,,,,,,,,,,,,,,,,,
1702363257,1702363257,44,0,4190.256348,4116.538574,4243.333496,4198.461426,4176.025879,4197.820313,4180,4246.025879,4218.333496,4177.94873,4324.358887,4374.743652,4304.358887,4359.358887,0,2,51,,,,0,4,4,4,4,4,4,4,4,4,4,4,4,4,4,100,,,,,,,,,,,,,,,,,11,0,0.666849,0.264587,-0.620483,0.316711,0.986937,0.007325,0.074716,-3.695899,-3.145382,85.307281,,,,,,,,,,,,,,,,,,,,,,,,,,,,,,,,,,,,,,,,,,,,,,,,,,,,,,,,,,,,,,,,,,,,,,,,,,,,,,,,,,,,,,,,,,,,,,,,,,,,,,,,,,
1702363257,1702363257,45,0,4217.692383,4139.358887,4267.692383,4227.692383,4199.358887,4212.307617,4203.461426,4267.94873,4244.615234,4209.615234,4357.436035,4404.871582,4327.563965,4388.589844,0,2,51,,,,0,4,4,4,4,4,4,4,4,4,4,4,4,4,4,100,,,,,,,,,,,,,,,,,,,,,,,,,,,,,,,,,,,,,,,,,,,,,,,,,,,,,,,,,,,,,,,,,,,,,,,,,,,,,,,,,,,,,,,,,,,,,,,,,,,,,,,,,,,,,,,,,,,,,,,,,,,,,,,,,,,,,,
1702363257,1702363257,46,0,4222.179688,4137.307617,4270.641113,4227.94873,4216.794922,4212.820313,4205.256348,4266.538574,4250.512695,4218.846191,4365.512695,4405.512695,4336.282227,4396.538574,0,2,51,,,,0,4,4,4,4,4,4,4,4,4,4,4,4,4,4,100,1,8.333333,1,1,1,0,1,1,1,3,3,1,0,1,1,1,,,,,,,,,,,,,,,,,,,,,,,,,,,,,,,,,,,,,,,,,,,,,,,,,77.149155,8.417867,1.729486,1.398171,1.504519,151.961258,23.509439,4.663363,1.887553,1.673213,10.973833,1.94661,0.873841,0.794573,0.952925,60.124084,6.036129,2.628743,1.519898,1.844385,12.104028,2.080789,0.680295,1.830808,2.360721,5.693262,0.769017,0.588103,0.770137,1.012132,8.931677,1.425641,1.350426,1.310939,1.312407,3.23965,0.597979,0.527407,0.749085,0.665643,4.592916,1.42687,0.734424,0.823443,1.016022,8.989195,2.772129,1.010974,1.414493,1.539261,41.298481,7.838483,1.969406,1.997951,2.344108,22.453489,4.817853,1.893176,2.285358,2.258095,36.739902,7.581598,1.957554,1.923879,2.294284,71.895424,10.079338,2.361657,1.811487,1.96564
1702363257,1702363257,47,0,4203.077148,4114.358887,4257.563965,4217.436035,4218.461426,4214.743652,4195.256348,4255.641113,4237.179688,4200.769043,4352.692383,4392.94873,4322.179688,4378.461426,0,2,51,,,,0,4,4,4,4,4,4,4,4,4,4,4,4,4,4,100,,,,,,,,,,,,,,,,,,,,,,,,,,,,,,,,,,,,,,,,,,,,,,,,,,,,,,,,,,,,,,,,,,,,,,,,,,,,,,,,,,,,,,,,,,,,,,,,,,,,,,,,,,,,,,,,,,,,,,,,,,,,,,,,,,,,,,
1702363257,1702363257,48,0,4208.846191,4120.769043,4262.307617,4231.025879,4218.333496,4223.974121,4202.94873,4261.538574,4241.282227,4206.922852,4360.256348,4405.897461,4318.333496,4380.128418,0,2,51,,,,0,4,4,4,4,4,4,4,4,4,4,4,4,4,4,100,,,,,,,,,,,,,,,,,12,0,0.665992,0.266296,-0.620361,0.317322,0.973263,0.034672,0.087901,-3.876309,-3.030844,85.293221,,,,,,,,,,,,,,,,,,,,,,,,,,,,,,,,,,,,,,,,,,,,,,,,,,,,,,,,,,,,,,,,,,,,,,,,,,,,,,,,,,,,,,,,,,,,,,,,,,,,,,,,,,
1702363257,1702363257,49,0,4216.025879,4137.94873,4263.077148,4237.307617,4204.743652,4209.743652,4199.358887,4255,4240.256348,4211.153809,4359.487305,4403.846191,4311.410156,4382.94873,0,2,51,,,,0,4,4,4,4,4,4,4,4,4,4,4,4,4,4,100,,,,,,,,,,,,,,,,,,,,,,,,,,,,,,,,,,,,,,,,,,,,,,,,,,,,,,,,,,,,,,,,,,,,,,,,,,,,,,,,,,,,,,,,,,,,,,,,,,,,,,,,,,,,,,,,,,,,,,,,,,,,,,,,,,,,,,
1702363257,1702363257,50,0,4225.384766,4161.538574,4264.615234,4245.384766,4207.436035,4204.615234,4194.871582,4252.179688,4231.410156,4203.333496,4356.282227,4402.820313,4307.307617,4388.846191,0,2,51,,,,0,4,4,4,4,4,4,4,4,4,4,4,4,4,4,100,,,,,,,,,,,,,,,,,,,,,,,,,,,,,,,,,,,,,,,,,,,,,,,,,,,,,,,,,,,,,,,,,,,,,,,,,,,,,,,,,,,,,,,,,,,,,,,,,,,,,,,,,,,,,,,,,,,,,,,,,,,,,,,,,,,,,,
1702363257,1702363257,51,0,4241.410156,4194.615234,4273.205078,4266.153809,4221.794922,4225.128418,4203.974121,4264.102539,4237.436035,4204.871582,4359.102539,4413.461426,4300.897461,4397.436035,0,2,51,,,,0,4,4,4,4,4,4,4,4,4,4,4,4,4,4,100,,,,,,,,,,,,,,,,,,,,,,,,,,,,,,,,,,,,,,,,,,,,,,,,,,,,,,,,,,,,,,,,,,,,,,,,,,,,,,,,,,,,,,,,,,,,,,,,,,,,,,,,,,,,,,,,,,,,,,,,,,,,,,,,,,,,,,
1702363257,1702363257,52,0,4237.05127,4205.897461,4266.282227,4268.846191,4208.846191,4220.641113,4196.410156,4258.333496,4234.487305,4197.179688,4337.94873,4396.794922,4270.256348,4382.820313,0,2,51,,,,0,4,4,4,4,4,4,4,4,4,4,4,4,4,4,100,,,,,,,,,,,,,,,,,13,0,0.663693,0.271484,-0.619385,0.319641,0.973263,0.036626,0.083995,-3.955345,-2.877759,85.063896,,,,,,,,,,,,,,,,,,,,,,,,,,,,,,,,,,,,,,,,,,,,,,,,,,,,,,,,,,,,,,,,,,,,,,,,,,,,,,,,,,,,,,,,,,,,,,,,,,,,,,,,,,
1702363257,1702363257,53,0,4239.230957,4215,4264.615234,4273.846191,4196.922852,4202.179688,4188.974121,4250.769043,4223.846191,4183.205078,4322.563965,4388.205078,4251.538574,4378.974121,0,2,51,,,,0,4,4,4,4,4,4,4,4,4,4,4,4,4,4,100,,,,,,,,,,,,,,,,,,,,,,,,,,,,,,,,,,,,,,,,,,,,,,,,,,,,,,,,,,,,,,,,,,,,,,,,,,,,,,,,,,,,,,,,,,,,,,,,,,,,,,,,,,,,,,,,,,,,,,,,,,,,,,,,,,,,,,
1702363257,1702363257,54,0,4263.205078,4242.563965,4280,4295.512695,4216.666504,4210.897461,4202.05127,4258.333496,4228.077148,4192.179688,4337.820313,4410.512695,4259.102539,4401.538574,0,2,51,,,,0,4,4,4,4,4,4,4,4,4,4,4,4,4,4,100,,,,,,,,,,,,,,,,,,,,,,,,,,,,,,,,,,,,,,,,,,,,,,,,,,,,,,,,,,,,,,,,,,,,,,,,,,,,,,,,,,,,,,,,,,,,,,,,,,,,,,,,,,,,,,,,,,,,,,,,,,,,,,,,,,,,,,
1702363257,1702363257,55,0,4260.769043,4242.436035,4275.128418,4292.05127,4222.563965,4213.974121,4202.436035,4254.102539,4224.230957,4190.384766,4336.282227,4405.641113,4246.410156,4394.871582,0,2,51,,,,0,4,4,4,4,4,4,4,4,4,4,4,4,4,4,100,,,,,,,,,,,,,,,,,,,,,,,,,,,,,,,,,,,,,,,,,,,,,,,,,,,,,,,,,,,,,,,,,,,,,,,,,,,,,,,,,,,,,,,,,,,,,,,,,,,,,,,,,,,,,,,,,,,,,,,,,,,,,,,,,,,,,,
1702363257,1702363257,56,0,4236.410156,4205.256348,4258.205078,4271.282227,4200.769043,4198.205078,4187.05127,4243.589844,4210.384766,4165.641113,4314.102539,4381.794922,4216.025879,4368.461426,0,2,51,,,,0,4,4,4,4,4,4,4,4,4,4,4,4,4,4,100,,,,,,,,,,,,,,,,,14,0,0.66117,0.278198,-0.616943,0.323792,0.981077,0.023929,0.075204,-3.909811,-2.923317,85.007507,,,,,,,,,,,,,,,,,,,,,,,,,,,,,,,,,,,,,,,,,,,,,,,,,,,,,,,,,,,,,,,,,,,,,,,,,,,,,,,,,,,,,,,,,,,,,,,,,,,,,,,,,,
1702363257,1702363257,57,0,4238.717773,4187.05127,4266.282227,4276.666504,4199.743652,4208.205078,4193.077148,4247.94873,4220.384766,4170.256348,4318.077148,4389.102539,4216.538574,4371.922852,0,2,51,,,,0,4,4,4,4,4,4,4,4,4,4,4,4,4,4,100,,,,,,,,,,,,,,,,,,,,,,,,,,,,,,,,,,,,,,,,,,,,,,,,,,,,,,,,,,,,,,,,,,,,,,,,,,,,,,,,,,,,,,,,,,,,,,,,,,,,,,,,,,,,,,,,,,,,,,,,,,,,,,,,,,,,,,
1702363257,1702363257,58,0,4247.563965,4188.974121,4278.333496,4289.871582,4219.615234,4221.922852,4203.589844,4251.922852,4235.641113,4192.692383,4331.794922,4401.666504,4231.025879,4379.358887,0,2,51,,,,0,4,4,4,4,4,4,4,4,4,4,4,4,4,4,100,,,,,,,,,,,,,,,,,,,,,,,,,,,,,,,,,,,,,,,,,,,,,,,,,,,,,,,,,,,,,,,,,,,,,,,,,,,,,,,,,,,,,,,,,,,,,,,,,,,,,,,,,,,,,,,,,,,,,,,,,,,,,,,,,,,,,,
1702363257,1702363257,59,0,4230.256348,4169.230957,4266.666504,4275,4213.333496,4204.358887,4190,4245.128418,4220.641113,4180.128418,4319.743652,4387.307617,4221.794922,4359.871582,0,2,51,,,,0,4,4,4,4,4,4,4,4,4,4,4,4,4,4,100,,,,,,,,,,,,,,,,,,,,,,,,,,,,,,,,,,,,,,,,,,,,,,,,,,,,,,,,,,,,,,,,,,,,,,,,,,,,,,,,,,,,,,,,,,,,,,,,,,,,,,,,,,,,,,,,,,,,,,,,,,,,,,,,,,,,,,
1702363257,1702363257,60,0,4208.717773,4140.769043,4251.410156,4251.282227,4191.666504,4197.307617,4178.461426,4239.615234,4202.436035,4157.179688,4302.307617,4370.897461,4207.05127,4340.256348,0,2,51,,,,0,4,4,4,4,4,4,4,4,4,4,4,4,4,4,100,,,,,,,,,,,,,,,,,15,0,0.657873,0.28595,-0.614075,0.329163,1.011354,0.025394,0.088878,-3.952163,-2.814318,84.790092,,,,,,,,,,,,,,,,,,,,,,,,,,,,,,,,,,,,,,,,,,,,,,,,,,,,,,,,,,,,,,,,,,,,,,,,,,,,,,,,,,,,,,,,,,,,,,,,,,,,,,,,,,
1702363257,1702363257,61,0,4229.358887,4161.794922,4269.615234,4275.128418,4220.256348,4227.94873,4207.820313,4255.641113,4223.589844,4186.538574,4333.077148,4402.05127,4240,4366.153809,0,2,51,,,,0,4,4,4,4,4,4,4,4,4,4,4,4,4,4,100,,,,,,,,,,,,,,,,,,,,,,,,,,,,,,,,,,,,,,,,,,,,,,,,,,,,,,,,,,,,,,,,,,,,,,,,,,,,,,,,,,,,,,,,,,,,,,,,,,,,,,,,,,,,,,,,,,,,,,,,,,,,,,,,,,,,,,
1702363257,1702363257,62,0,4279.743652,4216.153809,4308.333496,4327.179688,4264.743652,4251.282227,4255.384766,4287.563965,4262.692383,4240.384766,4395.256348,4463.333496,4299.871582,4417.692383,0,2,51,,,,0,4,4,4,4,4,4,4,4,4,4,4,4,4,4,100,,,,,,,,,,,,,,,,,,,,,,,,,,,,,,,,,,,,,,,,,,,,,,,,,,,,,,,,,,,,,,,,,49.313427,5.399031,1.441295,1.278533,1.472469,109.215546,14.787212,3.749815,1.93472,1.616771,7.997687,1.512269,0.808523,0.788569,0.958557,41.886593,5.081885,2.113427,1.376873,1.642946,10.708686,1.737402,0.594078,1.919859,2.395929,5.468908,0.728723,0.533388,0.737202,0.970789,8.413365,1.398611,1.261569,1.295889,1.279843,2.924641,0.56487,0.489663,0.680625,0.630885,4.10361,1.209937,0.675689,0.73365,0.973695,7.929463,2.212321,0.929799,1.282044,1.512139,26.162495,5.482683,1.312186,1.815828,2.161445,16.945629,3.551582,1.679715,2.149089,2.178652,26.592299,4.687825,1.433558,1.686832,2.054248,47.088486,6.421663,1.92349,1.607113,1.865376
1702363258,1702363258,63,0,4300.897461,4239.358887,4325.641113,4344.358887,4264.871582,4251.025879,4273.461426,4303.589844,4284.102539,4257.94873,4418.077148,4489.358887,4317.307617,4435.512695,0,2,51,,,,0,4,4,4,4,4,4,4,4,4,4,4,4,4,4,100,,,,,,,,,,,,,,,,,,,,,,,,,,,,,,,,,,,,,,,,,,,,,,,,,,,,,,,,,,,,,,,,,,,,,,,,,,,,,,,,,,,,,,,,,,,,,,,,,,,,,,,,,,,,,,,,,,,,,,,,,,,,,,,,,,,,,,
1702363258,1702363258,64,0,4299.487305,4232.436035,4326.410156,4344.102539,4265,4257.436035,4275,4307.94873,4293.589844,4263.333496,4415.512695,4490.128418,4314.487305,4436.025879,4291,2,51,,,,0,4,4,4,4,4,4,4,4,4,4,4,4,4,4,100,,,,,,,,,,,,,,,,,16,0,0.653564,0.296692,-0.609863,0.335999,0.983518,0.050787,0.075204,-4.073613,-2.549553,84.67775,,,,,,,,,,,,,,,,,,,,,,,,,,,,,,,,,,,,,,,,,,,,,,,,,,,,,,,,,,,,,,,,,,,,,,,,,,,,,,,,,,,,,,,,,,,,,,,,,,,,,,,,,,
1702363258,1702363258,65,0,4303.589844,4215.897461,4326.538574,4355.897461,4283.205078,4268.717773,4278.205078,4309.487305,4292.563965,4274.615234,4421.282227,4492.563965,4322.05127,4441.025879,5485,2,51,,,,0,4,4,4,4,4,4,4,4,4,4,4,4,4,4,100,,,,,,,,,,,,,,,,,,,,,,,,,,,,,,,,,,,,,,,,,,,,,,,,,,,,,,,,,,,,,,,,,,,,,,,,,,,,,,,,,,,,,,,,,,,,,,,,,,,,,,,,,,,,,,,,,,,,,,,,,,,,,,,,,,,,,,
1702363258,1702363258,66,0,4314.743652,4206.922852,4327.692383,4370.128418,4295.512695,4277.820313,4283.846191,4310.897461,4296.282227,4285.384766,4429.871582,4494.358887,4331.025879,4445.512695,5526,2,51,,,,0,4,4,4,4,4,4,4,4,4,4,4,4,4,4,100,,,,,,,,,,,,,,,,,,,,,,,,,,,,,,,,,,,,,,,,,,,,,,,,,,,,,,,,,,,,,,,,,,,,,,,,,,,,,,,,,,,,,,,,,,,,,,,,,,,,,,,,,,,,,,,,,,,,,,,,,,,,,,,,,,,,,,
1702363258,1702363258,67,0,4314.487305,4203.461426,4328.974121,4374.743652,4291.922852,4279.102539,4293.974121,4321.282227,4317.563965,4299.743652,4438.589844,4499.102539,4335.641113,4446.794922,5541,2,51,,,,0,4,4,4,4,4,4,4,4,4,4,4,4,4,4,100,,,,,,,,,,,,,,,,,,,,,,,,,,,,,,,,,,,,,,,,,,,,,,,,,,,,,,,,,,,,,,,,,,,,,,,,,,,,,,,,,,,,,,,,,,,,,,,,,,,,,,,,,,,,,,,,,,,,,,,,,,,,,,,,,,,,,,
1702363258,1702363258,68,0,4295.897461,4183.846191,4321.922852,4361.666504,4287.436035,4271.153809,4294.487305,4320,4312.692383,4294.358887,4433.717773,4495,4323.333496,4430.512695,5470,2,51,,,,0,4,4,4,4,4,4,4,4,4,4,4,4,4,4,100,,,,,,,,,,,,,,,,,17,0,0.648039,0.310242,-0.604431,0.344177,1.005982,0.056159,0.057624,-4.166252,-2.144598,84.393303,,,,,,,,,,,,,,,,,,,,,,,,,,,,,,,,,,,,,,,,,,,,,,,,,,,,,,,,,,,,,,,,,,,,,,,,,,,,,,,,,,,,,,,,,,,,,,,,,,,,,,,,,,
1702363258,1702363258,69,0,4279.230957,4159.871582,4306.025879,4344.615234,4286.282227,4263.077148,4276.410156,4298.589844,4279.230957,4262.05127,4406.538574,4469.102539,4294.871582,4403.205078,4235,2,51,,,,0,4,4,4,4,4,4,4,4,4,4,4,4,4,4,100,,,,,,,,,,,,,,,,,,,,,,,,,,,,,,,,,,,,,,,,,,,,,,,,,,,,,,,,,,,,,,,,,,,,,,,,,,,,,,,,,,,,,,,,,,,,,,,,,,,,,,,,,,,,,,,,,,,,,,,,,,,,,,,,,,,,,,
1702363258,1702363258,70,0,4288.974121,4174.743652,4313.846191,4365.897461,4291.282227,4270.769043,4280.128418,4298.333496,4281.410156,4260.897461,4406.666504,4474.230957,4299.487305,4415.384766,5257,2,51,,,,0,4,4,4,4,4,4,4,4,4,4,4,4,4,4,100,,,,,,,,,,,,,,,,,,,,,,,,,,,,,,,,,,,,,,,,,,,,,,,,,,,,,,,,,,,,,,,,,,,,,,,,,,,,,,,,,,,,,,,,,,,,,,,,,,,,,,,,,,,,,,,,,,,,,,,,,,,,,,,,,,,,,,
1702363258,1702363258,71,0,4331.922852,4219.487305,4353.461426,4420.512695,4316.794922,4294.102539,4320.897461,4325.641113,4317.179688,4302.820313,4454.871582,4531.282227,4342.692383,4470.897461,4002,2,51,,,,0,4,4,4,4,4,4,4,4,4,4,4,4,4,4,100,,,,,,,,,,,,,,,,,,,,,,,,,,,,,,,,,,,,,,,,,,,,,,,,,,,,,,,,,,,,,,,,,,,,,,,,,,,,,,,,,,,,,,,,,,,,,,,,,,,,,,,,,,,,,,,,,,,,,,,,,,,,,,,,,,,,,,
1702363258,1702363258,72,0,4355,4220.256348,4367.05127,4434.871582,4318.461426,4294.358887,4325.897461,4331.922852,4321.410156,4311.153809,4462.05127,4550,4337.436035,4481.025879,4619,2,51,,,,0,4,4,4,4,4,4,4,4,4,4,4,4,4,4,100,,,,,,,,,,,,,,,,,18,0,0.640875,0.328918,-0.595886,0.35498,0.964962,0.127945,0.07667,-4.166294,-1.780138,84.020645,,,,,,,,,,,,,,,,,,,,,,,,,,,,,,,,,,,,,,,,,,,,,,,,,,,,,,,,,,,,,,,,,,,,,,,,,,,,,,,,,,,,,,,,,,,,,,,,,,,,,,,,,,
1702363258,1702363258,73,0,4314.487305,4170.128418,4347.05127,4406.666504,4280,4275.384766,4288.461426,4314.358887,4295.512695,4276.410156,4416.153809,4515.897461,4286.025879,4439.358887,5531,2,51,,,,0,4,4,4,4,4,4,4,4,4,4,4,4,4,4,100,,,,,,,,,,,,,,,,,,,,,,,,,,,,,,,,,,,,,,,,,,,,,,,,,,,,,,,,,,,,,,,,,,,,,,,,,,,,,,,,,,,,,,,,,,,,,,,,,,,,,,,,,,,,,,,,,,,,,,,,,,,,,,,,,,,,,,
1702363258,1702363258,74,0,4278.589844,4126.025879,4335.384766,4395.897461,4252.05127,4259.358887,4271.410156,4302.692383,4278.205078,4256.666504,4393.205078,4497.179688,4255.641113,4425.897461,6052,2,51,,,,0,4,4,4,4,4,4,4,4,4,4,4,4,4,4,100,,,,,,,,,,,,,,,,,,,,,,,,,,,,,,,,,,,,,,,,,,,,,,,,,,,,,,,,,,,,,,,,,,,,,,,,,,,,,,,,,,,,,,,,,,,,,,,,,,,,,,,,,,,,,,,,,,,,,,,,,,,,,,,,,,,,,,
1702363258,1702363258,75,0,4335.512695,4128.077148,4334.743652,4425,4260.128418,4257.179688,4280,4302.563965,4277.436035,4256.025879,4405.769043,4498.846191,4253.205078,4451.025879,6158,2,51,,,,0,4,4,4,4,4,4,4,4,4,4,4,4,4,4,100,,,,,,,,,,,,,,,,,,,,,,,,,,,,,,,,,,,,,,,,,,,,,,,,,,,,,,,,,,,,,,,,,,,,,,,,,,,,,,,,,,,,,,,,,,,,,,,,,,,,,,,,,,,,,,,,,,,,,,,,,,,,,,,,,,,,,,
1702363258,1702363258,76,0,4396.794922,4150.897461,4332.820313,4452.563965,4279.102539,4272.94873,4286.922852,4306.153809,4280.384766,4251.410156,4418.846191,4497.307617,4252.436035,4454.615234,6549,2,51,,,,0,4,4,4,4,4,4,4,4,4,4,4,4,4,4,100,,,,,,,,,,,,,,,,,19,0,0.632823,0.34845,-0.585144,0.368408,0.972775,0.042974,0.092785,-4.116331,-1.152124,83.518578,,,,,,,,,,,,,,,,,,,,,,,,,,,,,,,,,,,,,,,,,,,,,,,,,,,,,,,,,,,,,,,,,,,,,,,,,,,,,,,,,,,,,,,,,,,,,,,,,,,,,,,,,,
1702363258,1702363258,77,0,4368.205078,4157.94873,4343.589844,4459.871582,4304.743652,4291.282227,4298.974121,4314.487305,4286.538574,4262.179688,4432.692383,4512.179688,4260.384766,4445.128418,6788,2,51,,,,0,4,4,4,4,4,4,4,4,4,4,4,4,4,4,100,,,,,,,,,,,,,,,,,,,,,,,,,,,,,,,,,,,,,,,,,,,,,,,,,,,,,,,,,,,,,,,,,,,,,,,,,,,,,,,,,,,,,,,,,,,,,,,,,,,,,,,,,,,,,,,,,,,,,,,,,,,,,,,,,,,,,,
1702363258,1702363258,78,0,4319.487305,4143.461426,4346.794922,4443.717773,4302.179688,4277.94873,4294.487305,4311.153809,4286.025879,4273.333496,4435.128418,4516.666504,4265.512695,4451.410156,6052,2,51,,,,0,4,4,4,4,4,4,4,4,4,4,4,4,4,4,100,,,,,,,,,,,,,,,,,,,,,,,,,,,,,,,,,,,,,,,,,,,,,,,,,,,,,,,,,,,,,,,,,27.341877,3.119161,1.159233,1.258243,1.439226,73.841583,7.804903,2.777368,2.040389,1.576205,5.853528,1.183206,0.73727,0.821554,0.952285,29.681383,4.502728,1.809803,1.36759,1.513248,9.922584,1.611306,0.528842,2.178547,2.444064,5.539212,0.720212,0.445875,0.73805,0.942641,8.34932,1.43744,1.128493,1.308802,1.2246,2.802155,0.570706,0.445834,0.658269,0.590303,3.932914,1.080436,0.62586,0.710378,0.92281,7.478999,1.829578,0.87308,1.260165,1.475803,17.95677,3.686214,0.89809,1.762506,1.949782,12.894365,2.618736,1.431486,2.115635,2.078326,18.168453,2.745852,1.062851,1.627704,1.826858,27.734911,3.6879,1.504319,1.530931,1.769158
1702363258,1702363258,79,0,4300.384766,4105.256348,4313.461426,4398.461426,4237.692383,4235,4250.641113,4282.820313,4260,4240.256348,4399.102539,4470.897461,4237.307617,4428.974121,6158,2,51,,,,0,4,4,4,4,4,4,4,4,4,4,4,4,4,4,100,,,,,,,,,,,,,,,,,,,,,,,,,,,,,,,,,,,,,,,,,,,,,,,,,,,,,,,,,,,,,,,,,,,,,,,,,,,,,,,,,,,,,,,,,,,,,,,,,,,,,,,,,,,,,,,,,,,,,,,,,,,,,,,,,,,,,,
1702363258,1702363258,80,0,4299.871582,4076.538574,4289.615234,4371.282227,4210.769043,4222.436035,4225.897461,4261.922852,4236.538574,4206.282227,4368.717773,4432.436035,4209.358887,4390.641113,6549,2,51,,,,0,4,4,4,4,4,4,4,4,4,4,4,4,4,4,100,,,,,,,,,,,,,,,,,20,0,0.628418,0.357422,-0.579956,0.375488,1.006959,-0.035649,0.110853,-4.204698,-0.636912,82.783386,,,,,,,,,,,,,,,,,,,,,,,,,,,,,,,,,,,,,,,,,,,,,,,,,,,,,,,,,,,,,,,,,,,,,,,,,,,,,,,,,,,,,,,,,,,,,,,,,,,,,,,,,,
1702363258,1702363258,81,0,4292.179688,4073.718018,4293.846191,4372.692383,4235.512695,4229.487305,4230.641113,4264.615234,4232.692383,4202.563965,4366.538574,4430.256348,4210.897461,4378.974121,6788,2,51,,,,0,4,4,4,4,4,4,4,4,4,4,4,4,4,4,100,,,,,,,,,,,,,,,,,,,,,,,,,,,,,,,,,,,,,,,,,,,,,,,,,,,,,,,,,,,,,,,,,,,,,,,,,,,,,,,,,,,,,,,,,,,,,,,,,,,,,,,,,,,,,,,,,,,,,,,,,,,,,,,,,,,,,,
1702363258,1702363258,82,0,4269.871582,4071.281982,4287.563965,4361.282227,4226.666504,4220.512695,4221.794922,4262.307617,4221.410156,4192.436035,4362.05127,4423.205078,4223.461426,4376.538574,6052,2,51,,,,0,4,4,4,4,4,4,4,4,4,4,4,4,4,4,100,,,,,,,,,,,,,,,,,,,,,,,,,,,,,,,,,,,,,,,,,,,,,,,,,,,,,,,,,,,,,,,,,,,,,,,,,,,,,,,,,,,,,,,,,,,,,,,,,,,,,,,,,,,,,,,,,,,,,,,,,,,,,,,,,,,,,,
1702363258,1702363258,83,0,4254.615234,4055.897461,4277.563965,4341.153809,4198.333496,4216.794922,4211.282227,4257.692383,4211.922852,4185,4356.153809,4413.077148,4231.410156,4366.666504,6158,2,51,,,,0,4,4,4,4,4,4,4,4,4,4,4,4,4,4,100,,,,,,,,,,,,,,,,,,,,,,,,,,,,,,,,,,,,,,,,,,,,,,,,,,,,,,,,,,,,,,,,,,,,,,,,,,,,,,,,,,,,,,,,,,,,,,,,,,,,,,,,,,,,,,,,,,,,,,,,,,,,,,,,,,,,,,
1702363258,1702363258,84,0,4257.179688,4045.256348,4281.025879,4339.871582,4196.282227,4223.717773,4218.205078,4262.307617,4221.410156,4193.846191,4358.461426,4415,4234.230957,4356.794922,6549,2,51,,,,0,4,4,4,4,4,4,4,4,4,4,4,4,4,4,100,,,,,,,,,,,,,,,,,21,0,0.619767,0.37262,-0.570862,0.388794,0.992797,-0.078623,0.116225,-4.217561,-0.023221,81.98838,,,,,,,,,,,,,,,,,,,,,,,,,,,,,,,,,,,,,,,,,,,,,,,,,,,,,,,,,,,,,,,,,,,,,,,,,,,,,,,,,,,,,,,,,,,,,,,,,,,,,,,,,,
1702363258,1702363258,85,0,4241.666504,4033.461426,4272.436035,4328.461426,4201.922852,4214.358887,4212.179688,4253.846191,4219.230957,4180.641113,4343.974121,4398.461426,4226.538574,4342.692383,6788,2,51,,,,0,4,4,4,4,4,4,4,4,4,4,4,4,4,4,100,,,,,,,,,,,,,,,,,,,,,,,,,,,,,,,,,,,,,,,,,,,,,,,,,,,,,,,,,,,,,,,,,,,,,,,,,,,,,,,,,,,,,,,,,,,,,,,,,,,,,,,,,,,,,,,,,,,,,,,,,,,,,,,,,,,,,,
1702363258,1702363258,86,0,4224.102539,4016.281982,4261.538574,4311.922852,4198.974121,4204.358887,4202.692383,4245.384766,4210.256348,4168.589844,4332.692383,4382.179688,4234.102539,4338.846191,6052,2,51,,,,0,4,4,4,4,4,4,4,4,4,4,4,4,4,4,100,,,,,,,,,,,,,,,,,,,,,,,,,,,,,,,,,,,,,,,,,,,,,,,,,,,,,,,,,,,,,,,,,,,,,,,,,,,,,,,,,,,,,,,,,,,,,,,,,,,,,,,,,,,,,,,,,,,,,,,,,,,,,,,,,,,,,,
1702363258,1702363258,87,0,4230.769043,4008.718018,4266.794922,4317.307617,4200.769043,4214.743652,4211.025879,4250.897461,4215.641113,4184.102539,4347.692383,4395.256348,4260.256348,4346.153809,6158,2,51,,,,0,4,4,4,4,4,4,4,4,4,4,4,4,4,4,100,,,,,,,,,,,,,,,,,,,,,,,,,,,,,,,,,,,,,,,,,,,,,,,,,,,,,,,,,,,,,,,,,,,,,,,,,,,,,,,,,,,,,,,,,,,,,,,,,,,,,,,,,,,,,,,,,,,,,,,,,,,,,,,,,,,,,,
1702363258,1702363258,88,0,4215.769043,3988.974365,4259.615234,4299.871582,4191.153809,4205.512695,4197.692383,4240.384766,4205,4174.743652,4339.358887,4386.025879,4257.692383,4323.974121,6549,2,51,,,,0,4,4,4,4,4,4,4,4,4,4,4,4,4,4,100,,,,,,,,,,,,,,,,,22,0,0.612284,0.383789,-0.564209,0.399353,1.005494,-0.07667,0.101087,-4.129138,0.545768,81.289543,,,,,,,,,,,,,,,,,,,,,,,,,,,,,,,,,,,,,,,,,,,,,,,,,,,,,,,,,,,,,,,,,,,,,,,,,,,,,,,,,,,,,,,,,,,,,,,,,,,,,,,,,,
1702363258,1702363258,89,0,4196.282227,3969.487061,4252.820313,4278.461426,4190,4196.153809,4187.820313,4235.897461,4198.717773,4162.179688,4328.717773,4371.794922,4254.487305,4315,6788,2,51,,,,0,4,4,4,4,4,4,4,4,4,4,4,4,4,4,100,,,,,,,,,,,,,,,,,,,,,,,,,,,,,,,,,,,,,,,,,,,,,,,,,,,,,,,,,,,,,,,,,,,,,,,,,,,,,,,,,,,,,,,,,,,,,,,,,,,,,,,,,,,,,,,,,,,,,,,,,,,,,,,,,,,,,,
1702363258,1702363258,90,0,4196.282227,3957.692383,4259.615234,4280.897461,4185.512695,4206.153809,4201.794922,4250.128418,4213.974121,4176.282227,4337.307617,4383.205078,4271.538574,4331.282227,6052,2,51,,,,0,4,4,4,4,4,4,4,4,4,4,4,4,4,4,100,,,,,,,,,,,,,,,,,,,,,,,,,,,,,,,,,,,,,,,,,,,,,,,,,,,,,,,,,,,,,,,,,,,,,,,,,,,,,,,,,,,,,,,,,,,,,,,,,,,,,,,,,,,,,,,,,,,,,,,,,,,,,,,,,,,,,,
1702363258,1702363258,91,0,4183.846191,3921.794922,4247.94873,4265,4149.487305,4195.897461,4191.666504,4243.461426,4207.692383,4160.769043,4318.205078,4371.794922,4263.846191,4310.897461,6158,2,51,,,,0,4,4,4,4,4,4,4,4,4,4,4,4,4,4,100,,,,,,,,,,,,,,,,,,,,,,,,,,,,,,,,,,,,,,,,,,,,,,,,,,,,,,,,,,,,,,,,,,,,,,,,,,,,,,,,,,,,,,,,,,,,,,,,,,,,,,,,,,,,,,,,,,,,,,,,,,,,,,,,,,,,,,
1702363258,1702363258,92,0,4179.615234,3906.538574,4244.102539,4258.717773,4158.974121,4189.743652,4183.461426,4236.666504,4196.410156,4147.692383,4314.615234,4368.077148,4261.538574,4305.769043,6549,2,51,,,,0,4,4,4,4,4,4,4,4,4,4,4,4,4,4,100,,,,,,,,,,,,,,,,,23,0,0.606115,0.391724,-0.560303,0.406494,1.004517,-0.094738,0.095226,-4.032891,1.207858,80.310585,,,,,,,,,,,,,,,,,,,,,,,,,,,,,,,,,,,,,,,,,,,,,,,,,,,,,,,,,,,,,,,,,,,,,,,,,,,,,,,,,,,,,,,,,,,,,,,,,,,,,,,,,,
1702363258,1702363258,93,0,4192.94873,3935.769287,4265,4282.179688,4205.512695,4201.666504,4202.05127,4249.743652,4204.871582,4174.487305,4346.794922,4398.846191,4290,4337.94873,6788,2,51,,,,0,4,4,4,4,4,4,4,4,4,4,4,4,4,4,100,,,,,,,,,,,,,,,,,,,,,,,,,,,,,,,,,,,,,,,,,,,,,,,,,,,,,,,,,,,,,,,,,,,,,,,,,,,,,,,,,,,,,,,,,,,,,,,,,,,,,,,,,,,,,,,,,,,,,,,,,,,,,,,,,,,,,,
1702363258,1702363258,94,0,4177.820313,3929.871826,4250.769043,4262.820313,4182.179688,4192.820313,4190.897461,4237.692383,4193.461426,4162.563965,4321.922852,4381.922852,4276.922852,4315.512695,6052,2,51,,,,0,4,4,4,4,4,4,4,4,4,4,4,4,4,4,100,,,,,,,,,,,,,,,,,,,,,,,,,,,,,,,,,,,,,,,,,,,,,,,,,,,,,,,,,,,,,,,,,14.750261,1.999707,0.946395,1.343542,1.410471,50.440941,3.977315,2.069868,2.184747,1.53923,4.778698,1.034751,0.660585,0.878516,0.936329,22.569206,4.332669,1.705663,1.467112,1.436899,9.716034,1.731553,0.513236,2.557569,2.453109,5.776908,0.780964,0.34619,0.754412,0.939173,8.683128,1.552736,0.970164,1.330633,1.154611,2.893592,0.629779,0.398829,0.678194,0.549175,4.173045,1.085452,0.586033,0.746705,0.869437,7.865268,1.749758,0.830131,1.331559,1.43014,14.605952,2.774563,0.689151,1.832942,1.742792,10.856571,2.210632,1.177019,2.196956,1.9584,13.454165,1.979779,0.856555,1.754495,1.646935,16.684122,2.292522,1.174715,1.608415,1.686127
1702363258,1702363258,95,0,4147.436035,3892.435791,4215.897461,4218.717773,4129.487305,4176.153809,4161.025879,4211.794922,4168.205078,4113.846191,4268.846191,4331.922852,4233.717773,4267.563965,6158,2,51,,,,0,4,4,4,4,4,4,4,4,4,4,4,4,4,4,100,,,,,,,,,,,,,,,,,,,,,,,,,,,,,,,,,,,,,,,,,,,,,,,,,,,,,,,,,,,,,,,,,,,,,,,,,,,,,,,,,,,,,,,,,,,,,,,,,,,,,,,,,,,,,,,,,,,,,,,,,,,,,,,,,,,,,,
1702363258,1702363258,96,0,4152.436035,3906.666748,4218.846191,4227.94873,4127.307617,4180.769043,4166.794922,4215,4167.820313,4113.846191,4279.743652,4335.897461,4241.410156,4278.461426,6549,2,51,,,,0,4,4,4,4,4,4,4,4,4,4,4,4,4,4,100,,,,,,,,,,,,,,,,,24,0,0.601992,0.395996,-0.558716,0.410645,0.98303,-0.076181,0.090831,-4.179602,1.737072,79.412865,,,,,,,,,,,,,,,,,,,,,,,,,,,,,,,,,,,,,,,,,,,,,,,,,,,,,,,,,,,,,,,,,,,,,,,,,,,,,,,,,,,,,,,,,,,,,,,,,,,,,,,,,,
1702363258,1702363258,97,0,4159.487305,3938.461426,4229.230957,4245,4137.179688,4178.333496,4168.846191,4221.794922,4173.589844,4133.205078,4296.538574,4349.358887,4262.692383,4292.05127,6788,2,51,,,,0,4,4,4,4,4,4,4,4,4,4,4,4,4,4,100,,,,,,,,,,,,,,,,,,,,,,,,,,,,,,,,,,,,,,,,,,,,,,,,,,,,,,,,,,,,,,,,,,,,,,,,,,,,,,,,,,,,,,,,,,,,,,,,,,,,,,,,,,,,,,,,,,,,,,,,,,,,,,,,,,,,,,
1702363258,1702363258,98,0,4136.282227,3937.307617,4212.94873,4223.974121,4133.077148,4165.128418,4148.333496,4213.974121,4167.307617,4122.179688,4274.615234,4328.717773,4252.179688,4270.641113,6052,2,51,,,,0,4,4,4,4,4,4,4,4,4,4,4,4,4,4,100,,,,,,,,,,,,,,,,,,,,,,,,,,,,,,,,,,,,,,,,,,,,,,,,,,,,,,,,,,,,,,,,,,,,,,,,,,,,,,,,,,,,,,,,,,,,,,,,,,,,,,,,,,,,,,,,,,,,,,,,,,,,,,,,,,,,,,
1702363258,1702363258,99,0,4127.692383,3952.307617,4203.589844,4214.743652,4137.307617,4173.461426,4148.077148,4211.410156,4164.230957,4114.615234,4270.512695,4320.897461,4250.512695,4261.282227,6158,2,51,,,,0,4,4,4,4,4,4,4,4,4,4,4,4,4,4,100,,,,,,,,,,,,,,,,,,,,,,,,,,,,,,,,,,,,,,,,,,,,,,,,,,,,,,,,,,,,,,,,,,,,,,,,,,,,,,,,,,,,,,,,,,,,,,,,,,,,,,,,,,,,,,,,,,,,,,,,,,,,,,,,,,,,,,
1702363258,1702363258,100,0,4148.205078,3997.05127,4211.025879,4229.358887,4143.077148,4184.871582,4160.384766,4218.461426,4172.692383,4123.333496,4288.077148,4333.205078,4267.179688,4266.410156,6549,2,51,,,,0,4,4,4,4,4,4,4,4,4,4,4,4,4,4,100,,,,,,,,,,,,,,,,,25,0,0.599762,0.397217,-0.558899,0.412476,0.990355,-0.043951,0.074228,-4.078309,2.280032,78.588242,,,,,,,,,,,,,,,,,,,,,,,,,,,,,,,,,,,,,,,,,,,,,,,,,,,,,,,,,,,,,,,,,,,,,,,,,,,,,,,,,,,,,,,,,,,,,,,,,,,,,,,,,,
1702363258,1702363258,101,0,4151.666504,4021.153809,4208.333496,4233.846191,4145,4177.563965,4152.436035,4216.025879,4170,4119.230957,4285.256348,4325,4269.102539,4269.102539,6788,2,51,,,,0,4,4,4,4,4,4,4,4,4,4,4,4,4,4,100,,,,,,,,,,,,,,,,,,,,,,,,,,,,,,,,,,,,,,,,,,,,,,,,,,,,,,,,,,,,,,,,,,,,,,,,,,,,,,,,,,,,,,,,,,,,,,,,,,,,,,,,,,,,,,,,,,,,,,,,,,,,,,,,,,,,,,
1702363258,1702363258,102,0,4136.538574,4024.743652,4200.512695,4226.794922,4139.615234,4168.077148,4143.333496,4204.615234,4156.153809,4107.820313,4273.333496,4311.153809,4263.461426,4264.358887,6052,2,51,,,,0,4,4,4,4,4,4,4,4,4,4,4,4,4,4,100,,,,,,,,,,,,,,,,,,,,,,,,,,,,,,,,,,,,,,,,,,,,,,,,,,,,,,,,,,,,,,,,,,,,,,,,,,,,,,,,,,,,,,,,,,,,,,,,,,,,,,,,,,,,,,,,,,,,,,,,,,,,,,,,,,,,,,
1702363258,1702363258,103,0,4126.794922,4039.743652,4200.128418,4227.692383,4112.563965,4169.230957,4150,4205,4158.974121,4107.820313,4270.128418,4315.641113,4263.461426,4247.820313,6158,2,51,,,,0,4,4,4,4,4,4,4,4,4,4,4,4,4,4,100,,,,,,,,,,,,,,,,,,,,,,,,,,,,,,,,,,,,,,,,,,,,,,,,,,,,,,,,,,,,,,,,,,,,,,,,,,,,,,,,,,,,,,,,,,,,,,,,,,,,,,,,,,,,,,,,,,,,,,,,,,,,,,,,,,,,,,
1702363258,1702363258,104,0,4127.692383,4063.205078,4200.384766,4240.641113,4103.205078,4172.05127,4153.333496,4215.641113,4167.692383,4112.179688,4268.461426,4318.333496,4264.358887,4244.615234,6549,2,51,,,,0,4,4,4,4,4,4,4,4,4,4,4,4,4,4,100,,,,,,,,,,,,,,,,,26,0,0.59852,0.397461,-0.559875,0.41272,0.974728,0.004395,0.070321,-4.087144,2.818695,77.91275,,,,,,,,,,,,,,,,,,,,,,,,,,,,,,,,,,,,,,,,,,,,,,,,,,,,,,,,,,,,,,,,,,,,,,,,,,,,,,,,,,,,,,,,,,,,,,,,,,,,,,,,,,
1702363258,1702363258,105,0,4143.461426,4082.179443,4202.179688,4253.205078,4137.563965,4177.820313,4156.282227,4216.794922,4162.563965,4111.153809,4268.589844,4316.153809,4266.538574,4259.230957,6788,2,51,,,,0,4,4,4,4,4,4,4,4,4,4,4,4,4,4,100,,,,,,,,,,,,,,,,,,,,,,,,,,,,,,,,,,,,,,,,,,,,,,,,,,,,,,,,,,,,,,,,,,,,,,,,,,,,,,,,,,,,,,,,,,,,,,,,,,,,,,,,,,,,,,,,,,,,,,,,,,,,,,,,,,,,,,
1702363258,1702363258,106,0,4142.692383,4088.076904,4199.358887,4248.589844,4138.461426,4178.589844,4154.743652,4204.358887,4151.410156,4104.871582,4264.615234,4308.717773,4263.974121,4256.282227,6052,2,51,,,,0,4,4,4,4,4,4,4,4,4,4,4,4,4,4,100,,,,,,,,,,,,,,,,,,,,,,,,,,,,,,,,,,,,,,,,,,,,,,,,,,,,,,,,,,,,,,,,,,,,,,,,,,,,,,,,,,,,,,,,,,,,,,,,,,,,,,,,,,,,,,,,,,,,,,,,,,,,,,,,,,,,,,
1702363258,1702363258,107,0,4117.94873,4089.743652,4186.153809,4236.922852,4085.769287,4156.666504,4134.358887,4195.769043,4150,4100.641113,4254.487305,4293.846191,4253.717773,4240.256348,6158,2,51,,,,0,4,4,4,4,4,4,4,4,4,4,4,4,4,4,100,,,,,,,,,,,,,,,,,,,,,,,,,,,,,,,,,,,,,,,,,,,,,,,,,,,,,,,,,,,,,,,,,,,,,,,,,,,,,,,,,,,,,,,,,,,,,,,,,,,,,,,,,,,,,,,,,,,,,,,,,,,,,,,,,,,,,,
1702363258,1702363258,108,0,4139.615234,4130.512695,4196.282227,4261.025879,4097.94873,4160.512695,4141.922852,4211.282227,4165.641113,4114.743652,4271.794922,4312.307617,4270.128418,4257.436035,6549,2,51,,,,0,4,4,4,4,4,4,4,4,4,4,4,4,4,4,100,,,,,,,,,,,,,,,,,27,0,0.598044,0.397095,-0.560913,0.412354,0.984007,-0.011232,0.067391,-4.17843,3.270159,77.254814,,,,,,,,,,,,,,,,,,,,,,,,,,,,,,,,,,,,,,,,,,,,,,,,,,,,,,,,,,,,,,,,,,,,,,,,,,,,,,,,,,,,,,,,,,,,,,,,,,,,,,,,,,
1702363258,1702363258,109,0,4161.282227,4167.05127,4208.717773,4275.769043,4143.589844,4180.769043,4163.333496,4218.461426,4165.512695,4112.179688,4283.717773,4330.641113,4278.846191,4265,6788,2,51,,,,0,4,4,4,4,4,4,4,4,4,4,4,4,4,4,100,,,,,,,,,,,,,,,,,,,,,,,,,,,,,,,,,,,,,,,,,,,,,,,,,,,,,,,,,,,,,,,,,,,,,,,,,,,,,,,,,,,,,,,,,,,,,,,,,,,,,,,,,,,,,,,,,,,,,,,,,,,,,,,,,,,,,,
1702363258,1702363258,110,0,4106.153809,4141.153809,4177.563965,4230.384766,4097.820313,4156.666504,4131.538574,4191.922852,4131.153809,4073.846191,4237.820313,4287.436035,4227.436035,4219.743652,6052,2,51,,,,0,4,4,4,4,4,4,4,4,4,4,4,4,4,4,100,1,25,1,1,1,1,1,1,1,3,3,1,1,1,1,1,,,,,,,,,,,,,,,,,,,,,,,,,,,,,,,,,,,,,,,,,,,,,,,,,9.953176,1.97826,0.862606,1.53074,1.413283,41.353741,3.52057,1.874318,2.373658,1.51451,4.455912,1.063251,0.614772,0.961597,0.915804,17.931667,4.519628,1.757693,1.644865,1.393183,9.993744,2.037338,0.54229,3.008036,2.392874,6.145659,0.918851,0.252315,0.784117,0.962855,9.320232,1.750265,0.818728,1.373543,1.091232,3.222628,0.759583,0.362756,0.734649,0.515747,4.949433,1.231014,0.562394,0.83748,0.827552,9.331435,2.003034,0.795203,1.482039,1.384495,14.341539,2.756213,0.600991,2.023511,1.57532,10.530429,2.313631,0.996816,2.407818,1.827669,13.604102,2.205657,0.763762,2.027697,1.52956,12.806053,2.052329,1.00102,1.826221,1.619989
1702363258,1702363258,111,0,4068.718018,4128.077148,4154.615234,4201.538574,4048.974365,4132.307617,4103.077148,4176.282227,4114.102539,4060.897461,4202.307617,4251.538574,4184.230957,4190.384766,6158,2,51,,,,0,4,4,4,4,4,4,4,4,4,4,4,4,4,4,100,,,,,,,,,,,,,,,,,,,,,,,,,,,,,,,,,,,,,,,,,,,,,,,,,,,,,,,,,,,,,,,,,,,,,,,,,,,,,,,,,,,,,,,,,,,,,,,,,,,,,,,,,,,,,,,,,,,,,,,,,,,,,,,,,,,,,,
1702363258,1702363258,112,0,4085,4162.692383,4163.461426,4214.487305,4077.435791,4143.974121,4115.897461,4184.230957,4122.692383,4072.692383,4212.436035,4263.077148,4199.871582,4197.05127,6549,2,51,,,,0,4,4,4,4,4,4,4,4,4,4,4,4,4,4,100,,,,,,,,,,,,,,,,,28,0,0.59789,0.396545,-0.561646,0.412109,0.984007,0.024905,0.059578,-4.110587,3.443143,76.929329,,,,,,,,,,,,,,,,,,,,,,,,,,,,,,,,,,,,,,,,,,,,,,,,,,,,,,,,,,,,,,,,,,,,,,,,,,,,,,,,,,,,,,,,,,,,,,,,,,,,,,,,,,
1702363258,1702363258,113,0,4084.615479,4184.230957,4158.333496,4208.717773,4083.589844,4146.538574,4113.461426,4177.692383,4114.487305,4059.487061,4209.871582,4257.179688,4212.94873,4190.256348,6788,2,51,,,,0,4,4,4,4,4,4,4,4,4,4,4,4,4,4,100,,,,,,,,,,,,,,,,,,,,,,,,,,,,,,,,,,,,,,,,,,,,,,,,,,,,,,,,,,,,,,,,,,,,,,,,,,,,,,,,,,,,,,,,,,,,,,,,,,,,,,,,,,,,,,,,,,,,,,,,,,,,,,,,,,,,,,
1702363258,1702363258,114,0,4069.102539,4186.538574,4142.436035,4188.077148,4042.307617,4128.974121,4094.487061,4165.512695,4106.538574,4038.333252,4192.94873,4236.282227,4194.615234,4177.307617,6052,2,51,,,,0,4,4,4,4,4,4,4,4,4,4,4,4,4,4,100,,,,,,,,,,,,,,,,,,,,,,,,,,,,,,,,,,,,,,,,,,,,,,,,,,,,,,,,,,,,,,,,,,,,,,,,,,,,,,,,,,,,,,,,,,,,,,,,,,,,,,,,,,,,,,,,,,,,,,,,,,,,,,,,,,,,,,
1702363258,1702363258,115,0,4067.692383,4205.769043,4148.974121,4197.307617,4047.820557,4134.615234,4104.102539,4173.461426,4120,4049.358887,4198.589844,4249.743652,4191.538574,4184.358887,6158,2,51,,,,0,4,4,4,4,4,4,4,4,4,4,4,4,4,4,100,,,,,,,,,,,,,,,,,,,,,,,,,,,,,,,,,,,,,,,,,,,,,,,,,,,,,,,,,,,,,,,,,,,,,,,,,,,,,,,,,,,,,,,,,,,,,,,,,,,,,,,,,,,,,,,,,,,,,,,,,,,,,,,,,,,,,,
1702363258,1702363258,116,0,4080.897461,4236.153809,4162.563965,4223.461426,4089.230713,4151.538574,4127.05127,4187.563965,4131.538574,4074.615479,4214.871582,4278.333496,4209.487305,4199.487305,6549,2,51,,,,0,4,4,4,4,4,4,4,4,4,4,4,4,4,4,100,,,,,,,,,,,,,,,,,29,0,0.597468,0.395569,-0.563049,0.411743,0.988402,0.038091,0.065438,-4.199528,3.715495,76.453064,,,,,,,,,,,,,,,,,,,,,,,,,,,,,,,,,,,,,,,,,,,,,,,,,,,,,,,,,,,,,,,,,,,,,,,,,,,,,,,,,,,,,,,,,,,,,,,,,,,,,,,,,,
1702363258,1702363258,117,0,4095.641113,4258.717773,4163.461426,4234.743652,4087.820557,4145.256348,4122.94873,4190.897461,4132.563965,4077.94873,4222.307617,4281.794922,4213.333496,4206.794922,6788,2,51,,,,0,4,4,4,4,4,4,4,4,4,4,4,4,4,4,100,,,,,,,,,,,,,,,,,,,,,,,,,,,,,,,,,,,,,,,,,,,,,,,,,,,,,,,,,,,,,,,,,,,,,,,,,,,,,,,,,,,,,,,,,,,,,,,,,,,,,,,,,,,,,,,,,,,,,,,,,,,,,,,,,,,,,,
1702363258,1702363258,118,0,4083.205078,4263.974121,4149.102539,4220.897461,4054.230713,4127.563965,4095,4178.461426,4127.05127,4062.435791,4208.589844,4257.692383,4192.94873,4191.153809,6052,2,51,,,,0,4,4,4,4,4,4,4,4,4,4,4,4,4,4,100,,,,,,,,,,,,,,,,,,,,,,,,,,,,,,,,,,,,,,,,,,,,,,,,,,,,,,,,,,,,,,,,,,,,,,,,,,,,,,,,,,,,,,,,,,,,,,,,,,,,,,,,,,,,,,,,,,,,,,,,,,,,,,,,,,,,,,
1702363258,1702363258,119,0,4061.538574,4266.666504,4135,4209.230957,4048.076904,4128.333496,4088.461426,4166.282227,4116.538574,4052.94873,4182.179688,4237.307617,4171.538574,4168.333496,6158,2,51,,,,0,4,4,4,4,4,4,4,4,4,4,4,4,4,4,100,,,,,,,,,,,,,,,,,,,,,,,,,,,,,,,,,,,,,,,,,,,,,,,,,,,,,,,,,,,,,,,,,,,,,,,,,,,,,,,,,,,,,,,,,,,,,,,,,,,,,,,,,,,,,,,,,,,,,,,,,,,,,,,,,,,,,,
1702363258,1702363258,120,0,4061.281982,4284.743652,4141.794922,4219.615234,4069.358887,4151.410156,4112.179688,4171.153809,4114.102539,4056.538574,4179.615234,4240.641113,4171.922852,4171.538574,6549,2,51,,,,0,4,4,4,4,4,4,4,4,4,4,4,4,4,4,100,,,,,,,,,,,,,,,,,30,0,0.597006,0.395508,-0.563538,0.411804,1.00061,0.033696,0.062019,-4.212909,3.927279,76.091087,,,,,,,,,,,,,,,,,,,,,,,,,,,,,,,,,,,,,,,,,,,,,,,,,,,,,,,,,,,,,,,,,,,,,,,,,,,,,,,,,,,,,,,,,,,,,,,,,,,,,,,,,,
1702363258,1702363258,121,0,4055.897461,4297.05127,4141.282227,4216.153809,4066.794922,4145.641113,4103.205078,4167.436035,4108.974121,4049.871826,4185.641113,4234.871582,4170.641113,4173.205078,6788,2,51,,,,0,4,4,4,4,4,4,4,4,4,4,4,4,4,4,100,,,,,,,,,,,,,,,,,,,,,,,,,,,,,,,,,,,,,,,,,,,,,,,,,,,,,,,,,,,,,,,,,,,,,,,,,,,,,,,,,,,,,,,,,,,,,,,,,,,,,,,,,,,,,,,,,,,,,,,,,,,,,,,,,,,,,,
1702363258,1702363258,122,0,4041.025635,4298.205078,4122.563965,4199.487305,4040.641113,4111.538574,4069.487061,4150.897461,4095.512939,4035.256348,4173.717773,4214.871582,4152.05127,4154.615234,6052,2,51,,,,0,4,4,4,4,4,4,4,4,4,4,4,4,4,4,100,,,,,,,,,,,,,,,,,,,,,,,,,,,,,,,,,,,,,,,,,,,,,,,,,,,,,,,,,,,,,,,,,,,,,,,,,,,,,,,,,,,,,,,,,,,,,,,,,,,,,,,,,,,,,,,,,,,,,,,,,,,,,,,,,,,,,,
1702363258,1702363258,123,0,4036.794922,4308.589844,4122.05127,4202.179688,4040.128174,4110.128418,4072.307617,4148.333496,4092.307617,4029.487061,4166.922852,4215.256348,4140.769043,4153.077148,6158,2,51,,,,0,4,4,4,4,4,4,4,4,4,4,4,4,4,4,100,,,,,,,,,,,,,,,,,,,,,,,,,,,,,,,,,,,,,,,,,,,,,,,,,,,,,,,,,,,,,,,,,,,,,,,,,,,,,,,,,,,,,,,,,,,,,,,,,,,,,,,,,,,,,,,,,,,,,,,,,,,,,,,,,,,,,,
1702363258,1702363258,124,0,4052.692383,4332.563965,4147.436035,4224.230957,4072.179443,4138.974121,4096.025879,4164.743652,4104.487305,4044.487061,4184.743652,4240.769043,4154.871582,4173.717773,6549,2,51,,,,0,4,4,4,4,4,4,4,4,4,4,4,4,4,4,100,,,,,,,,,,,,,,,,,31,0,0.596232,0.395691,-0.563782,0.412415,0.993285,0.00879,0.070321,-4.424951,4.151218,75.665314,,,,,,,,,,,,,,,,,,,,,,,,,,,,,,,,,,,,,,,,,,,,,,,,,,,,,,,,,,,,,,,,,,,,,,,,,,,,,,,,,,,,,,,,,,,,,,,,,,,,,,,,,,
1702363258,1702363258,125,0,4064.743652,4344.358887,4156.025879,4235.384766,4081.410156,4143.461426,4102.563965,4173.205078,4114.871582,4062.179443,4200.641113,4256.282227,4171.025879,4183.589844,6788,2,51,,,,0,4,4,4,4,4,4,4,4,4,4,4,4,4,4,100,,,,,,,,,,,,,,,,,,,,,,,,,,,,,,,,,,,,,,,,,,,,,,,,,,,,,,,,,,,,,,,,,,,,,,,,,,,,,,,,,,,,,,,,,,,,,,,,,,,,,,,,,,,,,,,,,,,,,,,,,,,,,,,,,,,,,,
1702363258,1702363258,126,0,4045.897461,4330.384766,4138.077148,4218.589844,4051.538574,4124.102539,4090.128174,4161.410156,4104.230957,4049.743652,4188.077148,4240.256348,4161.153809,4173.974121,6052,2,51,,,,0,4,4,4,4,4,4,4,4,4,4,4,4,4,4,100,,,,,,,,,,,,,,,,,,,,,,,,,,,,,,,,,,,,,,,,,,,,,,,,,,,,,,,,,,,,,,,,,8.681278,2.730111,0.930474,1.795439,1.490149,39.269642,5.557734,2.256991,2.648229,1.51172,4.360478,1.226207,0.632298,1.074891,0.898999,14.523675,4.96182,1.884949,1.876269,1.380678,10.222048,2.410309,0.584404,3.502835,2.273226,6.44477,1.11113,0.177321,0.840746,1.005777,10.053253,2.019918,0.703537,1.46185,1.059412,3.749737,0.962922,0.350217,0.819481,0.499575,6.187348,1.476781,0.553843,0.973727,0.81465,11.574732,2.503175,0.758859,1.697084,1.359662,14.916915,3.236858,0.569451,2.319977,1.480001,11.09651,2.797102,0.953958,2.737945,1.710087,18.042217,2.923285,0.719868,2.386664,1.476795,12.265135,2.497382,0.995941,2.129862,1.581361
1702363258,1702363258,127,0,4029.871826,4318.333496,4130.897461,4201.153809,4035.128174,4116.025879,4074.358887,4149.615234,4090.256348,4029.487061,4165.641113,4223.717773,4139.102539,4143.461426,51,2,51,,,,0,4,4,4,4,4,4,4,4,4,4,4,4,4,4,100,,,,,,,,,,,,,,,,,,,,,,,,,,,,,,,,,,,,,,,,,,,,,,,,,,,,,,,,,,,,,,,,,,,,,,,,,,,,,,,,,,,,,,,,,,,,,,,,,,,,,,,,,,,,,,,,,,,,,,,,,,,,,,,,,,,,,,
1702363258,1702363258,0,0,4036.923096,4326.025879,4137.563965,4197.436035,4058.718018,4121.794922,4075,4149.615234,4086.410156,4026.153809,4159.871582,4225.512695,4133.077148,4121.410156,4275,2,51,,,,0,4,4,4,4,4,4,4,4,4,4,4,4,4,4,100,,,,,,,,,,,,,,,,,0,0,0.595218,0.395996,-0.564148,0.413086,0.970333,0.005372,0.066414,-4.565789,4.419429,75.28212,,,,,,,,,,,,,,,,,,,,,,,,,,,,,,,,,,,,,,,,,,,,,,,,,,,,,,,,,,,,,,,,,,,,,,,,,,,,,,,,,,,,,,,,,,,,,,,,,,,,,,,,,,
1702363258,1702363258,1,0,4048.333252,4345.256348,4138.205078,4208.589844,4080,4135.512695,4096.794922,4155.384766,4093.589844,4039.871826,4176.794922,4231.794922,4148.589844,4148.846191,5457,2,51,,,,0,4,4,4,4,4,4,4,4,4,4,4,4,4,4,100,,,,,,,,,,,,,,,,,,,,,,,,,,,,,,,,,,,,,,,,,,,,,,,,,,,,,,,,,,,,,,,,,,,,,,,,,,,,,,,,,,,,,,,,,,,,,,,,,,,,,,,,,,,,,,,,,,,,,,,,,,,,,,,,,,,,,,
1702363258,1702363258,2,0,4055.897461,4358.974121,4139.230957,4227.307617,4066.923096,4140.512695,4107.307617,4158.077148,4105.384766,4058.718018,4196.794922,4238.974121,4162.307617,4186.666504,5499,2,51,,,,0,4,4,4,4,4,4,4,4,4,4,4,4,4,4,100,,,,,,,,,,,,,,,,,,,,,,,,,,,,,,,,,,,,,,,,,,,,,,,,,,,,,,,,,,,,,,,,,,,,,,,,,,,,,,,,,,,,,,,,,,,,,,,,,,,,,,,,,,,,,,,,,,,,,,,,,,,,,,,,,,,,,,
1702363258,1702363258,3,0,4051.153809,4353.846191,4145,4229.487305,4056.538574,4124.743652,4090.384521,4155.512695,4103.974121,4055.641113,4195.128418,4242.820313,4162.05127,4179.487305,5477,2,51,,,,0,4,4,4,4,4,4,4,4,4,4,4,4,4,4,100,,,,,,,,,,,,,,,,,,,,,,,,,,,,,,,,,,,,,,,,,,,,,,,,,,,,,,,,,,,,,,,,,,,,,,,,,,,,,,,,,,,,,,,,,,,,,,,,,,,,,,,,,,,,,,,,,,,,,,,,,,,,,,,,,,,,,,
1702363258,1702363258,4,0,4047.564209,4354.743652,4148.717773,4226.025879,4077.94873,4124.358887,4092.307617,4160.641113,4104.743652,4048.333252,4193.589844,4248.205078,4168.461426,4168.461426,5439,2,51,,,,0,4,4,4,4,4,4,4,4,4,4,4,4,4,4,100,,,,,,,,,,,,,,,,,1,0,0.594317,0.396729,-0.56427,0.413513,0.983518,-0.020999,0.054694,-4.575877,4.794153,74.803902,,,,,,,,,,,,,,,,,,,,,,,,,,,,,,,,,,,,,,,,,,,,,,,,,,,,,,,,,,,,,,,,,,,,,,,,,,,,,,,,,,,,,,,,,,,,,,,,,,,,,,,,,,
1702363258,1702363258,5,0,4054.743652,4364.743652,4143.717773,4232.436035,4087.820557,4139.358887,4111.153809,4167.436035,4110.384766,4058.333252,4200.897461,4247.179688,4170.897461,4171.538574,4173,2,51,,,,0,4,4,4,4,4,4,4,4,4,4,4,4,4,4,100,,,,,,,,,,,,,,,,,,,,,,,,,,,,,,,,,,,,,,,,,,,,,,,,,,,,,,,,,,,,,,,,,,,,,,,,,,,,,,,,,,,,,,,,,,,,,,,,,,,,,,,,,,,,,,,,,,,,,,,,,,,,,,,,,,,,,,
1702363258,1702363258,6,0,4043.205078,4348.589844,4131.025879,4222.820313,4064.615479,4136.025879,4100,4155.512695,4095.641113,4048.461426,4188.461426,4228.205078,4153.846191,4153.846191,5198,2,51,,,,0,4,4,4,4,4,4,4,4,4,4,4,4,4,4,100,,,,,,,,,,,,,,,,,,,,,,,,,,,,,,,,,,,,,,,,,,,,,,,,,,,,,,,,,,,,,,,,,,,,,,,,,,,,,,,,,,,,,,,,,,,,,,,,,,,,,,,,,,,,,,,,,,,,,,,,,,,,,,,,,,,,,,
1702363258,1702363258,7,0,4033.076904,4337.820313,4130.769043,4208.589844,4053.205078,4133.974121,4091.153809,4146.538574,4087.307617,4029.615479,4183.461426,4225,4150.512695,4149.615234,3976,2,51,,,,0,4,4,4,4,4,4,4,4,4,4,4,4,4,4,100,,,,,,,,,,,,,,,,,,,,,,,,,,,,,,,,,,,,,,,,,,,,,,,,,,,,,,,,,,,,,,,,,,,,,,,,,,,,,,,,,,,,,,,,,,,,,,,,,,,,,,,,,,,,,,,,,,,,,,,,,,,,,,,,,,,,,,
1702363258,1702363258,8,0,4058.718018,4364.487305,4144.615234,4224.358887,4064.615479,4137.94873,4107.436035,4158.205078,4109.615234,4052.692383,4213.974121,4249.615234,4172.94873,4172.05127,4599,2,51,,,,0,4,4,4,4,4,4,4,4,4,4,4,4,4,4,100,,,,,,,,,,,,,,,,,2,0,0.593649,0.397583,-0.564148,0.413818,0.98889,0.01758,0.049811,-4.66829,4.964738,74.373512,,,,,,,,,,,,,,,,,,,,,,,,,,,,,,,,,,,,,,,,,,,,,,,,,,,,,,,,,,,,,,,,,,,,,,,,,,,,,,,,,,,,,,,,,,,,,,,,,,,,,,,,,,
1702363258,1702363258,9,0,4057.820557,4371.922852,4141.538574,4226.025879,4076.923096,4124.743652,4098.974121,4159.358887,4108.461426,4067.307617,4222.563965,4246.794922,4176.410156,4168.846191,5516,2,51,,,,0,4,4,4,4,4,4,4,4,4,4,4,4,4,4,100,,,,,,,,,,,,,,,,,,,,,,,,,,,,,,,,,,,,,,,,,,,,,,,,,,,,,,,,,,,,,,,,,,,,,,,,,,,,,,,,,,,,,,,,,,,,,,,,,,,,,,,,,,,,,,,,,,,,,,,,,,,,,,,,,,,,,,
1702363258,1702363258,10,0,4028.974365,4356.666504,4131.410156,4212.05127,4093.718018,4123.077148,4085.256348,4153.589844,4089.102539,4049.230713,4201.794922,4226.410156,4160.641113,4153.205078,6033,2,51,,,,0,4,4,4,4,4,4,4,4,4,4,4,4,4,4,100,,,,,,,,,,,,,,,,,,,,,,,,,,,,,,,,,,,,,,,,,,,,,,,,,,,,,,,,,,,,,,,,,,,,,,,,,,,,,,,,,,,,,,,,,,,,,,,,,,,,,,,,,,,,,,,,,,,,,,,,,,,,,,,,,,,,,,
1702363258,1702363258,11,0,4037.820557,4364.230957,4142.820313,4228.974121,4100.641113,4149.487305,4115.256348,4169.871582,4106.410156,4057.179443,4214.230957,4248.717773,4169.743652,4161.538574,6143,2,51,,,,0,4,4,4,4,4,4,4,4,4,4,4,4,4,4,100,,,,,,,,,,,,,,,,,,,,,,,,,,,,,,,,,,,,,,,,,,,,,,,,,,,,,,,,,,,,,,,,,,,,,,,,,,,,,,,,,,,,,,,,,,,,,,,,,,,,,,,,,,,,,,,,,,,,,,,,,,,,,,,,,,,,,,
1702363258,1702363258,12,0,4062.94873,4376.666504,4158.205078,4245.769043,4095.384521,4161.153809,4142.563965,4187.820313,4131.153809,4085.512939,4246.922852,4280.256348,4197.94873,4180.384766,6538,2,51,,,,0,4,4,4,4,4,4,4,4,4,4,4,4,4,4,100,,,,,,,,,,,,,,,,,3,0,0.592878,0.398438,-0.564087,0.414185,0.983518,0.023929,0.046392,-4.634794,5.101597,74.086166,,,,,,,,,,,,,,,,,,,,,,,,,,,,,,,,,,,,,,,,,,,,,,,,,,,,,,,,,,,,,,,,,,,,,,,,,,,,,,,,,,,,,,,,,,,,,,,,,,,,,,,,,,
1702363258,1702363258,13,0,4072.692383,4375.641113,4157.94873,4242.436035,4112.692383,4152.05127,4132.94873,4183.846191,4129.102539,4094.871826,4251.666504,4275.384766,4208.461426,4196.922852,6776,2,51,,,,0,4,4,4,4,4,4,4,4,4,4,4,4,4,4,100,,,,,,,,,,,,,,,,,,,,,,,,,,,,,,,,,,,,,,,,,,,,,,,,,,,,,,,,,,,,,,,,,,,,,,,,,,,,,,,,,,,,,,,,,,,,,,,,,,,,,,,,,,,,,,,,,,,,,,,,,,,,,,,,,,,,,,
1702363258,1702363258,14,0,4066.923096,4366.410156,4147.692383,4241.538574,4128.205078,4146.922852,4118.974121,4171.282227,4122.05127,4088.461426,4229.871582,4255.128418,4196.666504,4195.128418,6033,2,51,,,,0,4,4,4,4,4,4,4,4,4,4,4,4,4,4,100,,,,,,,,,,,,,,,,,,,,,,,,,,,,,,,,,,,,,,,,,,,,,,,,,,,,,,,,,,,,,,,,,8.138327,3.933676,1.150114,2.110234,1.674123,38.192623,8.799344,3.052302,3.056284,1.544788,4.307626,1.493629,0.727325,1.218928,0.896322,11.636301,5.571694,2.041565,2.158208,1.417403,10.646254,2.740376,0.592674,4.017269,2.156284,6.82776,1.323831,0.128498,0.940872,1.05244,11.059171,2.356112,0.643167,1.615312,1.075306,4.498785,1.232771,0.372816,0.924561,0.507832,7.94271,1.781875,0.560999,1.143009,0.840178,14.609906,3.122906,0.717568,1.957842,1.377963,15.95138,3.88952,0.557966,2.707292,1.480414,12.317573,3.550778,1.07037,3.152152,1.641825,25.796766,3.712365,0.682458,2.787105,1.490149,12.49316,3.279114,1.133239,2.455429,1.589206
1702363258,1702363258,15,0,4062.179443,4361.410156,4145.512695,4249.743652,4109.871582,4150,4118.974121,4169.487305,4124.102539,4078.589844,4221.794922,4257.820313,4193.589844,4183.077148,6143,2,51,,,,0,4,4,4,4,4,4,4,4,4,4,4,4,4,4,100,,,,,,,,,,,,,,,,,,,,,,,,,,,,,,,,,,,,,,,,,,,,,,,,,,,,,,,,,,,,,,,,,,,,,,,,,,,,,,,,,,,,,,,,,,,,,,,,,,,,,,,,,,,,,,,,,,,,,,,,,,,,,,,,,,,,,,
1702363258,1702363258,16,0,4072.820557,4367.563965,4154.743652,4252.94873,4091.410156,4149.871582,4124.743652,4172.692383,4122.436035,4075.256348,4232.307617,4273.333496,4202.820313,4190.512695,0,2,51,,,,0,4,4,4,4,4,4,4,4,4,4,4,4,4,4,100,,,,,,,,,,,,,,,,,4,0,0.592429,0.399048,-0.563904,0.41449,0.996215,0.003907,0.043462,-4.571314,5.258104,73.794212,,,,,,,,,,,,,,,,,,,,,,,,,,,,,,,,,,,,,,,,,,,,,,,,,,,,,,,,,,,,,,,,,,,,,,,,,,,,,,,,,,,,,,,,,,,,,,,,,,,,,,,,,,
1702363258,1702363258,17,0,4078.076904,4364.615234,4162.05127,4245.512695,4105.897461,4146.282227,4128.974121,4170,4117.179688,4077.94873,4233.717773,4275.256348,4200.641113,4202.563965,0,2,51,,,,0,4,4,4,4,4,4,4,4,4,4,4,4,4,4,100,,,,,,,,,,,,,,,,,,,,,,,,,,,,,,,,,,,,,,,,,,,,,,,,,,,,,,,,,,,,,,,,,,,,,,,,,,,,,,,,,,,,,,,,,,,,,,,,,,,,,,,,,,,,,,,,,,,,,,,,,,,,,,,,,,,,,,
1702363258,1702363258,18,0,4081.281982,4368.205078,4172.307617,4252.307617,4142.692383,4163.974121,4143.077148,4176.410156,4125.769043,4086.025635,4240.128418,4284.615234,4207.820313,4205.512695,0,2,51,,,,0,4,4,4,4,4,4,4,4,4,4,4,4,4,4,100,,,,,,,,,,,,,,,,,,,,,,,,,,,,,,,,,,,,,,,,,,,,,,,,,,,,,,,,,,,,,,,,,,,,,,,,,,,,,,,,,,,,,,,,,,,,,,,,,,,,,,,,,,,,,,,,,,,,,,,,,,,,,,,,,,,,,,
1702363258,1702363258,19,0,4098.717773,4394.358887,4181.922852,4266.666504,4167.436035,4186.410156,4162.563965,4192.05127,4143.717773,4108.589844,4260.128418,4303.589844,4229.743652,4214.358887,0,2,51,,,,0,4,4,4,4,4,4,4,4,4,4,4,4,4,4,100,,,,,,,,,,,,,,,,,,,,,,,,,,,,,,,,,,,,,,,,,,,,,,,,,,,,,,,,,,,,,,,,,,,,,,,,,,,,,,,,,,,,,,,,,,,,,,,,,,,,,,,,,,,,,,,,,,,,,,,,,,,,,,,,,,,,,,
1702363258,1702363258,20,0,4104.358887,4401.410156,4173.846191,4246.153809,4150.128418,4176.282227,4157.563965,4190,4145.769043,4119.743652,4257.94873,4300.256348,4228.589844,4219.487305,0,2,51,,,,0,4,4,4,4,4,4,4,4,4,4,4,4,4,4,100,,,,,,,,,,,,,,,,,5,0,0.591692,0.400452,-0.563232,0.4151,0.986449,0.010255,0.055671,-4.664183,5.582294,73.664795,,,,,,,,,,,,,,,,,,,,,,,,,,,,,,,,,,,,,,,,,,,,,,,,,,,,,,,,,,,,,,,,,,,,,,,,,,,,,,,,,,,,,,,,,,,,,,,,,,,,,,,,,,
1702363258,1702363258,21,0,4099.487305,4389.487305,4170,4214.358887,4114.615234,4152.307617,4138.461426,4180,4135.512695,4107.94873,4246.282227,4291.410156,4217.05127,4214.615234,0,2,51,,,,0,4,4,4,4,4,4,4,4,4,4,4,4,4,4,100,,,,,,,,,,,,,,,,,,,,,,,,,,,,,,,,,,,,,,,,,,,,,,,,,,,,,,,,,,,,,,,,,,,,,,,,,,,,,,,,,,,,,,,,,,,,,,,,,,,,,,,,,,,,,,,,,,,,,,,,,,,,,,,,,,,,,,
1702363258,1702363258,22,0,4106.666504,4390,4184.102539,4213.333496,4122.94873,4153.974121,4140.128418,4182.307617,4133.846191,4099.871582,4259.230957,4308.333496,4228.846191,4220.384766,0,2,51,,,,0,4,4,4,4,4,4,4,4,4,4,4,4,4,4,100,,,,,,,,,,,,,,,,,,,,,,,,,,,,,,,,,,,,,,,,,,,,,,,,,,,,,,,,,,,,,,,,,,,,,,,,,,,,,,,,,,,,,,,,,,,,,,,,,,,,,,,,,,,,,,,,,,,,,,,,,,,,,,,,,,,,,,
1702363258,1702363258,23,0,4106.410156,4391.794922,4189.487305,4217.692383,4150.128418,4164.871582,4149.358887,4185.512695,4140.897461,4116.282227,4272.94873,4323.333496,4242.307617,4229.102539,0,2,51,,,,0,4,4,4,4,4,4,4,4,4,4,4,4,4,4,100,,,,,,,,,,,,,,,,,,,,,,,,,,,,,,,,,,,,,,,,,,,,,,,,,,,,,,,,,,,,,,,,,,,,,,,,,,,,,,,,,,,,,,,,,,,,,,,,,,,,,,,,,,,,,,,,,,,,,,,,,,,,,,,,,,,,,,
1702363258,1702363258,24,0,4106.025879,4391.794922,4190.256348,4219.358887,4157.179688,4165.256348,4152.692383,4190.384766,4148.589844,4131.410156,4271.410156,4319.358887,4241.922852,4232.94873,0,2,51,,,,0,4,4,4,4,4,4,4,4,4,4,4,4,4,4,100,,,,,,,,,,,,,,,,,6,0,0.590953,0.40155,-0.562866,0.415588,0.996215,0.002442,0.041509,-4.781098,5.674065,73.398315,,,,,,,,,,,,,,,,,,,,,,,,,,,,,,,,,,,,,,,,,,,,,,,,,,,,,,,,,,,,,,,,,,,,,,,,,,,,,,,,,,,,,,,,,,,,,,,,,,,,,,,,,,
1702363258,1702363258,25,0,4134.487305,4399.743652,4200.897461,4233.717773,4168.589844,4175.512695,4169.358887,4200.641113,4154.358887,4130.256348,4281.538574,4328.333496,4256.538574,4250,0,2,51,,,,0,4,4,4,4,4,4,4,4,4,4,4,4,4,4,100,,,,,,,,,,,,,,,,,,,,,,,,,,,,,,,,,,,,,,,,,,,,,,,,,,,,,,,,,,,,,,,,,,,,,,,,,,,,,,,,,,,,,,,,,,,,,,,,,,,,,,,,,,,,,,,,,,,,,,,,,,,,,,,,,,,,,,
1702363258,1702363258,26,0,4143.333496,4385.897461,4198.589844,4228.333496,4165.384766,4178.974121,4176.794922,4197.05127,4152.692383,4125.769043,4286.410156,4334.615234,4265.769043,4253.717773,0,2,51,,,,0,4,4,4,4,4,4,4,4,4,4,4,4,4,4,100,,,,,,,,,,,,,,,,,,,,,,,,,,,,,,,,,,,,,,,,,,,,,,,,,,,,,,,,,,,,,,,,,,,,,,,,,,,,,,,,,,,,,,,,,,,,,,,,,,,,,,,,,,,,,,,,,,,,,,,,,,,,,,,,,,,,,,
1702363258,1702363258,27,0,4106.153809,4340.897461,4178.589844,4191.794922,4134.743652,4161.410156,4153.077148,4178.974121,4137.179688,4113.461426,4259.358887,4309.871582,4237.563965,4222.820313,0,2,51,,,,0,4,4,4,4,4,4,4,4,4,4,4,4,4,4,100,,,,,,,,,,,,,,,,,,,,,,,,,,,,,,,,,,,,,,,,,,,,,,,,,,,,,,,,,,,,,,,,,,,,,,,,,,,,,,,,,,,,,,,,,,,,,,,,,,,,,,,,,,,,,,,,,,,,,,,,,,,,,,,,,,,,,,
1702363258,1702363258,28,0,4092.179443,4312.307617,4176.282227,4177.820313,4138.205078,4161.153809,4149.743652,4180.512695,4131.153809,4107.436035,4249.743652,4300.512695,4224.358887,4211.538574,0,2,51,,,,0,4,4,4,4,4,4,4,4,4,4,4,4,4,4,100,,,,,,,,,,,,,,,,,7,0,0.590324,0.402649,-0.562561,0.415833,0.994262,0.007325,0.044439,-4.719655,5.956658,73.158478,,,,,,,,,,,,,,,,,,,,,,,,,,,,,,,,,,,,,,,,,,,,,,,,,,,,,,,,,,,,,,,,,,,,,,,,,,,,,,,,,,,,,,,,,,,,,,,,,,,,,,,,,,
1702363258,1702363258,29,0,4131.025879,4335.384766,4203.846191,4209.358887,4183.461426,4183.589844,4180.384766,4201.922852,4159.743652,4128.974121,4289.230957,4340.769043,4265.641113,4250,0,2,51,,,,0,4,4,4,4,4,4,4,4,4,4,4,4,4,4,100,,,,,,,,,,,,,,,,,,,,,,,,,,,,,,,,,,,,,,,,,,,,,,,,,,,,,,,,,,,,,,,,,,,,,,,,,,,,,,,,,,,,,,,,,,,,,,,,,,,,,,,,,,,,,,,,,,,,,,,,,,,,,,,,,,,,,,
1702363258,1702363258,30,0,4157.05127,4369.871582,4220.897461,4237.563965,4184.615234,4181.153809,4183.974121,4208.333496,4175.512695,4152.692383,4311.794922,4363.205078,4292.179688,4274.743652,0,2,51,,,,0,4,4,4,4,4,4,4,4,4,4,4,4,4,4,100,,,,,,,,,,,,,,,,,,,,,,,,,,,,,,,,,,,,,,,,,,,,,,,,,,,,,,,,,,,,,,,,,7.596999,5.356308,1.509401,2.434008,1.960493,35.761448,11.931693,3.969942,3.577623,1.621792,4.279816,1.835442,0.882596,1.377993,0.91335,10.43149,6.292886,2.197245,2.469169,1.510629,10.852261,2.958319,0.561088,4.502165,2.137561,7.105044,1.519804,0.109953,1.084781,1.091755,12.016648,2.737048,0.634241,1.821648,1.140958,5.275974,1.543808,0.438981,1.036269,0.539079,9.732265,2.135782,0.602122,1.323347,0.89394,17.497004,3.763176,0.698935,2.228474,1.442223,16.967478,4.592366,0.583094,3.143734,1.571417,13.723773,4.492015,1.33332,3.5844,1.644472,34.260815,4.418383,0.684512,3.185589,1.563485,12.460792,4.267152,1.38006,2.751585,1.653932
1702363258,1702363258,31,0,4139.615234,4362.820313,4207.179688,4231.282227,4153.717773,4166.794922,4165.128418,4198.077148,4156.410156,4141.794922,4290.384766,4338.333496,4267.436035,4255,0,2,51,,,,0,4,4,4,4,4,4,4,4,4,4,4,4,4,4,100,,,,,,,,,,,,,,,,,,,,,,,,,,,,,,,,,,,,,,,,,,,,,,,,,,,,,,,,,,,,,,,,,,,,,,,,,,,,,,,,,,,,,,,,,,,,,,,,,,,,,,,,,,,,,,,,,,,,,,,,,,,,,,,,,,,,,,
1702363258,1702363258,32,0,4129.871582,4345.641113,4196.794922,4221.666504,4156.666504,4173.077148,4168.717773,4195.769043,4153.333496,4128.589844,4282.94873,4327.94873,4259.358887,4241.153809,0,2,51,,,,0,4,4,4,4,4,4,4,4,4,4,4,4,4,4,100,,,,,,,,,,,,,,,,,8,0,0.589725,0.403381,-0.562439,0.416138,0.98889,0.008302,0.053229,-4.714356,6.094326,72.809303,,,,,,,,,,,,,,,,,,,,,,,,,,,,,,,,,,,,,,,,,,,,,,,,,,,,,,,,,,,,,,,,,,,,,,,,,,,,,,,,,,,,,,,,,,,,,,,,,,,,,,,,,,
1702363258,1702363258,33,0,4146.666504,4361.922852,4205.256348,4236.282227,4181.282227,4179.743652,4178.205078,4201.538574,4166.282227,4143.589844,4303.717773,4344.358887,4287.820313,4256.025879,0,2,51,,,,0,4,4,4,4,4,4,4,4,4,4,4,4,4,4,100,,,,,,,,,,,,,,,,,,,,,,,,,,,,,,,,,,,,,,,,,,,,,,,,,,,,,,,,,,,,,,,,,,,,,,,,,,,,,,,,,,,,,,,,,,,,,,,,,,,,,,,,,,,,,,,,,,,,,,,,,,,,,,,,,,,,,,
1702363258,1702363258,34,0,4150.128418,4375.641113,4203.205078,4243.589844,4182.179688,4174.358887,4167.94873,4197.820313,4154.358887,4141.025879,4304.871582,4343.717773,4292.05127,4264.487305,0,2,51,,,,0,4,4,4,4,4,4,4,4,4,4,4,4,4,4,100,,,,,,,,,,,,,,,,,,,,,,,,,,,,,,,,,,,,,,,,,,,,,,,,,,,,,,,,,,,,,,,,,,,,,,,,,,,,,,,,,,,,,,,,,,,,,,,,,,,,,,,,,,,,,,,,,,,,,,,,,,,,,,,,,,,,,,
1702363258,1702363258,35,0,4140.256348,4375.512695,4197.307617,4237.436035,4170.384766,4174.743652,4166.666504,4195.384766,4150.384766,4133.333496,4295.641113,4338.717773,4277.307617,4262.692383,0,2,51,,,,0,4,4,4,4,4,4,4,4,4,4,4,4,4,4,100,,,,,,,,,,,,,,,,,,,,,,,,,,,,,,,,,,,,,,,,,,,,,,,,,,,,,,,,,,,,,,,,,,,,,,,,,,,,,,,,,,,,,,,,,,,,,,,,,,,,,,,,,,,,,,,,,,,,,,,,,,,,,,,,,,,,,,
1702363258,1702363258,36,0,4142.563965,4380.641113,4205.769043,4240,4180.128418,4178.974121,4177.820313,4205.384766,4175,4154.102539,4306.410156,4352.820313,4288.077148,4267.436035,0,2,51,,,,0,4,4,4,4,4,4,4,4,4,4,4,4,4,4,100,,,,,,,,,,,,,,,,,9,0,0.589208,0.403625,-0.562805,0.416138,0.98889,0.017092,0.037114,-4.64292,6.318226,72.678368,,,,,,,,,,,,,,,,,,,,,,,,,,,,,,,,,,,,,,,,,,,,,,,,,,,,,,,,,,,,,,,,,,,,,,,,,,,,,,,,,,,,,,,,,,,,,,,,,,,,,,,,,,
1702363258,1702363258,37,0,4159.743652,4382.692383,4214.743652,4253.077148,4195.897461,4182.179688,4183.846191,4215.256348,4186.025879,4172.436035,4326.538574,4366.666504,4308.461426,4278.717773,0,2,51,,,,0,4,4,4,4,4,4,4,4,4,4,4,4,4,4,100,,,,,,,,,,,,,,,,,,,,,,,,,,,,,,,,,,,,,,,,,,,,,,,,,,,,,,,,,,,,,,,,,,,,,,,,,,,,,,,,,,,,,,,,,,,,,,,,,,,,,,,,,,,,,,,,,,,,,,,,,,,,,,,,,,,,,,
1702363258,1702363258,38,0,4171.153809,4380.384766,4216.666504,4269.230957,4200.512695,4193.077148,4191.282227,4217.436035,4182.94873,4168.461426,4331.922852,4367.179688,4310.384766,4287.05127,0,2,51,,,,0,4,4,4,4,4,4,4,4,4,4,4,4,4,4,100,,,,,,,,,,,,,,,,,,,,,,,,,,,,,,,,,,,,,,,,,,,,,,,,,,,,,,,,,,,,,,,,,,,,,,,,,,,,,,,,,,,,,,,,,,,,,,,,,,,,,,,,,,,,,,,,,,,,,,,,,,,,,,,,,,,,,,
1702363258,1702363258,39,0,4166.282227,4370.641113,4214.487305,4272.820313,4186.025879,4196.410156,4193.974121,4213.077148,4183.974121,4162.820313,4322.307617,4361.922852,4304.230957,4281.025879,0,2,51,,,,0,4,4,4,4,4,4,4,4,4,4,4,4,4,4,100,,,,,,,,,,,,,,,,,,,,,,,,,,,,,,,,,,,,,,,,,,,,,,,,,,,,,,,,,,,,,,,,,,,,,,,,,,,,,,,,,,,,,,,,,,,,,,,,,,,,,,,,,,,,,,,,,,,,,,,,,,,,,,,,,,,,,,
1702363258,1702363258,40,0,4166.538574,4356.922852,4219.487305,4278.589844,4186.538574,4192.563965,4200.384766,4216.153809,4185.384766,4166.922852,4328.333496,4370.128418,4311.410156,4283.461426,0,2,51,,,,0,4,4,4,4,4,4,4,4,4,4,4,4,4,4,100,,,,,,,,,,,,,,,,,10,0,0.58873,0.403809,-0.563354,0.415894,0.994262,0.012209,0.035649,-4.611962,6.35307,72.443863,,,,,,,,,,,,,,,,,,,,,,,,,,,,,,,,,,,,,,,,,,,,,,,,,,,,,,,,,,,,,,,,,,,,,,,,,,,,,,,,,,,,,,,,,,,,,,,,,,,,,,,,,,
1702363258,1702363258,41,0,4174.358887,4343.461426,4226.922852,4290.897461,4211.025879,4195.384766,4206.794922,4221.666504,4187.436035,4176.666504,4337.94873,4376.922852,4322.307617,4298.077148,0,2,51,,,,0,4,4,4,4,4,4,4,4,4,4,4,4,4,4,100,,,,,,,,,,,,,,,,,,,,,,,,,,,,,,,,,,,,,,,,,,,,,,,,,,,,,,,,,,,,,,,,,,,,,,,,,,,,,,,,,,,,,,,,,,,,,,,,,,,,,,,,,,,,,,,,,,,,,,,,,,,,,,,,,,,,,,
1702363258,1702363258,42,0,4191.410156,4337.436035,4235.897461,4309.230957,4236.282227,4209.358887,4216.025879,4226.666504,4198.974121,4193.717773,4346.538574,4385.128418,4333.846191,4314.487305,0,2,51,,,,0,4,4,4,4,4,4,4,4,4,4,4,4,4,4,100,,,,,,,,,,,,,,,,,,,,,,,,,,,,,,,,,,,,,,,,,,,,,,,,,,,,,,,,,,,,,,,,,,,,,,,,,,,,,,,,,,,,,,,,,,,,,,,,,,,,,,,,,,,,,,,,,,,,,,,,,,,,,,,,,,,,,,
1702363258,1702363258,43,0,4217.692383,4331.666504,4248.333496,4332.820313,4248.717773,4220,4235.128418,4237.94873,4216.025879,4209.102539,4370.256348,4411.153809,4353.589844,4332.179688,0,2,51,,,,0,4,4,4,4,4,4,4,4,4,4,4,4,4,4,100,,,,,,,,,,,,,,,,,,,,,,,,,,,,,,,,,,,,,,,,,,,,,,,,,,,,,,,,,,,,,,,,,,,,,,,,,,,,,,,,,,,,,,,,,,,,,,,,,,,,,,,,,,,,,,,,,,,,,,,,,,,,,,,,,,,,,,
1702363258,1702363258,44,0,4216.410156,4297.05127,4251.794922,4334.102539,4230.256348,4214.102539,4240.256348,4239.743652,4214.615234,4209.615234,4376.538574,4422.05127,4357.179688,4335,0,2,51,,,,0,4,4,4,4,4,4,4,4,4,4,4,4,4,4,100,,,,,,,,,,,,,,,,,11,0,0.588335,0.404236,-0.563416,0.415955,0.9801,0.020022,0.028324,-4.650765,6.451097,72.382813,,,,,,,,,,,,,,,,,,,,,,,,,,,,,,,,,,,,,,,,,,,,,,,,,,,,,,,,,,,,,,,,,,,,,,,,,,,,,,,,,,,,,,,,,,,,,,,,,,,,,,,,,,
1702363258,1702363258,45,0,4210.128418,4266.666504,4255.641113,4333.461426,4225.512695,4220,4237.692383,4237.563965,4208.974121,4212.692383,4372.563965,4421.538574,4359.102539,4340.128418,0,2,51,,,,0,4,4,4,4,4,4,4,4,4,4,4,4,4,4,100,,,,,,,,,,,,,,,,,,,,,,,,,,,,,,,,,,,,,,,,,,,,,,,,,,,,,,,,,,,,,,,,,,,,,,,,,,,,,,,,,,,,,,,,,,,,,,,,,,,,,,,,,,,,,,,,,,,,,,,,,,,,,,,,,,,,,,
1702363258,1702363258,46,0,4237.94873,4276.153809,4270.512695,4357.436035,4248.717773,4238.974121,4256.282227,4251.410156,4226.538574,4230.769043,4392.94873,4441.025879,4382.179688,4367.05127,0,2,51,,,,0,4,4,4,4,4,4,4,4,4,4,4,4,4,4,100,1,25,1,1,1,1,1,1,1,3,3,1,1,1,1,1,,,,,,,,,,,,,,,,,,,,,,,,,,,,,,,,,,,,,,,,,,,,,,,,,7.653563,6.650507,1.943772,2.703644,2.284977,32.287731,14.045789,4.639075,4.100728,1.724043,4.561498,2.170041,1.051839,1.519208,0.94282,10.727478,6.989733,2.30174,2.757227,1.636005,11.292304,3.024588,0.518321,4.867133,2.279545,7.422592,1.65325,0.119749,1.245695,1.120146,13.046658,3.074118,0.653777,2.033281,1.243179,6.031273,1.826532,0.546546,1.13407,0.583086,11.383993,2.488271,0.692014,1.481278,0.948865,19.953239,4.285157,0.738987,2.451173,1.527972,18.013281,5.190564,0.681228,3.546736,1.709462,15.49781,5.408399,1.690722,3.945703,1.705075,41.760799,4.915332,0.764799,3.505846,1.664035,12.570996,5.226985,1.677299,2.986217,1.756622
1702363258,1702363258,47,0,4268.717773,4297.692383,4288.589844,4384.743652,4280.256348,4255.897461,4289.871582,4276.153809,4256.538574,4257.94873,4426.538574,4475.128418,4409.743652,4395.128418,0,2,51,,,,0,4,4,4,4,4,4,4,4,4,4,4,4,4,4,100,,,,,,,,,,,,,,,,,,,,,,,,,,,,,,,,,,,,,,,,,,,,,,,,,,,,,,,,,,,,,,,,,,,,,,,,,,,,,,,,,,,,,,,,,,,,,,,,,,,,,,,,,,,,,,,,,,,,,,,,,,,,,,,,,,,,,,
1702363258,1702363258,48,0,4274.230957,4296.410156,4299.615234,4392.692383,4305.512695,4266.410156,4300.769043,4289.871582,4269.871582,4278.077148,4443.077148,4493.205078,4424.615234,4404.230957,0,2,51,,,,0,4,4,4,4,4,4,4,4,4,4,4,4,4,4,100,,,,,,,,,,,,,,,,,12,0,0.58805,0.40387,-0.56366,0.416382,0.992309,-0.005372,0.044439,-4.685689,6.655987,72.194534,,,,,,,,,,,,,,,,,,,,,,,,,,,,,,,,,,,,,,,,,,,,,,,,,,,,,,,,,,,,,,,,,,,,,,,,,,,,,,,,,,,,,,,,,,,,,,,,,,,,,,,,,,
1702363258,1702363258,49,0,4277.820313,4286.666504,4302.820313,4392.820313,4307.563965,4267.436035,4296.282227,4287.820313,4266.282227,4280.256348,4446.666504,4494.358887,4430.769043,4407.820313,0,2,51,,,,0,4,4,4,4,4,4,4,4,4,4,4,4,4,4,100,,,,,,,,,,,,,,,,,,,,,,,,,,,,,,,,,,,,,,,,,,,,,,,,,,,,,,,,,,,,,,,,,,,,,,,,,,,,,,,,,,,,,,,,,,,,,,,,,,,,,,,,,,,,,,,,,,,,,,,,,,,,,,,,,,,,,,
1702363258,1702363258,50,0,4283.077148,4279.358887,4305.897461,4396.282227,4301.538574,4263.077148,4296.538574,4284.615234,4267.94873,4279.230957,4447.692383,4496.153809,4435.641113,4411.922852,0,2,51,,,,0,4,4,4,4,4,4,4,4,4,4,4,4,4,4,100,,,,,,,,,,,,,,,,,,,,,,,,,,,,,,,,,,,,,,,,,,,,,,,,,,,,,,,,,,,,,,,,,,,,,,,,,,,,,,,,,,,,,,,,,,,,,,,,,,,,,,,,,,,,,,,,,,,,,,,,,,,,,,,,,,,,,,
1702363258,1702363258,51,0,4275.512695,4248.589844,4305.256348,4395.769043,4295.384766,4262.692383,4290.512695,4279.487305,4265,4276.538574,4443.717773,4495.641113,4438.077148,4406.025879,0,2,51,,,,0,4,4,4,4,4,4,4,4,4,4,4,4,4,4,100,,,,,,,,,,,,,,,,,,,,,,,,,,,,,,,,,,,,,,,,,,,,,,,,,,,,,,,,,,,,,,,,,,,,,,,,,,,,,,,,,,,,,,,,,,,,,,,,,,,,,,,,,,,,,,,,,,,,,,,,,,,,,,,,,,,,,,
1702363258,1702363258,52,0,4285.256348,4224.102539,4313.205078,4409.871582,4303.974121,4273.589844,4297.563965,4285.769043,4265.641113,4279.743652,4463.077148,4511.666504,4456.410156,4421.025879,0,2,51,,,,0,4,4,4,4,4,4,4,4,4,4,4,4,4,4,100,,,,,,,,,,,,,,,,,13,0,0.587923,0.403503,-0.563965,0.416504,0.997192,0.003907,0.045416,-4.633787,6.557055,72.025078,,,,,,,,,,,,,,,,,,,,,,,,,,,,,,,,,,,,,,,,,,,,,,,,,,,,,,,,,,,,,,,,,,,,,,,,,,,,,,,,,,,,,,,,,,,,,,,,,,,,,,,,,,
1702363258,1702363258,53,0,4306.922852,4221.153809,4327.563965,4431.153809,4312.94873,4277.179688,4314.487305,4297.692383,4280.256348,4297.692383,4486.282227,4533.846191,4476.410156,4445.256348,0,2,51,,,,0,4,4,4,4,4,4,4,4,4,4,4,4,4,4,100,,,,,,,,,,,,,,,,,,,,,,,,,,,,,,,,,,,,,,,,,,,,,,,,,,,,,,,,,,,,,,,,,,,,,,,,,,,,,,,,,,,,,,,,,,,,,,,,,,,,,,,,,,,,,,,,,,,,,,,,,,,,,,,,,,,,,,
1702363258,1702363258,54,0,4297.05127,4199.230957,4319.102539,4420.384766,4310.512695,4268.077148,4306.153809,4288.589844,4275.897461,4295.128418,4466.538574,4517.307617,4459.743652,4431.538574,0,2,51,,,,0,4,4,4,4,4,4,4,4,4,4,4,4,4,4,100,,,,,,,,,,,,,,,,,,,,,,,,,,,,,,,,,,,,,,,,,,,,,,,,,,,,,,,,,,,,,,,,,,,,,,,,,,,,,,,,,,,,,,,,,,,,,,,,,,,,,,,,,,,,,,,,,,,,,,,,,,,,,,,,,,,,,,
1702363258,1702363258,55,0,4294.871582,4191.153809,4313.589844,4418.205078,4329.615234,4283.205078,4310.641113,4289.358887,4275.897461,4296.282227,4463.846191,4512.307617,4458.077148,4427.05127,0,2,51,,,,0,4,4,4,4,4,4,4,4,4,4,4,4,4,4,100,,,,,,,,,,,,,,,,,,,,,,,,,,,,,,,,,,,,,,,,,,,,,,,,,,,,,,,,,,,,,,,,,,,,,,,,,,,,,,,,,,,,,,,,,,,,,,,,,,,,,,,,,,,,,,,,,,,,,,,,,,,,,,,,,,,,,,
1702363258,1702363258,56,0,4327.05127,4223.205078,4337.179688,4452.307617,4354.871582,4308.077148,4347.05127,4318.589844,4306.794922,4332.692383,4506.538574,4555.256348,4493.717773,4463.589844,0,2,51,,,,0,4,4,4,4,4,4,4,4,4,4,4,4,4,4,100,,,,,,,,,,,,,,,,,14,0,0.5878,0.402954,-0.564575,0.416382,0.997192,0.003907,0.038579,-4.537075,6.718016,71.955902,,,,,,,,,,,,,,,,,,,,,,,,,,,,,,,,,,,,,,,,,,,,,,,,,,,,,,,,,,,,,,,,,,,,,,,,,,,,,,,,,,,,,,,,,,,,,,,,,,,,,,,,,,
1702363258,1702363258,57,0,4327.436035,4220.128418,4342.307617,4457.436035,4340.384766,4300.512695,4344.871582,4322.05127,4312.563965,4334.487305,4507.307617,4561.282227,4493.461426,4467.820313,0,2,51,,,,0,4,4,4,4,4,4,4,4,4,4,4,4,4,4,100,,,,,,,,,,,,,,,,,,,,,,,,,,,,,,,,,,,,,,,,,,,,,,,,,,,,,,,,,,,,,,,,,,,,,,,,,,,,,,,,,,,,,,,,,,,,,,,,,,,,,,,,,,,,,,,,,,,,,,,,,,,,,,,,,,,,,,
1702363258,1702363258,58,0,4305.512695,4190.641113,4323.461426,4433.205078,4315.769043,4283.846191,4312.436035,4295.384766,4287.820313,4293.846191,4475.128418,4525.641113,4468.077148,4439.871582,0,2,51,,,,0,4,4,4,4,4,4,4,4,4,4,4,4,4,4,100,,,,,,,,,,,,,,,,,,,,,,,,,,,,,,,,,,,,,,,,,,,,,,,,,,,,,,,,,,,,,,,,,,,,,,,,,,,,,,,,,,,,,,,,,,,,,,,,,,,,,,,,,,,,,,,,,,,,,,,,,,,,,,,,,,,,,,
1702363258,1702363258,59,0,4320.384766,4207.94873,4332.692383,4444.615234,4338.077148,4289.871582,4320,4297.820313,4291.282227,4297.94873,4475.384766,4532.820313,4455.641113,4443.077148,0,2,51,,,,0,4,4,4,4,4,4,4,4,4,4,4,4,4,4,100,,,,,,,,,,,,,,,,,,,,,,,,,,,,,,,,,,,,,,,,,,,,,,,,,,,,,,,,,,,,,,,,,,,,,,,,,,,,,,,,,,,,,,,,,,,,,,,,,,,,,,,,,,,,,,,,,,,,,,,,,,,,,,,,,,,,,,
1702363258,1702363258,60,0,4303.846191,4194.743652,4333.077148,4438.846191,4334.743652,4284.102539,4324.487305,4303.974121,4292.05127,4304.743652,4455.384766,4529.102539,4415.384766,4424.487305,0,2,51,,,,0,4,4,4,4,4,4,4,4,4,4,4,4,4,4,100,,,,,,,,,,,,,,,,,15,0,0.587784,0.402283,-0.56543,0.415894,0.98303,-0.02344,0.041021,-4.633367,6.862881,71.976982,,,,,,,,,,,,,,,,,,,,,,,,,,,,,,,,,,,,,,,,,,,,,,,,,,,,,,,,,,,,,,,,,,,,,,,,,,,,,,,,,,,,,,,,,,,,,,,,,,,,,,,,,,
1702363258,1702363258,61,0,4251.922852,4128.205078,4297.563965,4392.94873,4278.974121,4259.102539,4293.974121,4282.05127,4260.897461,4263.974121,4423.077148,4483.077148,4398.333496,4378.461426,0,2,51,,,,0,4,4,4,4,4,4,4,4,4,4,4,4,4,4,100,,,,,,,,,,,,,,,,,,,,,,,,,,,,,,,,,,,,,,,,,,,,,,,,,,,,,,,,,,,,,,,,,,,,,,,,,,,,,,,,,,,,,,,,,,,,,,,,,,,,,,,,,,,,,,,,,,,,,,,,,,,,,,,,,,,,,,
1702363258,1702363258,62,0,4261.794922,4111.922852,4291.025879,4389.615234,4281.794922,4261.794922,4287.436035,4279.230957,4259.487305,4260.256348,4450.641113,4480.512695,4457.179688,4390.641113,0,2,51,,,,0,4,4,4,4,4,4,4,4,4,4,4,4,4,4,100,,,,,,,,,,,,,,,,,,,,,,,,,,,,,,,,,,,,,,,,,,,,,,,,,,,,,,,,,,,,,,,,,7.922681,7.403998,2.335939,2.846194,2.543587,28.762632,14.557201,4.760759,4.45424,1.807558,4.705178,2.372969,1.182248,1.603169,0.966244,12.27116,7.404008,2.33287,2.961202,1.742607,11.002952,2.9109,0.501989,5.01982,2.565986,7.215234,1.673832,0.147574,1.383093,1.136694,13.035843,3.233888,0.67062,2.192592,1.353341,6.201193,1.985565,0.676037,1.195063,0.623338,11.821597,2.741973,0.832868,1.582003,0.974785,20.311321,4.52599,0.862919,2.56991,1.590369,17.907217,5.464437,0.876892,3.807763,1.830356,16.101032,5.989807,2.065548,4.135383,1.781169,44.359959,5.077418,0.943397,3.657534,1.744602,12.17879,5.845556,1.94887,3.136321,1.848981
1702363259,1702363259,63,0,4284.230957,4110.769043,4298.205078,4393.333496,4301.282227,4267.563965,4283.717773,4279.358887,4268.461426,4279.743652,4464.102539,4484.871582,4481.282227,4406.538574,0,2,51,,,,0,4,4,4,4,4,4,4,4,4,4,4,4,4,4,100,,,,,,,,,,,,,,,,,,,,,,,,,,,,,,,,,,,,,,,,,,,,,,,,,,,,,,,,,,,,,,,,,,,,,,,,,,,,,,,,,,,,,,,,,,,,,,,,,,,,,,,,,,,,,,,,,,,,,,,,,,,,,,,,,,,,,,
1702363259,1702363259,64,0,4272.820313,4085.384521,4285.897461,4368.461426,4267.692383,4252.05127,4262.307617,4262.692383,4251.153809,4262.307617,4438.589844,4458.077148,4464.358887,4392.692383,4216,2,51,,,,0,4,4,4,4,4,4,4,4,4,4,4,4,4,4,100,,,,,,,,,,,,,,,,,16,0,0.588401,0.39978,-0.567322,0.414856,0.998169,-0.01758,0.045904,-4.720031,6.826593,71.962616,,,,,,,,,,,,,,,,,,,,,,,,,,,,,,,,,,,,,,,,,,,,,,,,,,,,,,,,,,,,,,,,,,,,,,,,,,,,,,,,,,,,,,,,,,,,,,,,,,,,,,,,,,
1702363259,1702363259,65,0,4302.307617,4097.179688,4290.641113,4373.461426,4259.743652,4245,4265.128418,4264.487305,4251.410156,4259.615234,4461.282227,4470.384766,4508.974121,4426.025879,5395,2,51,,,,0,4,4,4,4,4,4,4,4,4,4,4,4,4,4,100,,,,,,,,,,,,,,,,,,,,,,,,,,,,,,,,,,,,,,,,,,,,,,,,,,,,,,,,,,,,,,,,,,,,,,,,,,,,,,,,,,,,,,,,,,,,,,,,,,,,,,,,,,,,,,,,,,,,,,,,,,,,,,,,,,,,,,
1702363259,1702363259,66,0,4349.230957,4108.846191,4302.94873,4384.871582,4283.717773,4249.230957,4274.743652,4274.102539,4265.641113,4271.922852,4496.922852,4497.05127,4564.358887,4475,5450,2,51,,,,0,4,4,4,4,4,4,4,4,4,4,4,4,4,4,100,,,,,,,,,,,,,,,,,,,,,,,,,,,,,,,,,,,,,,,,,,,,,,,,,,,,,,,,,,,,,,,,,,,,,,,,,,,,,,,,,,,,,,,,,,,,,,,,,,,,,,,,,,,,,,,,,,,,,,,,,,,,,,,,,,,,,,
1702363259,1702363259,67,0,4364.230957,4087.307617,4301.922852,4373.461426,4274.230957,4249.230957,4268.717773,4267.692383,4263.461426,4266.666504,4499.871582,4495.512695,4585.256348,4494.615234,5462,2,51,,,,0,4,4,4,4,4,4,4,4,4,4,4,4,4,4,100,,,,,,,,,,,,,,,,,,,,,,,,,,,,,,,,,,,,,,,,,,,,,,,,,,,,,,,,,,,,,,,,,,,,,,,,,,,,,,,,,,,,,,,,,,,,,,,,,,,,,,,,,,,,,,,,,,,,,,,,,,,,,,,,,,,,,,
1702363259,1702363259,68,0,4386.153809,4084.102539,4305.641113,4371.153809,4249.358887,4241.922852,4262.563965,4262.692383,4255.256348,4266.025879,4511.666504,4496.538574,4613.974121,4525.128418,5377,2,51,,,,0,4,4,4,4,4,4,4,4,4,4,4,4,4,4,100,,,,,,,,,,,,,,,,,17,0,0.589101,0.396912,-0.569763,0.413269,0.986937,-0.019534,0.047857,-4.848028,6.943934,71.883018,,,,,,,,,,,,,,,,,,,,,,,,,,,,,,,,,,,,,,,,,,,,,,,,,,,,,,,,,,,,,,,,,,,,,,,,,,,,,,,,,,,,,,,,,,,,,,,,,,,,,,,,,,
1702363259,1702363259,69,0,4411.666504,4091.025635,4314.230957,4376.025879,4249.102539,4238.846191,4263.333496,4269.487305,4254.871582,4274.871582,4534.615234,4508.333496,4647.179688,4557.692383,4175,2,51,,,,0,4,4,4,4,4,4,4,4,4,4,4,4,4,4,100,,,,,,,,,,,,,,,,,,,,,,,,,,,,,,,,,,,,,,,,,,,,,,,,,,,,,,,,,,,,,,,,,,,,,,,,,,,,,,,,,,,,,,,,,,,,,,,,,,,,,,,,,,,,,,,,,,,,,,,,,,,,,,,,,,,,,,
1702363259,1702363259,70,0,4390.256348,4067.435791,4298.333496,4357.05127,4235.384766,4225.769043,4248.589844,4260.512695,4245.384766,4264.487305,4522.307617,4491.153809,4646.282227,4537.307617,5163,2,51,,,,0,4,4,4,4,4,4,4,4,4,4,4,4,4,4,100,,,,,,,,,,,,,,,,,,,,,,,,,,,,,,,,,,,,,,,,,,,,,,,,,,,,,,,,,,,,,,,,,,,,,,,,,,,,,,,,,,,,,,,,,,,,,,,,,,,,,,,,,,,,,,,,,,,,,,,,,,,,,,,,,,,,,,
1702363259,1702363259,71,0,4347.179688,4038.589844,4272.820313,4330.641113,4210.128418,4205.256348,4224.743652,4245.384766,4227.820313,4243.077148,4494.743652,4458.717773,4625.897461,4493.717773,3932,2,51,,,,0,4,4,4,4,4,4,4,4,4,4,4,4,4,4,100,,,,,,,,,,,,,,,,,,,,,,,,,,,,,,,,,,,,,,,,,,,,,,,,,,,,,,,,,,,,,,,,,,,,,,,,,,,,,,,,,,,,,,,,,,,,,,,,,,,,,,,,,,,,,,,,,,,,,,,,,,,,,,,,,,,,,,
1702363259,1702363259,72,0,4321.794922,4023.333252,4261.153809,4314.871582,4210.256348,4198.846191,4214.102539,4243.333496,4220.641113,4235,4488.461426,4444.102539,4617.563965,4474.871582,4542,2,51,,,,0,4,4,4,4,4,4,4,4,4,4,4,4,4,4,100,,,,,,,,,,,,,,,,,18,0,0.590226,0.392944,-0.572754,0.411316,1.012331,-0.022464,0.043951,-4.829891,6.932874,71.828049,,,,,,,,,,,,,,,,,,,,,,,,,,,,,,,,,,,,,,,,,,,,,,,,,,,,,,,,,,,,,,,,,,,,,,,,,,,,,,,,,,,,,,,,,,,,,,,,,,,,,,,,,,
1702363259,1702363259,73,0,4289.487305,4004.487061,4250,4300.256348,4218.333496,4200.256348,4209.102539,4239.743652,4219.743652,4235.384766,4480.256348,4433.333496,4609.743652,4453.717773,5455,2,51,,,,0,4,4,4,4,4,4,4,4,4,4,4,4,4,4,100,,,,,,,,,,,,,,,,,,,,,,,,,,,,,,,,,,,,,,,,,,,,,,,,,,,,,,,,,,,,,,,,,,,,,,,,,,,,,,,,,,,,,,,,,,,,,,,,,,,,,,,,,,,,,,,,,,,,,,,,,,,,,,,,,,,,,,
1702363259,1702363259,74,0,4238.974121,3972.692383,4234.615234,4273.461426,4200.384766,4192.05127,4195.769043,4230.384766,4214.358887,4225.512695,4456.666504,4412.05127,4586.794922,4408.974121,5968,2,51,,,,0,4,4,4,4,4,4,4,4,4,4,4,4,4,4,100,,,,,,,,,,,,,,,,,,,,,,,,,,,,,,,,,,,,,,,,,,,,,,,,,,,,,,,,,,,,,,,,,,,,,,,,,,,,,,,,,,,,,,,,,,,,,,,,,,,,,,,,,,,,,,,,,,,,,,,,,,,,,,,,,,,,,,
1702363259,1702363259,75,0,4202.307617,3946.923096,4220.897461,4244.871582,4170.641113,4179.487305,4183.717773,4225.384766,4202.307617,4210.512695,4435.512695,4391.922852,4558.846191,4370.256348,6088,2,51,,,,0,4,4,4,4,4,4,4,4,4,4,4,4,4,4,100,,,,,,,,,,,,,,,,,,,,,,,,,,,,,,,,,,,,,,,,,,,,,,,,,,,,,,,,,,,,,,,,,,,,,,,,,,,,,,,,,,,,,,,,,,,,,,,,,,,,,,,,,,,,,,,,,,,,,,,,,,,,,,,,,,,,,,
1702363259,1702363259,76,0,4197.436035,3962.564209,4219.743652,4247.307617,4174.230957,4186.153809,4193.077148,4228.974121,4198.589844,4210.897461,4427.179688,4389.230957,4545,4362.436035,6479,2,51,,,,0,4,4,4,4,4,4,4,4,4,4,4,4,4,4,100,,,,,,,,,,,,,,,,,19,0,0.59072,0.38916,-0.576477,0.408997,1.001099,0.014162,0.037114,-4.780236,6.82292,71.761917,,,,,,,,,,,,,,,,,,,,,,,,,,,,,,,,,,,,,,,,,,,,,,,,,,,,,,,,,,,,,,,,,,,,,,,,,,,,,,,,,,,,,,,,,,,,,,,,,,,,,,,,,,
1702363259,1702363259,77,0,4199.230957,3993.205078,4227.05127,4266.666504,4188.974121,4194.230957,4203.461426,4230.641113,4204.615234,4218.333496,4426.410156,4394.230957,4538.205078,4360.128418,6718,2,51,,,,0,4,4,4,4,4,4,4,4,4,4,4,4,4,4,100,,,,,,,,,,,,,,,,,,,,,,,,,,,,,,,,,,,,,,,,,,,,,,,,,,,,,,,,,,,,,,,,,,,,,,,,,,,,,,,,,,,,,,,,,,,,,,,,,,,,,,,,,,,,,,,,,,,,,,,,,,,,,,,,,,,,,,
1702363259,1702363259,78,0,4188.333496,3982.94873,4229.102539,4267.05127,4187.94873,4189.230957,4201.153809,4230.641113,4212.179688,4217.820313,4424.102539,4394.102539,4523.717773,4345.128418,5968,2,51,,,,0,4,4,4,4,4,4,4,4,4,4,4,4,4,4,100,,,,,,,,,,,,,,,,,,,,,,,,,,,,,,,,,,,,,,,,,,,,,,,,,,,,,,,,,,,,,,,,,7.956808,7.372885,2.558171,2.814594,2.647876,25.70092,13.50287,4.257259,4.499377,1.830814,4.611884,2.351771,1.223849,1.604323,0.964886,14.016704,7.353302,2.263577,3.040714,1.783111,9.882731,2.633015,0.519573,4.926547,2.916008,6.367073,1.563938,0.183322,1.459244,1.14347,11.716439,3.134043,0.669502,2.253182,1.442279,5.668196,1.95909,0.798357,1.204306,0.646907,10.852129,2.812458,1.005579,1.605407,0.958733,18.262348,4.409582,1.066066,2.562133,1.591931,16.086796,5.282768,1.145846,3.845303,1.890568,15.081542,6.001438,2.34954,4.08738,1.829467,41.301941,4.915772,1.180673,3.587744,1.778812,10.955644,5.915624,2.120613,3.191207,1.883199
1702363259,1702363259,79,0,4183.589844,3961.923096,4231.794922,4266.282227,4194.230957,4185.897461,4203.461426,4236.282227,4219.102539,4220.512695,4428.717773,4401.666504,4516.025879,4342.307617,6088,2,51,,,,0,4,4,4,4,4,4,4,4,4,4,4,4,4,4,100,,,,,,,,,,,,,,,,,,,,,,,,,,,,,,,,,,,,,,,,,,,,,,,,,,,,,,,,,,,,,,,,,,,,,,,,,,,,,,,,,,,,,,,,,,,,,,,,,,,,,,,,,,,,,,,,,,,,,,,,,,,,,,,,,,,,,,
1702363259,1702363259,80,0,4185.769043,3965.128174,4232.179688,4274.871582,4190.641113,4184.487305,4202.179688,4234.487305,4214.487305,4218.846191,4427.179688,4403.974121,4508.589844,4342.692383,6479,2,51,,,,0,4,4,4,4,4,4,4,4,4,4,4,4,4,4,100,,,,,,,,,,,,,,,,,20,0,0.590831,0.386353,-0.580139,0.406311,0.99182,-0.031742,0.027835,-4.952212,6.773961,71.90239,,,,,,,,,,,,,,,,,,,,,,,,,,,,,,,,,,,,,,,,,,,,,,,,,,,,,,,,,,,,,,,,,,,,,,,,,,,,,,,,,,,,,,,,,,,,,,,,,,,,,,,,,,
1702363259,1702363259,81,0,4178.846191,3967.179443,4228.205078,4274.358887,4177.179688,4187.05127,4192.692383,4222.692383,4206.025879,4211.025879,4406.794922,4389.358887,4484.358887,4325.769043,6718,2,51,,,,0,4,4,4,4,4,4,4,4,4,4,4,4,4,4,100,,,,,,,,,,,,,,,,,,,,,,,,,,,,,,,,,,,,,,,,,,,,,,,,,,,,,,,,,,,,,,,,,,,,,,,,,,,,,,,,,,,,,,,,,,,,,,,,,,,,,,,,,,,,,,,,,,,,,,,,,,,,,,,,,,,,,,
1702363259,1702363259,82,0,4154.102539,3948.461426,4213.333496,4256.794922,4172.692383,4180.641113,4175.128418,4211.282227,4195.256348,4198.461426,4380.256348,4364.358887,4452.563965,4297.436035,5968,2,51,,,,0,4,4,4,4,4,4,4,4,4,4,4,4,4,4,100,,,,,,,,,,,,,,,,,,,,,,,,,,,,,,,,,,,,,,,,,,,,,,,,,,,,,,,,,,,,,,,,,,,,,,,,,,,,,,,,,,,,,,,,,,,,,,,,,,,,,,,,,,,,,,,,,,,,,,,,,,,,,,,,,,,,,,
1702363259,1702363259,83,0,4142.05127,3939.615479,4203.846191,4248.846191,4186.153809,4172.05127,4172.05127,4214.743652,4189.743652,4192.94873,4381.282227,4363.333496,4448.589844,4289.615234,6088,2,51,,,,0,4,4,4,4,4,4,4,4,4,4,4,4,4,4,100,,,,,,,,,,,,,,,,,,,,,,,,,,,,,,,,,,,,,,,,,,,,,,,,,,,,,,,,,,,,,,,,,,,,,,,,,,,,,,,,,,,,,,,,,,,,,,,,,,,,,,,,,,,,,,,,,,,,,,,,,,,,,,,,,,,,,,
1702363259,1702363259,84,0,4146.666504,3945.512939,4206.922852,4253.461426,4191.794922,4169.743652,4183.205078,4220.769043,4194.230957,4198.974121,4388.846191,4377.692383,4450.128418,4297.307617,6479,2,51,,,,0,4,4,4,4,4,4,4,4,4,4,4,4,4,4,100,,,,,,,,,,,,,,,,,21,0,0.590952,0.384644,-0.582214,0.404785,1.017214,-0.061531,0.037114,-5.090324,6.779898,71.962151,,,,,,,,,,,,,,,,,,,,,,,,,,,,,,,,,,,,,,,,,,,,,,,,,,,,,,,,,,,,,,,,,,,,,,,,,,,,,,,,,,,,,,,,,,,,,,,,,,,,,,,,,,
1702363259,1702363259,85,0,4133.077148,3933.974365,4201.025879,4237.307617,4163.974121,4160,4171.922852,4209.871582,4183.589844,4185,4361.153809,4357.563965,4421.410156,4279.871582,6718,2,51,,,,0,4,4,4,4,4,4,4,4,4,4,4,4,4,4,100,,,,,,,,,,,,,,,,,,,,,,,,,,,,,,,,,,,,,,,,,,,,,,,,,,,,,,,,,,,,,,,,,,,,,,,,,,,,,,,,,,,,,,,,,,,,,,,,,,,,,,,,,,,,,,,,,,,,,,,,,,,,,,,,,,,,,,
1702363259,1702363259,86,0,4101.410156,3905,4181.794922,4203.589844,4129.871582,4145,4145,4193.461426,4161.153809,4150.897461,4326.666504,4317.436035,4388.205078,4242.05127,5968,2,51,,,,0,4,4,4,4,4,4,4,4,4,4,4,4,4,4,100,,,,,,,,,,,,,,,,,,,,,,,,,,,,,,,,,,,,,,,,,,,,,,,,,,,,,,,,,,,,,,,,,,,,,,,,,,,,,,,,,,,,,,,,,,,,,,,,,,,,,,,,,,,,,,,,,,,,,,,,,,,,,,,,,,,,,,
1702363259,1702363259,87,0,4096.538574,3906.538574,4181.410156,4199.871582,4137.692383,4154.358887,4155,4199.230957,4166.922852,4150.256348,4334.230957,4319.871582,4389.871582,4236.538574,6088,2,51,,,,0,4,4,4,4,4,4,4,4,4,4,4,4,4,4,100,,,,,,,,,,,,,,,,,,,,,,,,,,,,,,,,,,,,,,,,,,,,,,,,,,,,,,,,,,,,,,,,,,,,,,,,,,,,,,,,,,,,,,,,,,,,,,,,,,,,,,,,,,,,,,,,,,,,,,,,,,,,,,,,,,,,,,
1702363259,1702363259,88,0,4121.282227,3949.743652,4202.692383,4221.794922,4174.487305,4183.077148,4188.974121,4219.615234,4191.410156,4180.897461,4360.769043,4355.641113,4415.128418,4266.666504,6479,2,51,,,,0,4,4,4,4,4,4,4,4,4,4,4,4,4,4,100,,,,,,,,,,,,,,,,,22,0,0.590836,0.38031,-0.587646,0.401184,1.006471,-0.045416,0.021975,-5.314625,6.735242,71.965935,,,,,,,,,,,,,,,,,,,,,,,,,,,,,,,,,,,,,,,,,,,,,,,,,,,,,,,,,,,,,,,,,,,,,,,,,,,,,,,,,,,,,,,,,,,,,,,,,,,,,,,,,,
1702363259,1702363259,89,0,4120.512695,3967.692383,4199.743652,4215.384766,4174.743652,4182.820313,4184.871582,4214.487305,4187.563965,4180.256348,4351.794922,4352.563965,4412.94873,4264.230957,6718,2,51,,,,0,4,4,4,4,4,4,4,4,4,4,4,4,4,4,100,,,,,,,,,,,,,,,,,,,,,,,,,,,,,,,,,,,,,,,,,,,,,,,,,,,,,,,,,,,,,,,,,,,,,,,,,,,,,,,,,,,,,,,,,,,,,,,,,,,,,,,,,,,,,,,,,,,,,,,,,,,,,,,,,,,,,,
1702363259,1702363259,90,0,4112.94873,3964.230713,4191.922852,4206.410156,4165.384766,4168.589844,4169.230957,4203.461426,4181.922852,4166.538574,4339.743652,4336.282227,4400.897461,4246.153809,5968,2,51,,,,0,4,4,4,4,4,4,4,4,4,4,4,4,4,4,100,,,,,,,,,,,,,,,,,,,,,,,,,,,,,,,,,,,,,,,,,,,,,,,,,,,,,,,,,,,,,,,,,,,,,,,,,,,,,,,,,,,,,,,,,,,,,,,,,,,,,,,,,,,,,,,,,,,,,,,,,,,,,,,,,,,,,,
1702363259,1702363259,91,0,4117.94873,3971.281982,4194.871582,4213.205078,4163.717773,4159.743652,4165.512695,4205.641113,4184.871582,4167.436035,4346.410156,4338.589844,4401.025879,4249.358887,6088,2,51,,,,0,4,4,4,4,4,4,4,4,4,4,4,4,4,4,100,,,,,,,,,,,,,,,,,,,,,,,,,,,,,,,,,,,,,,,,,,,,,,,,,,,,,,,,,,,,,,,,,,,,,,,,,,,,,,,,,,,,,,,,,,,,,,,,,,,,,,,,,,,,,,,,,,,,,,,,,,,,,,,,,,,,,,
1702363259,1702363259,92,0,4117.05127,3978.846191,4190.256348,4212.563965,4152.179688,4161.922852,4163.077148,4203.461426,4173.846191,4165.512695,4341.282227,4336.922852,4396.922852,4255,6479,2,51,,,,0,4,4,4,4,4,4,4,4,4,4,4,4,4,4,100,,,,,,,,,,,,,,,,,23,0,0.591138,0.376221,-0.593506,0.395935,0.983518,-0.078623,0.028324,-5.499829,6.461718,72.269341,,,,,,,,,,,,,,,,,,,,,,,,,,,,,,,,,,,,,,,,,,,,,,,,,,,,,,,,,,,,,,,,,,,,,,,,,,,,,,,,,,,,,,,,,,,,,,,,,,,,,,,,,,
1702363259,1702363259,93,0,4119.102539,3986.153809,4192.820313,4218.205078,4158.589844,4169.615234,4170.641113,4203.333496,4170.641113,4166.282227,4337.563965,4340.641113,4391.282227,4257.94873,6718,2,51,,,,0,4,4,4,4,4,4,4,4,4,4,4,4,4,4,100,,,,,,,,,,,,,,,,,,,,,,,,,,,,,,,,,,,,,,,,,,,,,,,,,,,,,,,,,,,,,,,,,,,,,,,,,,,,,,,,,,,,,,,,,,,,,,,,,,,,,,,,,,,,,,,,,,,,,,,,,,,,,,,,,,,,,,
1702363259,1702363259,94,0,4121.794922,3983.205078,4194.230957,4218.846191,4162.692383,4159.743652,4166.538574,4202.05127,4173.589844,4162.563965,4338.717773,4339.615234,4388.717773,4253.333496,5968,2,51,,,,0,4,4,4,4,4,4,4,4,4,4,4,4,4,4,100,,,,,,,,,,,,,,,,,,,,,,,,,,,,,,,,,,,,,,,,,,,,,,,,,,,,,,,,,,,,,,,,,7.776083,6.716763,2.532322,2.612377,2.568406,22.80954,11.52809,3.426954,4.213029,1.779334,4.2037,2.095337,1.161476,1.522182,0.929329,14.803529,6.793479,2.074031,2.983169,1.736202,7.891398,2.235795,0.568065,4.629955,3.212832,4.905509,1.341994,0.233107,1.454638,1.13796,9.210545,2.787862,0.670791,2.199107,1.48739,4.49282,1.750542,0.895412,1.161411,0.648969,8.60169,2.663277,1.189948,1.553324,0.908454,14.327292,3.974226,1.311373,2.4448,1.520175,13.034539,4.725571,1.428325,3.638314,1.877654,12.613211,5.433276,2.465308,3.797309,1.824488,34.537376,4.671822,1.409832,3.309725,1.766486,9.514935,5.588498,2.166128,3.148638,1.83761
1702363259,1702363259,95,0,4112.05127,3961.666748,4183.333496,4206.153809,4149.615234,4156.410156,4154.358887,4198.589844,4165.641113,4148.461426,4325.641113,4325.384766,4373.717773,4241.666504,6088,2,51,,,,0,4,4,4,4,4,4,4,4,4,4,4,4,4,4,100,,,,,,,,,,,,,,,,,,,,,,,,,,,,,,,,,,,,,,,,,,,,,,,,,,,,,,,,,,,,,,,,,,,,,,,,,,,,,,,,,,,,,,,,,,,,,,,,,,,,,,,,,,,,,,,,,,,,,,,,,,,,,,,,,,,,,,
1702363259,1702363259,96,0,4107.563965,3951.410156,4186.025879,4209.871582,4160.769043,4174.358887,4168.846191,4207.179688,4166.922852,4150.512695,4325.897461,4330.256348,4360.512695,4243.333496,6479,2,51,,,,0,4,4,4,4,4,4,4,4,4,4,4,4,4,4,100,,,,,,,,,,,,,,,,,24,0,0.592288,0.370544,-0.599976,0.389771,1.036748,-0.059089,0.010743,-5.749846,6.265546,72.709076,,,,,,,,,,,,,,,,,,,,,,,,,,,,,,,,,,,,,,,,,,,,,,,,,,,,,,,,,,,,,,,,,,,,,,,,,,,,,,,,,,,,,,,,,,,,,,,,,,,,,,,,,,
1702363259,1702363259,97,0,4108.333496,3954.102539,4188.333496,4212.436035,4176.538574,4171.538574,4172.307617,4208.333496,4172.94873,4156.922852,4336.538574,4332.307617,4373.717773,4245.256348,6718,2,51,,,,0,4,4,4,4,4,4,4,4,4,4,4,4,4,4,100,,,,,,,,,,,,,,,,,,,,,,,,,,,,,,,,,,,,,,,,,,,,,,,,,,,,,,,,,,,,,,,,,,,,,,,,,,,,,,,,,,,,,,,,,,,,,,,,,,,,,,,,,,,,,,,,,,,,,,,,,,,,,,,,,,,,,,
1702363259,1702363259,98,0,4093.333252,3940.384521,4169.102539,4187.94873,4152.94873,4149.102539,4144.871582,4193.717773,4167.179688,4149.487305,4326.666504,4307.94873,4397.05127,4230.512695,5968,2,51,,,,0,4,4,4,4,4,4,4,4,4,4,4,4,4,4,100,,,,,,,,,,,,,,,,,,,,,,,,,,,,,,,,,,,,,,,,,,,,,,,,,,,,,,,,,,,,,,,,,,,,,,,,,,,,,,,,,,,,,,,,,,,,,,,,,,,,,,,,,,,,,,,,,,,,,,,,,,,,,,,,,,,,,,
1702363259,1702363259,99,0,4093.461426,3939.487061,4168.205078,4182.179688,4141.153809,4152.94873,4143.846191,4198.717773,4170.769043,4158.846191,4335.641113,4311.153809,4423.205078,4234.743652,6088,2,51,,,,0,4,4,4,4,4,4,4,4,4,4,4,4,4,4,100,,,,,,,,,,,,,,,,,,,,,,,,,,,,,,,,,,,,,,,,,,,,,,,,,,,,,,,,,,,,,,,,,,,,,,,,,,,,,,,,,,,,,,,,,,,,,,,,,,,,,,,,,,,,,,,,,,,,,,,,,,,,,,,,,,,,,,
1702363259,1702363259,100,0,4089.230713,3936.025635,4172.820313,4182.436035,4145.897461,4152.692383,4145,4202.436035,4166.794922,4156.794922,4344.615234,4316.282227,4429.615234,4231.282227,6479,2,51,,,,0,4,4,4,4,4,4,4,4,4,4,4,4,4,4,100,,,,,,,,,,,,,,,,,25,0,0.592846,0.362854,-0.608582,0.382751,1.001587,-0.007325,-0.010743,-6.008195,6.088991,73.104836,,,,,,,,,,,,,,,,,,,,,,,,,,,,,,,,,,,,,,,,,,,,,,,,,,,,,,,,,,,,,,,,,,,,,,,,,,,,,,,,,,,,,,,,,,,,,,,,,,,,,,,,,,
1702363259,1702363259,101,0,4077.820557,3925.384521,4172.179688,4178.974121,4146.922852,4153.846191,4145,4195,4162.563965,4148.077148,4338.717773,4307.692383,4433.846191,4217.692383,6718,2,51,,,,0,4,4,4,4,4,4,4,4,4,4,4,4,4,4,100,,,,,,,,,,,,,,,,,,,,,,,,,,,,,,,,,,,,,,,,,,,,,,,,,,,,,,,,,,,,,,,,,,,,,,,,,,,,,,,,,,,,,,,,,,,,,,,,,,,,,,,,,,,,,,,,,,,,,,,,,,,,,,,,,,,,,,
1702363259,1702363259,102,0,4106.538574,3962.307617,4199.487305,4213.717773,4173.205078,4187.05127,4185.641113,4213.974121,4193.461426,4185.897461,4365.641113,4342.692383,4467.436035,4250.128418,5968,2,51,,,,0,4,4,4,4,4,4,4,4,4,4,4,4,4,4,100,,,,,,,,,,,,,,,,,,,,,,,,,,,,,,,,,,,,,,,,,,,,,,,,,,,,,,,,,,,,,,,,,,,,,,,,,,,,,,,,,,,,,,,,,,,,,,,,,,,,,,,,,,,,,,,,,,,,,,,,,,,,,,,,,,,,,,
1702363259,1702363259,103,0,4118.333496,3996.281982,4206.666504,4227.820313,4179.102539,4189.358887,4196.025879,4222.05127,4205.512695,4204.358887,4375.384766,4357.94873,4470,4264.358887,6088,2,51,,,,0,4,4,4,4,4,4,4,4,4,4,4,4,4,4,100,,,,,,,,,,,,,,,,,,,,,,,,,,,,,,,,,,,,,,,,,,,,,,,,,,,,,,,,,,,,,,,,,,,,,,,,,,,,,,,,,,,,,,,,,,,,,,,,,,,,,,,,,,,,,,,,,,,,,,,,,,,,,,,,,,,,,,
1702363259,1702363259,104,0,4094.871826,3992.820557,4183.333496,4204.871582,4154.743652,4163.461426,4163.077148,4206.538574,4183.205078,4178.205078,4342.307617,4325.256348,4436.025879,4231.153809,6479,2,51,,,,0,4,4,4,4,4,4,4,4,4,4,4,4,4,4,100,,,,,,,,,,,,,,,,,26,0,0.591737,0.356689,-0.617798,0.375427,0.984984,-0.030765,-0.006837,-6.040709,5.963426,73.494347,,,,,,,,,,,,,,,,,,,,,,,,,,,,,,,,,,,,,,,,,,,,,,,,,,,,,,,,,,,,,,,,,,,,,,,,,,,,,,,,,,,,,,,,,,,,,,,,,,,,,,,,,,
1702363259,1702363259,105,0,4098.077148,4008.589844,4184.102539,4214.358887,4157.94873,4167.692383,4161.282227,4207.563965,4183.974121,4176.410156,4334.615234,4323.077148,4422.94873,4225.256348,6718,2,51,,,,0,4,4,4,4,4,4,4,4,4,4,4,4,4,4,100,,,,,,,,,,,,,,,,,,,,,,,,,,,,,,,,,,,,,,,,,,,,,,,,,,,,,,,,,,,,,,,,,,,,,,,,,,,,,,,,,,,,,,,,,,,,,,,,,,,,,,,,,,,,,,,,,,,,,,,,,,,,,,,,,,,,,,
1702363259,1702363259,106,0,4111.282227,4038.974365,4193.461426,4232.94873,4163.205078,4174.358887,4164.743652,4207.05127,4190.256348,4180,4340.128418,4334.102539,4421.410156,4236.410156,5968,2,51,,,,0,4,4,4,4,4,4,4,4,4,4,4,4,4,4,100,,,,,,,,,,,,,,,,,,,,,,,,,,,,,,,,,,,,,,,,,,,,,,,,,,,,,,,,,,,,,,,,,,,,,,,,,,,,,,,,,,,,,,,,,,,,,,,,,,,,,,,,,,,,,,,,,,,,,,,,,,,,,,,,,,,,,,
1702363259,1702363259,107,0,4110.384766,4052.692383,4191.410156,4234.871582,4157.307617,4169.743652,4160.256348,4204.358887,4181.282227,4165.641113,4335,4330.384766,4410.641113,4234.230957,6088,2,51,,,,0,4,4,4,4,4,4,4,4,4,4,4,4,4,4,100,,,,,,,,,,,,,,,,,,,,,,,,,,,,,,,,,,,,,,,,,,,,,,,,,,,,,,,,,,,,,,,,,,,,,,,,,,,,,,,,,,,,,,,,,,,,,,,,,,,,,,,,,,,,,,,,,,,,,,,,,,,,,,,,,,,,,,
1702363259,1702363259,108,0,4123.846191,4078.461426,4201.666504,4255.256348,4182.436035,4186.794922,4185.641113,4220.128418,4187.436035,4176.922852,4354.358887,4349.487305,4413.717773,4245.769043,6479,2,51,,,,0,4,4,4,4,4,4,4,4,4,4,4,4,4,4,100,,,,,,,,,,,,,,,,,27,0,0.589982,0.351746,-0.626404,0.36853,0.951288,0.032719,-0.031254,-6.269971,5.850416,73.811584,,,,,,,,,,,,,,,,,,,,,,,,,,,,,,,,,,,,,,,,,,,,,,,,,,,,,,,,,,,,,,,,,,,,,,,,,,,,,,,,,,,,,,,,,,,,,,,,,,,,,,,,,,
1702363259,1702363259,109,0,4122.692383,4092.94873,4204.487305,4263.077148,4184.102539,4183.717773,4183.077148,4215.256348,4183.333496,4176.922852,4350.641113,4350.128418,4402.05127,4242.692383,6718,2,51,,,,0,4,4,4,4,4,4,4,4,4,4,4,4,4,4,100,,,,,,,,,,,,,,,,,,,,,,,,,,,,,,,,,,,,,,,,,,,,,,,,,,,,,,,,,,,,,,,,,,,,,,,,,,,,,,,,,,,,,,,,,,,,,,,,,,,,,,,,,,,,,,,,,,,,,,,,,,,,,,,,,,,,,,
1702363259,1702363259,110,0,4107.563965,4084.615479,4195.769043,4245.128418,4148.717773,4158.077148,4153.717773,4197.307617,4169.230957,4156.025879,4325.512695,4328.589844,4382.179688,4223.846191,5968,2,51,,,,0,4,4,4,4,4,4,4,4,4,4,4,4,4,4,100,1,25,1,1,1,1,1,1,1,3,3,1,1,1,1,1,,,,,,,,,,,,,,,,,,,,,,,,,,,,,,,,,,,,,,,,,,,,,,,,,8.176051,6.340125,2.395189,2.283859,2.34709,19.686844,9.597299,2.786575,3.687743,1.67478,3.722035,1.75962,1.055086,1.376629,0.864882,14.197531,5.964764,1.792439,2.798331,1.616101,5.757298,1.821117,0.643342,4.221858,3.357737,3.334935,1.07958,0.316078,1.373193,1.113618,6.450045,2.338066,0.72719,2.044549,1.480122,3.15891,1.438929,0.970184,1.077544,0.633946,5.920218,2.357273,1.375636,1.445093,0.845236,10.012219,3.40009,1.542756,2.256982,1.395197,10.202228,4.167293,1.664643,3.234621,1.814014,9.847464,4.645474,2.44376,3.320508,1.772492,28.441996,4.837213,1.582817,2.9002,1.731529,9.400623,5.689372,2.214536,3.005141,1.730424
