Timestamp,OriginalTimestamp,EEG.Counter,EEG.Interpolated,EEG.AF3,EEG.F7,EEG.F3,EEG.FC5,EEG.T7,EEG.P7,EEG.O1,EEG.O2,EEG.P8,EEG.T8,EEG.FC6,EEG.F4,EEG.F8,EEG.AF4,EEG.RawCq,EEG.Battery,EEG.BatteryPercent,MarkerIndex,MarkerType,MarkerValueInt,EEG.MarkerHardware,CQ.AF3,CQ.F7,CQ.F3,CQ.FC5,CQ.T7,CQ.P7,CQ.O1,CQ.O2,CQ.P8,CQ.T8,CQ.FC6,CQ.F4,CQ.F8,CQ.AF4,CQ.Overall,EQ.SampleRateQuality,EQ.OVERALL,EQ.AF3,EQ.F7,EQ.F3,EQ.FC5,EQ.T7,EQ.P7,EQ.O1,EQ.O2,EQ.P8,EQ.T8,EQ.FC6,EQ.F4,EQ.F8,EQ.AF4,MOT.CounterMems,MOT.InterpolatedMems,MOT.Q0,MOT.Q1,MOT.Q2,MOT.Q3,MOT.AccX,MOT.AccY,MOT.AccZ,MOT.MagX,MOT.MagY,MOT.MagZ,PM.Attention.IsActive,PM.Attention.Scaled,PM.Attention.Raw,PM.Attention.Min,PM.Attention.Max,PM.Engagement.IsActive,PM.Engagement.Scaled,PM.Engagement.Raw,PM.Engagement.Min,PM.Engagement.Max,PM.Excitement.IsActive,PM.Excitement.Scaled,PM.Excitement.Raw,PM.Excitement.Min,PM.Excitement.Max,PM.LongTermExcitement,PM.Stress.IsActive,PM.Stress.Scaled,PM.Stress.Raw,PM.Stress.Min,PM.Stress.Max,PM.Relaxation.IsActive,PM.Relaxation.Scaled,PM.Relaxation.Raw,PM.Relaxation.Min,PM.Relaxation.Max,PM.Interest.IsActive,PM.Interest.Scaled,PM.Interest.Raw,PM.Interest.Min,PM.Interest.Max,PM.Focus.IsActive,PM.Focus.Scaled,PM.Focus.Raw,PM.Focus.Min,PM.Focus.Max,POW.AF3.Theta,POW.AF3.Alpha,POW.AF3.BetaL,POW.AF3.BetaH,POW.AF3.Gamma,POW.F7.Theta,POW.F7.Alpha,POW.F7.BetaL,POW.F7.BetaH,POW.F7.Gamma,POW.F3.Theta,POW.F3.Alpha,POW.F3.BetaL,POW.F3.BetaH,POW.F3.Gamma,POW.FC5.Theta,POW.FC5.Alpha,POW.FC5.BetaL,POW.FC5.BetaH,POW.FC5.Gamma,POW.T7.Theta,POW.T7.Alpha,POW.T7.BetaL,POW.T7.BetaH,POW.T7.Gamma,POW.P7.Theta,POW.P7.Alpha,POW.P7.BetaL,POW.P7.BetaH,POW.P7.Gamma,POW.O1.Theta,POW.O1.Alpha,POW.O1.BetaL,POW.O1.BetaH,POW.O1.Gamma,POW.O2.Theta,POW.O2.Alpha,POW.O2.BetaL,POW.O2.BetaH,POW.O2.Gamma,POW.P8.Theta,POW.P8.Alpha,POW.P8.BetaL,POW.P8.BetaH,POW.P8.Gamma,POW.T8.Theta,POW.T8.Alpha,POW.T8.BetaL,POW.T8.BetaH,POW.T8.Gamma,POW.FC6.Theta,POW.FC6.Alpha,POW.FC6.BetaL,POW.FC6.BetaH,POW.FC6.Gamma,POW.F4.Theta,POW.F4.Alpha,POW.F4.BetaL,POW.F4.BetaH,POW.F4.Gamma,POW.F8.Theta,POW.F8.Alpha,POW.F8.BetaL,POW.F8.BetaH,POW.F8.Gamma,POW.AF4.Theta,POW.AF4.Alpha,POW.AF4.BetaL,POW.AF4.BetaH,POW.AF4.Gamma
,,,,,,,,,,,,,,,,,,,,,,,,,,,,,,,,,,,,,,,,,,,,,,,,,,,,,,,,,,,,,,,,,,,,,,,,,,,,,,,,,,,,,,,,,,,,,,,,,,,,,,,,,,,,,,,,,,,,,,,,,,,,,,,,,,,,,,,,,,,,,,,,,,,,,,,,,,,,,,,,,,,,,,,,,,,,,
1702544236,1702544236,54,0,4357.692383,4378.589844,4311.922852,4343.717773,4270,4264.358887,4265.256348,4280.128418,4267.692383,4267.05127,4505.256348,4466.666504,4428.846191,4468.461426,0,4,80,,,,0,4,4,4,4,4,4,4,4,4,4,4,4,4,4,100,,,,,,,,,,,,,,,,,,,,,,,,,,,,,,,,,,,,,,,,,,,,,,,,,,,,,,,,,,,,,,,,,,,,,,,,,,,,,,,,,,,,,,,,,,,,,,,,,,,,,,,,,,,,,,,,,,,,,,,,,,,,,,,,,,,,,,
1702544236,1702544236,55,0,4361.410156,4399.102539,4307.820313,4331.794922,4263.333496,4260,4259.487305,4271.666504,4260,4261.282227,4499.743652,4460.128418,4441.666504,4481.282227,0,4,80,,,,0,4,4,4,4,4,4,4,4,4,4,4,4,4,4,100,,,,,,,,,,,,,,,,,,,,,,,,,,,,,,,,,,,,,,,,,,,,,,,,,,,,,,,,,,,,,,,,,,,,,,,,,,,,,,,,,,,,,,,,,,,,,,,,,,,,,,,,,,,,,,,,,,,,,,,,,,,,,,,,,,,,,,
1702544236,1702544236,56,0,4380.256348,4420.769043,4319.743652,4351.282227,4259.487305,4265.897461,4263.461426,4271.410156,4259.358887,4263.077148,4511.922852,4475.641113,4463.461426,4508.846191,0,4,80,,,,0,4,4,4,4,4,4,4,4,4,4,4,4,4,4,100,,,,,,,,,,,,,,,,,14,0,0.105272,-0.600769,0.135315,-0.780823,0.926383,-0.277866,0.191918,-9.960388,3.601221,88.49308,,,,,,,,,,,,,,,,,,,,,,,,,,,,,,,,,,,,,,,,,,,,,,,,,,,,,,,,,,,,,,,,,,,,,,,,,,,,,,,,,,,,,,,,,,,,,,,,,,,,,,,,,,
1702544236,1702544236,57,0,4402.05127,4467.692383,4328.846191,4370.256348,4264.871582,4262.436035,4260.897461,4273.333496,4258.846191,4261.410156,4528.589844,4489.230957,4483.589844,4533.333496,0,4,80,,,,0,4,4,4,4,4,4,4,4,4,4,4,4,4,4,100,,,,,,,,,,,,,,,,,,,,,,,,,,,,,,,,,,,,,,,,,,,,,,,,,,,,,,,,,,,,,,,,,,,,,,,,,,,,,,,,,,,,,,,,,,,,,,,,,,,,,,,,,,,,,,,,,,,,,,,,,,,,,,,,,,,,,,
1702544236,1702544236,58,0,4417.179688,4512.05127,4338.974121,4364.487305,4266.410156,4262.179688,4261.666504,4275.641113,4259.871582,4258.077148,4540,4492.820313,4504.487305,4560.128418,0,4,80,,,,0,4,4,4,4,4,4,4,4,4,4,4,4,4,4,100,,,,,,,,,,,,,,,,,,,,,,,,,,,,,,,,,,,,,,,,,,,,,,,,,,,,,,,,,,,,,,,,,,,,,,,,,,,,,,,,,,,,,,,,,,,,,,,,,,,,,,,,,,,,,,,,,,,,,,,,,,,,,,,,,,,,,,
1702544236,1702544236,59,0,4442.820313,4539.358887,4358.589844,4382.436035,4274.102539,4274.102539,4274.743652,4287.179688,4272.05127,4267.563965,4557.436035,4508.589844,4538.974121,4601.025879,0,4,80,,,,0,4,4,4,4,4,4,4,4,4,4,4,4,4,4,100,,,,,,,,,,,,,,,,,,,,,,,,,,,,,,,,,,,,,,,,,,,,,,,,,,,,,,,,,,,,,,,,,,,,,,,,,,,,,,,,,,,,,,,,,,,,,,,,,,,,,,,,,,,,,,,,,,,,,,,,,,,,,,,,,,,,,,
1702544236,1702544236,60,0,4460.769043,4560,4367.307617,4416.025879,4289.487305,4280.897461,4282.307617,4296.538574,4283.205078,4279.102539,4563.846191,4526.922852,4554.358887,4618.333496,0,4,80,,,,0,4,4,4,4,4,4,4,4,4,4,4,4,4,4,100,,,,,,,,,,,,,,,,,15,0,0.105106,-0.600525,0.134766,-0.781128,0.919546,-0.301795,0.205103,-10.014349,3.691099,88.56044,,,,,,,,,,,,,,,,,,,,,,,,,,,,,,,,,,,,,,,,,,,,,,,,,,,,,,,,,,,,,,,,,,,,,,,,,,,,,,,,,,,,,,,,,,,,,,,,,,,,,,,,,,
1702544236,1702544236,61,0,4461.025879,4580.897461,4372.436035,4422.436035,4295.769043,4283.717773,4286.922852,4297.307617,4283.461426,4281.153809,4567.692383,4534.615234,4548.333496,4617.94873,0,4,80,,,,0,4,4,4,4,4,4,4,4,4,4,4,4,4,4,100,,,,,,,,,,,,,,,,,,,,,,,,,,,,,,,,,,,,,,,,,,,,,,,,,,,,,,,,,,,,,,,,,,,,,,,,,,,,,,,,,,,,,,,,,,,,,,,,,,,,,,,,,,,,,,,,,,,,,,,,,,,,,,,,,,,,,,
1702544236,1702544236,62,0,4462.436035,4587.179688,4380.128418,4411.538574,4296.538574,4286.794922,4288.205078,4295.384766,4279.871582,4278.974121,4579.230957,4534.230957,4547.820313,4629.615234,0,4,80,,,,0,4,4,4,4,4,4,4,4,4,4,4,4,4,4,100,,,,,,,,,,,,,,,,,,,,,,,,,,,,,,,,,,,,,,,,,,,,,,,,,,,,,,,,,,,,,,,,,,,,,,,,,,,,,,,,,,,,,,,,,,,,,,,,,,,,,,,,,,,,,,,,,,,,,,,,,,,,,,,,,,,,,,
1702544236,1702544236,63,0,4459.230957,4572.563965,4380.512695,4414.487305,4297.820313,4286.153809,4283.333496,4295.512695,4282.179688,4286.025879,4584.358887,4532.692383,4540.384766,4630.641113,0,4,80,,,,0,4,4,4,4,4,4,4,4,4,4,4,4,4,4,100,,,,,,,,,,,,,,,,,,,,,,,,,,,,,,,,,,,,,,,,,,,,,,,,,,,,,,,,,,,,,,,,,,,,,,,,,,,,,,,,,,,,,,,,,,,,,,,,,,,,,,,,,,,,,,,,,,,,,,,,,,,,,,,,,,,,,,
1702544236,1702544236,64,0,4435.769043,4544.871582,4371.666504,4421.153809,4295.512695,4283.205078,4282.307617,4294.743652,4282.436035,4293.974121,4574.743652,4527.436035,4512.820313,4606.025879,5379,4,80,,,,0,4,4,4,4,4,4,4,4,4,4,4,4,4,4,100,,,,,,,,,,,,,,,,,16,0,0.105238,-0.599976,0.134277,-0.781616,0.918569,-0.291539,0.215358,-10.029581,3.605323,88.487732,,,,,,,,,,,,,,,,,,,,,,,,,,,,,,,,,,,,,1.517805,1.168539,1.144333,0.353601,0.443415,3.219429,0.987086,0.872201,0.770076,0.495494,1.08076,0.71542,0.692127,0.246696,0.316774,1.513893,1.007824,0.635673,0.480098,0.375258,0.594767,0.511273,0.381542,0.152927,0.308484,0.426777,0.496062,0.494079,0.223737,0.169359,0.672286,0.596114,0.432226,0.291141,0.245003,0.490806,0.691843,0.953246,0.187135,0.192889,0.624555,0.928861,1.175001,0.278551,0.274754,0.677064,0.754488,1.172417,0.270568,0.39795,1.703596,1.461488,1.327228,1.283475,0.430443,0.811029,1.540147,1.477345,0.41906,0.411857,0.958109,1.054146,1.049699,1.071577,1.011614,1.630285,1.918065,0.987481,0.947889,1.234915
1702544236,1702544236,65,0,4414.230957,4514.102539,4366.538574,4406.153809,4297.692383,4289.487305,4289.358887,4291.282227,4278.077148,4292.94873,4559.487305,4522.820313,4482.94873,4578.333496,5539,4,80,,,,0,4,4,4,4,4,4,4,4,4,4,4,4,4,4,100,,,,,,,,,,,,,,,,,,,,,,,,,,,,,,,,,,,,,,,,,,,,,,,,,,,,,,,,,,,,,,,,,,,,,,,,,,,,,,,,,,,,,,,,,,,,,,,,,,,,,,,,,,,,,,,,,,,,,,,,,,,,,,,,,,,,,,
1702544236,1702544236,66,0,4407.307617,4491.794922,4364.358887,4380.769043,4306.538574,4298.333496,4296.410156,4294.358887,4281.153809,4290.128418,4556.922852,4521.410156,4465.641113,4561.025879,5440,4,80,,,,0,4,4,4,4,4,4,4,4,4,4,4,4,4,4,100,,,,,,,,,,,,,,,,,,,,,,,,,,,,,,,,,,,,,,,,,,,,,,,,,,,,,,,,,,,,,,,,,,,,,,,,,,,,,,,,,,,,,,,,,,,,,,,,,,,,,,,,,,,,,,,,,,,,,,,,,,,,,,,,,,,,,,
1702544236,1702544236,67,0,4387.179688,4460.897461,4353.974121,4363.205078,4301.794922,4296.410156,4292.692383,4294.615234,4284.230957,4285.897461,4554.871582,4508.461426,4445.384766,4544.358887,5427,4,80,,,,0,4,4,4,4,4,4,4,4,4,4,4,4,4,4,100,,,,,,,,,,,,,,,,,,,,,,,,,,,,,,,,,,,,,,,,,,,,,,,,,,,,,,,,,,,,,,,,,,,,,,,,,,,,,,,,,,,,,,,,,,,,,,,,,,,,,,,,,,,,,,,,,,,,,,,,,,,,,,,,,,,,,,
1702544236,1702544236,68,0,4353.461426,4412.563965,4342.692383,4351.794922,4291.410156,4292.94873,4282.307617,4285.769043,4278.717773,4280.512695,4541.538574,4492.94873,4416.153809,4515.384766,5369,4,80,,,,0,4,4,4,4,4,4,4,4,4,4,4,4,4,4,100,,,,,,,,,,,,,,,,,17,0,0.104418,-0.599548,0.134338,-0.782043,0.910267,-0.325235,0.215847,-9.976623,3.74479,88.605621,,,,,,,,,,,,,,,,,,,,,,,,,,,,,,,,,,,,,,,,,,,,,,,,,,,,,,,,,,,,,,,,,,,,,,,,,,,,,,,,,,,,,,,,,,,,,,,,,,,,,,,,,,
1702544236,1702544236,69,0,4339.743652,4380.256348,4340.641113,4343.461426,4298.077148,4295.897461,4282.05127,4284.358887,4277.820313,4279.487305,4534.743652,4493.974121,4392.692383,4482.563965,5318,4,80,,,,0,4,4,4,4,4,4,4,4,4,4,4,4,4,4,100,,,,,,,,,,,,,,,,,,,,,,,,,,,,,,,,,,,,,,,,,,,,,,,,,,,,,,,,,,,,,,,,,,,,,,,,,,,,,,,,,,,,,,,,,,,,,,,,,,,,,,,,,,,,,,,,,,,,,,,,,,,,,,,,,,,,,,
1702544236,1702544236,70,0,4338.461426,4372.179688,4338.205078,4338.717773,4302.94873,4298.589844,4287.563965,4292.436035,4282.436035,4280.512695,4533.717773,4497.436035,4385,4476.666504,5247,4,80,,,,0,4,4,4,4,4,4,4,4,4,4,4,4,4,4,100,,,,,,,,,,,,,,,,,,,,,,,,,,,,,,,,,,,,,,,,,,,,,,,,,,,,,,,,,,,,,,,,,,,,,,,,,,,,,,,,,,,,,,,,,,,,,,,,,,,,,,,,,,,,,,,,,,,,,,,,,,,,,,,,,,,,,,
1702544236,1702544236,71,0,4328.461426,4356.153809,4330.897461,4332.820313,4297.179688,4294.487305,4282.307617,4293.205078,4281.794922,4283.589844,4522.179688,4489.230957,4383.461426,4490.512695,5040,4,80,,,,0,4,4,4,4,4,4,4,4,4,4,4,4,4,4,100,,,,,,,,,,,,,,,,,,,,,,,,,,,,,,,,,,,,,,,,,,,,,,,,,,,,,,,,,,,,,,,,,,,,,,,,,,,,,,,,,,,,,,,,,,,,,,,,,,,,,,,,,,,,,,,,,,,,,,,,,,,,,,,,,,,,,,
1702544236,1702544236,72,0,4319.358887,4337.692383,4330.897461,4323.461426,4296.025879,4294.615234,4282.692383,4294.358887,4289.487305,4295.128418,4513.974121,4487.179688,4377.179688,4496.794922,5357,4,80,,,,0,4,4,4,4,4,4,4,4,4,4,4,4,4,4,100,,,,,,,,,,,,,,,,,18,0,0.104468,-0.599243,0.134949,-0.782166,0.932243,-0.297888,0.205103,-9.962294,3.753645,88.595062,,,,,,,,,,,,,,,,,,,,,,,,,,,,,,,,,,,,,,,,,,,,,,,,,,,,,,,,,,,,,,,,,,,,,,,,,,,,,,,,,,,,,,,,,,,,,,,,,,,,,,,,,,
1702544236,1702544236,73,0,4316.538574,4329.615234,4331.153809,4314.615234,4284.358887,4298.846191,4289.102539,4298.333496,4294.358887,4298.717773,4520.769043,4485,4370.256348,4483.589844,5354,4,80,,,,0,4,4,4,4,4,4,4,4,4,4,4,4,4,4,100,,,,,,,,,,,,,,,,,,,,,,,,,,,,,,,,,,,,,,,,,,,,,,,,,,,,,,,,,,,,,,,,,,,,,,,,,,,,,,,,,,,,,,,,,,,,,,,,,,,,,,,,,,,,,,,,,,,,,,,,,,,,,,,,,,,,,,
1702544236,1702544236,74,0,4305.128418,4317.820313,4325.384766,4309.615234,4279.871582,4293.717773,4281.666504,4295.641113,4287.94873,4291.666504,4523.846191,4476.282227,4365.128418,4463.205078,6042,4,80,,,,0,4,4,4,4,4,4,4,4,4,4,4,4,4,4,100,,,,,,,,,,,,,,,,,,,,,,,,,,,,,,,,,,,,,,,,,,,,,,,,,,,,,,,,,,,,,,,,,,,,,,,,,,,,,,,,,,,,,,,,,,,,,,,,,,,,,,,,,,,,,,,,,,,,,,,,,,,,,,,,,,,,,,
1702544236,1702544236,75,0,4291.922852,4305.641113,4326.410156,4309.102539,4294.871582,4287.436035,4275.256348,4293.333496,4286.153809,4289.743652,4521.794922,4474.615234,4356.153809,4465.641113,6277,4,80,,,,0,4,4,4,4,4,4,4,4,4,4,4,4,4,4,100,,,,,,,,,,,,,,,,,,,,,,,,,,,,,,,,,,,,,,,,,,,,,,,,,,,,,,,,,,,,,,,,,,,,,,,,,,,,,,,,,,,,,,,,,,,,,,,,,,,,,,,,,,,,,,,,,,,,,,,,,,,,,,,,,,,,,,
1702544236,1702544236,76,0,4290,4296.282227,4325.897461,4308.077148,4279.102539,4290.769043,4285.256348,4294.102539,4286.282227,4286.922852,4513.846191,4473.589844,4345.641113,4474.230957,6701,4,80,,,,0,4,4,4,4,4,4,4,4,4,4,4,4,4,4,100,,,,,,,,,,,,,,,,,19,0,0.104084,-0.598999,0.13562,-0.782288,0.914662,-0.307655,0.20901,-10.032731,3.67828,88.668892,,,,,,,,,,,,,,,,,,,,,,,,,,,,,,,,,,,,,,,,,,,,,,,,,,,,,,,,,,,,,,,,,,,,,,,,,,,,,,,,,,,,,,,,,,,,,,,,,,,,,,,,,,
1702544236,1702544236,77,0,4299.230957,4292.692383,4325.384766,4307.179688,4256.922852,4298.205078,4296.922852,4294.487305,4283.846191,4283.717773,4507.307617,4474.358887,4349.871582,4466.922852,6945,4,80,,,,0,4,4,4,4,4,4,4,4,4,4,4,4,4,4,100,,,,,,,,,,,,,,,,,,,,,,,,,,,,,,,,,,,,,,,,,,,,,,,,,,,,,,,,,,,,,,,,,,,,,,,,,,,,,,,,,,,,,,,,,,,,,,,,,,,,,,,,,,,,,,,,,,,,,,,,,,,,,,,,,,,,,,
1702544236,1702544236,78,0,4300.512695,4300.769043,4329.871582,4306.794922,4282.820313,4297.820313,4299.615234,4296.538574,4283.461426,4283.461426,4511.282227,4480.641113,4359.358887,4468.333496,6042,4,80,,,,0,4,4,4,4,4,4,4,4,4,4,4,4,4,4,100,,,,,,,,,,,,,,,,,,,,,,,,,,,,,,,,,,,,,,,,,,,,,,,,,,,,,,,,,,,,,,,,,,,,,,,,,,,,,,,,,,,,,,,,,,,,,,,,,,,,,,,,,,,,,,,,,,,,,,,,,,,,,,,,,,,,,,
1702544236,1702544236,79,0,4283.205078,4297.692383,4327.94873,4305.512695,4305.769043,4292.563965,4295.128418,4296.025879,4280.128418,4278.461426,4510.769043,4478.333496,4354.230957,4479.871582,6277,4,80,,,,0,4,4,4,4,4,4,4,4,4,4,4,4,4,4,100,,,,,,,,,,,,,,,,,,,,,,,,,,,,,,,,,,,,,,,,,,,,,,,,,,,,,,,,,,,,,,,,,,,,,,,,,,,,,,,,,,,,,,,,,,,,,,,,,,,,,,,,,,,,,,,,,,,,,,,,,,,,,,,,,,,,,,
1702544236,1702544236,80,0,4274.102539,4282.94873,4320.769043,4301.922852,4292.563965,4294.102539,4296.794922,4295.384766,4278.589844,4278.333496,4508.717773,4470.384766,4341.410156,4475.256348,6701,4,80,,,,0,4,4,4,4,4,4,4,4,4,4,4,4,4,4,100,1,41.666668,3,1,4,4,4,4,4,4,4,4,4,4,3,1,20,0,0.104173,-0.598755,0.135925,-0.78241,0.903431,-0.291539,0.21487,-10.062791,3.493786,88.818665,,,,,,,,,,,,,,,,,,,,,,,,,,,,,,,,,,,,,1.401374,1.038405,1.102871,0.360523,0.367922,3.335622,0.774016,0.876354,0.685699,0.489429,1.247872,0.677283,0.617508,0.24751,0.308926,1.507025,0.85937,0.633626,0.495287,0.403092,0.738014,0.473021,0.377391,0.158307,0.311549,0.507707,0.419871,0.438607,0.219325,0.166079,0.806639,0.552982,0.404515,0.268499,0.224093,0.480754,0.64723,0.767279,0.212872,0.182158,0.614987,0.872067,0.95026,0.245204,0.254751,0.598619,0.630349,0.918609,0.231214,0.366668,1.336259,1.374708,1.524879,1.188172,0.415707,1.036161,1.560416,1.328367,0.427253,0.41991,0.767547,1.00858,0.983168,1.009386,0.961505,1.939801,1.905505,0.937472,0.989672,1.275398
1702544236,1702544236,81,0,4281.025879,4279.358887,4314.871582,4298.205078,4290.256348,4297.05127,4297.692383,4294.230957,4279.487305,4279.358887,4507.436035,4466.410156,4330.384766,4459.743652,6945,4,80,,,,0,4,4,4,4,4,4,4,4,4,4,4,4,4,4,100,,,,,,,,,,,,,,,,,,,,,,,,,,,,,,,,,,,,,,,,,,,,,,,,,,,,,,,,,,,,,,,,,,,,,,,,,,,,,,,,,,,,,,,,,,,,,,,,,,,,,,,,,,,,,,,,,,,,,,,,,,,,,,,,,,,,,,
1702544236,1702544236,82,0,4274.615234,4277.820313,4306.538574,4291.410156,4297.307617,4292.307617,4283.717773,4281.794922,4267.05127,4266.538574,4493.717773,4455.512695,4323.461426,4444.102539,6042,4,80,,,,0,4,4,4,4,4,4,4,4,4,4,4,4,4,4,100,,,,,,,,,,,,,,,,,,,,,,,,,,,,,,,,,,,,,,,,,,,,,,,,,,,,,,,,,,,,,,,,,,,,,,,,,,,,,,,,,,,,,,,,,,,,,,,,,,,,,,,,,,,,,,,,,,,,,,,,,,,,,,,,,,,,,,
1702544236,1702544236,83,0,4270.641113,4283.846191,4305.256348,4290.256348,4294.615234,4291.666504,4276.794922,4273.717773,4258.846191,4264.230957,4485.769043,4454.102539,4322.307617,4439.487305,6277,4,80,,,,0,4,4,4,4,4,4,4,4,4,4,4,4,4,4,100,,,,,,,,,,,,,,,,,,,,,,,,,,,,,,,,,,,,,,,,,,,,,,,,,,,,,,,,,,,,,,,,,,,,,,,,,,,,,,,,,,,,,,,,,,,,,,,,,,,,,,,,,,,,,,,,,,,,,,,,,,,,,,,,,,,,,,
1702544236,1702544236,84,0,4277.94873,4295,4310.897461,4292.692383,4296.282227,4296.410156,4282.820313,4279.743652,4266.025879,4276.794922,4492.94873,4462.436035,4318.846191,4450.641113,6701,4,80,,,,0,4,4,4,4,4,4,4,4,4,4,4,4,4,4,100,,,,,,,,,,,,,,,,,21,0,0.104096,-0.598328,0.136108,-0.782715,0.932731,-0.301306,0.213405,-10.106512,3.544407,88.886803,,,,,,,,,,,,,,,,,,,,,,,,,,,,,,,,,,,,,,,,,,,,,,,,,,,,,,,,,,,,,,,,,,,,,,,,,,,,,,,,,,,,,,,,,,,,,,,,,,,,,,,,,,
1702544236,1702544236,85,0,4271.794922,4284.871582,4306.153809,4287.692383,4293.461426,4292.436035,4279.615234,4277.307617,4263.589844,4268.846191,4488.717773,4449.230957,4312.94873,4446.410156,6945,4,80,,,,0,4,4,4,4,4,4,4,4,4,4,4,4,4,4,100,,,,,,,,,,,,,,,,,,,,,,,,,,,,,,,,,,,,,,,,,,,,,,,,,,,,,,,,,,,,,,,,,,,,,,,,,,,,,,,,,,,,,,,,,,,,,,,,,,,,,,,,,,,,,,,,,,,,,,,,,,,,,,,,,,,,,,
1702544236,1702544236,86,0,4271.282227,4282.94873,4308.589844,4289.230957,4293.205078,4292.820313,4282.179688,4278.717773,4266.025879,4261.794922,4492.94873,4448.974121,4326.794922,4447.436035,6042,4,80,,,,0,4,4,4,4,4,4,4,4,4,4,4,4,4,4,100,,,,,,,,,,,,,,,,,,,,,,,,,,,,,,,,,,,,,,,,,,,,,,,,,,,,,,,,,,,,,,,,,,,,,,,,,,,,,,,,,,,,,,,,,,,,,,,,,,,,,,,,,,,,,,,,,,,,,,,,,,,,,,,,,,,,,,
1702544236,1702544236,87,0,4284.871582,4297.436035,4323.333496,4298.846191,4299.615234,4300.512695,4299.358887,4295,4281.410156,4281.025879,4512.436035,4474.102539,4343.461426,4467.692383,6277,4,80,,,,0,4,4,4,4,4,4,4,4,4,4,4,4,4,4,100,,,,,,,,,,,,,,,,,,,,,,,,,,,,,,,,,,,,,,,,,,,,,,,,,,,,,,,,,,,,,,,,,,,,,,,,,,,,,,,,,,,,,,,,,,,,,,,,,,,,,,,,,,,,,,,,,,,,,,,,,,,,,,,,,,,,,,
1702544236,1702544236,88,0,4276.538574,4287.692383,4318.205078,4291.538574,4300.128418,4299.358887,4297.563965,4295.512695,4282.820313,4285.897461,4503.077148,4471.282227,4322.179688,4452.307617,6701,4,80,,,,0,4,4,4,4,4,4,4,4,4,4,4,4,4,4,100,,,,,,,,,,,,,,,,,22,0,0.103848,-0.598267,0.135864,-0.782837,0.914662,-0.2974,0.226102,-10.145861,3.6733,88.94812,,,,,,,,,,,,,,,,,,,,,,,,,,,,,,,,,,,,,,,,,,,,,,,,,,,,,,,,,,,,,,,,,,,,,,,,,,,,,,,,,,,,,,,,,,,,,,,,,,,,,,,,,,
1702544237,1702544237,89,0,4256.666504,4270.512695,4297.179688,4274.487305,4291.153809,4290.641113,4279.615234,4279.230957,4267.692383,4261.282227,4473.333496,4445.512695,4291.282227,4418.846191,6945,4,80,,,,0,4,4,4,4,4,4,4,4,4,4,4,4,4,4,100,,,,,,,,,,,,,,,,,,,,,,,,,,,,,,,,,,,,,,,,,,,,,,,,,,,,,,,,,,,,,,,,,,,,,,,,,,,,,,,,,,,,,,,,,,,,,,,,,,,,,,,,,,,,,,,,,,,,,,,,,,,,,,,,,,,,,,
1702544237,1702544237,90,0,4258.974121,4278.589844,4289.487305,4276.153809,4281.922852,4284.358887,4277.179688,4275.641113,4262.05127,4256.922852,4468.846191,4439.487305,4304.102539,4429.487305,6042,4,80,,,,0,4,4,4,4,4,4,4,4,4,4,4,4,4,4,100,,,,,,,,,,,,,,,,,,,,,,,,,,,,,,,,,,,,,,,,,,,,,,,,,,,,,,,,,,,,,,,,,,,,,,,,,,,,,,,,,,,,,,,,,,,,,,,,,,,,,,,,,,,,,,,,,,,,,,,,,,,,,,,,,,,,,,
1702544237,1702544237,91,0,4267.436035,4283.717773,4299.230957,4287.05127,4283.846191,4282.436035,4282.179688,4284.743652,4266.922852,4272.563965,4486.282227,4447.307617,4330.641113,4447.563965,6277,4,80,,,,0,4,4,4,4,4,4,4,4,4,4,4,4,4,4,100,,,,,,,,,,,,,,,,,,,,,,,,,,,,,,,,,,,,,,,,,,,,,,,,,,,,,,,,,,,,,,,,,,,,,,,,,,,,,,,,,,,,,,,,,,,,,,,,,,,,,,,,,,,,,,,,,,,,,,,,,,,,,,,,,,,,,,
1702544237,1702544237,92,0,4263.846191,4272.436035,4307.563965,4278.461426,4287.94873,4286.153809,4280.897461,4285.897461,4267.563965,4268.717773,4495,4455,4318.846191,4434.743652,6701,4,80,,,,0,4,4,4,4,4,4,4,4,4,4,4,4,4,4,100,,,,,,,,,,,,,,,,,23,0,0.103815,-0.5979,0.135742,-0.783142,0.934196,-0.297888,0.218288,-10.147942,3.672636,88.969971,,,,,,,,,,,,,,,,,,,,,,,,,,,,,,,,,,,,,,,,,,,,,,,,,,,,,,,,,,,,,,,,,,,,,,,,,,,,,,,,,,,,,,,,,,,,,,,,,,,,,,,,,,
1702544237,1702544237,93,0,4260.128418,4265.512695,4303.846191,4271.922852,4284.102539,4289.358887,4279.102539,4280.128418,4263.974121,4259.743652,4490.256348,4459.743652,4302.05127,4424.102539,6945,4,80,,,,0,4,4,4,4,4,4,4,4,4,4,4,4,4,4,100,,,,,,,,,,,,,,,,,,,,,,,,,,,,,,,,,,,,,,,,,,,,,,,,,,,,,,,,,,,,,,,,,,,,,,,,,,,,,,,,,,,,,,,,,,,,,,,,,,,,,,,,,,,,,,,,,,,,,,,,,,,,,,,,,,,,,,
1702544237,1702544237,94,0,4266.025879,4268.846191,4297.436035,4282.05127,4279.358887,4283.717773,4278.461426,4279.102539,4264.358887,4262.179688,4482.307617,4451.922852,4312.563965,4426.794922,6042,4,80,,,,0,4,4,4,4,4,4,4,4,4,4,4,4,4,4,100,,,,,,,,,,,,,,,,,,,,,,,,,,,,,,,,,,,,,,,,,,,,,,,,,,,,,,,,,,,,,,,,,,,,,,,,,,,,,,,,,,,,,,,,,,,,,,,,,,,,,,,,,,,,,,,,,,,,,,,,,,,,,,,,,,,,,,
1702544237,1702544237,95,0,4266.410156,4272.94873,4295.512695,4275,4277.436035,4278.333496,4274.871582,4279.615234,4263.846191,4256.538574,4466.282227,4443.846191,4315.128418,4427.436035,6277,4,80,,,,0,4,4,4,4,4,4,4,4,4,4,4,4,4,4,100,,,,,,,,,,,,,,,,,,,,,,,,,,,,,,,,,,,,,,,,,,,,,,,,,,,,,,,,,,,,,,,,,,,,,,,,,,,,,,,,,,,,,,,,,,,,,,,,,,,,,,,,,,,,,,,,,,,,,,,,,,,,,,,,,,,,,,
1702544237,1702544237,96,0,4253.333496,4270.641113,4293.589844,4259.102539,4275.512695,4277.820313,4271.410156,4276.666504,4262.05127,4250.897461,4458.461426,4444.743652,4305.512695,4430.384766,6701,4,80,,,,0,4,4,4,4,4,4,4,4,4,4,4,4,4,4,100,,,,,,,,,,,,,,,,,24,0,0.103105,-0.597717,0.135681,-0.783386,0.920034,-0.305701,0.224148,-10.01648,3.622039,88.906311,,,,,,,,,,,,,,,,,,,,,,,,,,,,,,,,,,,,,3.176931,0.883838,1.032701,0.39401,0.330517,8.651307,0.655107,0.870128,0.640305,0.500297,1.894303,0.597916,0.530907,0.27122,0.312775,2.579205,0.672234,0.631316,0.538321,0.445316,1.01271,0.407726,0.363202,0.172169,0.31969,0.606843,0.336556,0.374501,0.213175,0.171635,0.957994,0.496547,0.385332,0.257797,0.216378,0.504097,0.551722,0.568967,0.265346,0.182479,0.628028,0.721833,0.719837,0.236119,0.240023,0.54416,0.485088,0.688846,0.238447,0.342415,1.857807,1.248462,1.709539,1.122753,0.426146,1.809024,1.431976,1.12761,0.480162,0.441541,2.775702,1.005256,0.942705,0.979247,0.890216,4.271268,1.889236,0.892585,1.058153,1.283756
1702544237,1702544237,97,0,4251.538574,4262.94873,4293.846191,4269.615234,4275.769043,4274.743652,4272.563965,4277.05127,4271.282227,4262.820313,4478.974121,4446.922852,4309.230957,4428.846191,6945,4,80,,,,0,4,4,4,4,4,4,4,4,4,4,4,4,4,4,100,,,,,,,,,,,,,,,,,,,,,,,,,,,,,,,,,,,,,,,,,,,,,,,,,,,,,,,,,,,,,,,,,,,,,,,,,,,,,,,,,,,,,,,,,,,,,,,,,,,,,,,,,,,,,,,,,,,,,,,,,,,,,,,,,,,,,,
1702544237,1702544237,98,0,4262.307617,4261.794922,4296.666504,4283.589844,4277.820313,4274.358887,4276.794922,4280.128418,4276.410156,4268.333496,4494.230957,4446.410156,4313.077148,4413.717773,6042,4,80,,,,0,4,4,4,4,4,4,4,4,4,4,4,4,4,4,100,,,,,,,,,,,,,,,,,,,,,,,,,,,,,,,,,,,,,,,,,,,,,,,,,,,,,,,,,,,,,,,,,,,,,,,,,,,,,,,,,,,,,,,,,,,,,,,,,,,,,,,,,,,,,,,,,,,,,,,,,,,,,,,,,,,,,,
1702544237,1702544237,99,0,4267.820313,4269.615234,4296.282227,4276.282227,4275,4280.256348,4280.128418,4278.974121,4268.717773,4263.333496,4479.358887,4445.512695,4311.922852,4413.846191,6277,4,80,,,,0,4,4,4,4,4,4,4,4,4,4,4,4,4,4,100,,,,,,,,,,,,,,,,,,,,,,,,,,,,,,,,,,,,,,,,,,,,,,,,,,,,,,,,,,,,,,,,,,,,,,,,,,,,,,,,,,,,,,,,,,,,,,,,,,,,,,,,,,,,,,,,,,,,,,,,,,,,,,,,,,,,,,
1702544237,1702544237,100,0,4263.461426,4272.563965,4295.641113,4268.589844,4273.077148,4279.743652,4279.230957,4280.897461,4268.077148,4264.615234,4473.077148,4446.025879,4314.230957,4430.641113,6701,4,80,,,,0,4,4,4,4,4,4,4,4,4,4,4,4,4,4,100,,,,,,,,,,,,,,,,,25,0,0.102097,-0.597473,0.136108,-0.78363,0.916616,-0.298376,0.208522,-9.9815,3.576502,88.932343,,,,,,,,,,,,,,,,,,,,,,,,,,,,,,,,,,,,,,,,,,,,,,,,,,,,,,,,,,,,,,,,,,,,,,,,,,,,,,,,,,,,,,,,,,,,,,,,,,,,,,,,,,
1702544237,1702544237,101,0,4252.179688,4260.897461,4293.461426,4267.94873,4277.563965,4272.307617,4277.05127,4282.820313,4276.025879,4266.025879,4475.897461,4438.846191,4317.05127,4431.153809,6945,4,80,,,,0,4,4,4,4,4,4,4,4,4,4,4,4,4,4,100,,,,,,,,,,,,,,,,,,,,,,,,,,,,,,,,,,,,,,,,,,,,,,,,,,,,,,,,,,,,,,,,,,,,,,,,,,,,,,,,,,,,,,,,,,,,,,,,,,,,,,,,,,,,,,,,,,,,,,,,,,,,,,,,,,,,,,
1702544237,1702544237,102,0,4246.282227,4250,4291.025879,4267.05127,4271.794922,4278.461426,4276.153809,4280.128418,4275.256348,4263.589844,4465.769043,4430,4316.666504,4413.846191,6042,4,80,,,,0,4,4,4,4,4,4,4,4,4,4,4,4,4,4,100,,,,,,,,,,,,,,,,,,,,,,,,,,,,,,,,,,,,,,,,,,,,,,,,,,,,,,,,,,,,,,,,,,,,,,,,,,,,,,,,,,,,,,,,,,,,,,,,,,,,,,,,,,,,,,,,,,,,,,,,,,,,,,,,,,,,,,
1702544237,1702544237,103,0,4247.94873,4250.256348,4292.563965,4264.615234,4255,4281.410156,4272.179688,4281.153809,4269.102539,4262.05127,4471.410156,4433.589844,4304.615234,4397.307617,6277,4,80,,,,0,4,4,4,4,4,4,4,4,4,4,4,4,4,4,100,,,,,,,,,,,,,,,,,,,,,,,,,,,,,,,,,,,,,,,,,,,,,,,,,,,,,,,,,,,,,,,,,,,,,,,,,,,,,,,,,,,,,,,,,,,,,,,,,,,,,,,,,,,,,,,,,,,,,,,,,,,,,,,,,,,,,,
1702544237,1702544237,104,0,4242.05127,4247.307617,4283.717773,4250.512695,4251.666504,4264.615234,4260.384766,4275.641113,4265.128418,4258.589844,4479.871582,4431.538574,4290.641113,4390.512695,6701,4,80,,,,0,4,4,4,4,4,4,4,4,4,4,4,4,4,4,100,,,,,,,,,,,,,,,,,26,0,0.101742,-0.59729,0.136475,-0.783752,0.923453,-0.309608,0.209987,-9.816683,3.535519,88.789108,,,,,,,,,,,,,,,,,,,,,,,,,,,,,,,,,,,,,,,,,,,,,,,,,,,,,,,,,,,,,,,,,,,,,,,,,,,,,,,,,,,,,,,,,,,,,,,,,,,,,,,,,,
1702544237,1702544237,105,0,4240.641113,4249.743652,4276.153809,4242.692383,4266.666504,4253.589844,4252.94873,4264.615234,4261.538574,4255.641113,4459.358887,4422.307617,4296.538574,4406.282227,6945,4,80,,,,0,4,4,4,4,4,4,4,4,4,4,4,4,4,4,100,,,,,,,,,,,,,,,,,,,,,,,,,,,,,,,,,,,,,,,,,,,,,,,,,,,,,,,,,,,,,,,,,,,,,,,,,,,,,,,,,,,,,,,,,,,,,,,,,,,,,,,,,,,,,,,,,,,,,,,,,,,,,,,,,,,,,,
1702544237,1702544237,106,0,4256.794922,4264.487305,4288.589844,4267.179688,4273.205078,4266.666504,4264.487305,4271.153809,4263.589844,4261.410156,4452.436035,4431.922852,4316.282227,4430.128418,6042,4,80,,,,0,4,4,4,4,4,4,4,4,4,4,4,4,4,4,100,,,,,,,,,,,,,,,,,,,,,,,,,,,,,,,,,,,,,,,,,,,,,,,,,,,,,,,,,,,,,,,,,,,,,,,,,,,,,,,,,,,,,,,,,,,,,,,,,,,,,,,,,,,,,,,,,,,,,,,,,,,,,,,,,,,,,,
1702544237,1702544237,107,0,4259.487305,4267.436035,4298.717773,4284.615234,4255.128418,4277.05127,4274.743652,4283.205078,4265.641113,4260.769043,4467.692383,4446.025879,4312.820313,4421.922852,6277,4,80,,,,0,4,4,4,4,4,4,4,4,4,4,4,4,4,4,100,,,,,,,,,,,,,,,,,,,,,,,,,,,,,,,,,,,,,,,,,,,,,,,,,,,,,,,,,,,,,,,,,,,,,,,,,,,,,,,,,,,,,,,,,,,,,,,,,,,,,,,,,,,,,,,,,,,,,,,,,,,,,,,,,,,,,,
1702544237,1702544237,108,0,4247.692383,4260.512695,4292.563965,4268.589844,4248.333496,4270.128418,4269.615234,4276.282227,4262.563965,4252.820313,4468.974121,4439.487305,4297.307617,4403.333496,6701,4,80,,,,0,4,4,4,4,4,4,4,4,4,4,4,4,4,4,100,,,,,,,,,,,,,,,,,27,0,0.102271,-0.597168,0.136963,-0.783691,0.914662,-0.271518,0.216335,-9.785014,3.598633,88.726868,,,,,,,,,,,,,,,,,,,,,,,,,,,,,,,,,,,,,,,,,,,,,,,,,,,,,,,,,,,,,,,,,,,,,,,,,,,,,,,,,,,,,,,,,,,,,,,,,,,,,,,,,,
1702544237,1702544237,109,0,4247.179688,4262.05127,4288.333496,4254.871582,4264.487305,4266.410156,4265.384766,4265.384766,4259.487305,4253.333496,4460.512695,4428.461426,4307.307617,4405.512695,6945,4,80,,,,0,4,4,4,4,4,4,4,4,4,4,4,4,4,4,100,,,,,,,,,,,,,,,,,,,,,,,,,,,,,,,,,,,,,,,,,,,,,,,,,,,,,,,,,,,,,,,,,,,,,,,,,,,,,,,,,,,,,,,,,,,,,,,,,,,,,,,,,,,,,,,,,,,,,,,,,,,,,,,,,,,,,,
1702544237,1702544237,110,0,4251.922852,4266.538574,4290.384766,4265,4271.794922,4270.769043,4267.436035,4266.282227,4257.692383,4255.256348,4460.897461,4429.871582,4319.230957,4414.358887,6042,4,80,,,,0,4,4,4,4,4,4,4,4,4,4,4,4,4,4,100,,,,,,,,,,,,,,,,,,,,,,,,,,,,,,,,,,,,,,,,,,,,,,,,,,,,,,,,,,,,,,,,,,,,,,,,,,,,,,,,,,,,,,,,,,,,,,,,,,,,,,,,,,,,,,,,,,,,,,,,,,,,,,,,,,,,,,
1702544237,1702544237,111,0,4251.153809,4267.563965,4292.307617,4274.102539,4264.743652,4269.487305,4266.025879,4267.94873,4259.358887,4249.871582,4461.794922,4431.538574,4313.846191,4416.538574,6277,4,80,,,,0,4,4,4,4,4,4,4,4,4,4,4,4,4,4,100,,,,,,,,,,,,,,,,,,,,,,,,,,,,,,,,,,,,,,,,,,,,,,,,,,,,,,,,,,,,,,,,,,,,,,,,,,,,,,,,,,,,,,,,,,,,,,,,,,,,,,,,,,,,,,,,,,,,,,,,,,,,,,,,,,,,,,
1702544237,1702544237,112,0,4248.461426,4263.717773,4293.205078,4265,4261.666504,4262.05127,4260.897461,4264.743652,4260.128418,4245,4459.102539,4428.717773,4310.256348,4402.05127,6701,4,80,,,,0,4,4,4,4,4,4,4,4,4,4,4,4,4,4,100,,,,,,,,,,,,,,,,,28,0,0.101996,-0.597229,0.136902,-0.783691,0.922964,-0.283238,0.220242,-9.823179,3.472103,88.854179,,,,,,,,,,,,,,,,,,,,,,,,,,,,,,,,,,,,,8.209492,0.815538,0.967491,0.449857,0.323756,23.559694,0.778615,0.874691,0.640659,0.50732,3.289829,0.514696,0.462111,0.318649,0.32861,5.403748,0.494448,0.657,0.618866,0.491841,1.498923,0.345439,0.353589,0.193717,0.331758,0.729767,0.266635,0.317357,0.208798,0.183849,1.082542,0.447432,0.382414,0.265265,0.217472,0.59844,0.445614,0.410014,0.334789,0.188612,0.689003,0.532135,0.541144,0.251559,0.232897,0.538844,0.356624,0.532103,0.292481,0.329906,3.535572,1.12535,1.80992,1.105488,0.456854,3.451181,1.21934,0.920964,0.575805,0.466824,8.94524,1.17676,0.944519,0.971431,0.80365,10.977797,1.938885,0.879657,1.115637,1.238948
1702544237,1702544237,113,0,4251.410156,4260.641113,4293.205078,4256.025879,4263.974121,4260.512695,4259.871582,4267.692383,4259.230957,4248.717773,4456.153809,4433.974121,4316.922852,4381.666504,6945,4,80,,,,0,4,4,4,4,4,4,4,4,4,4,4,4,4,4,100,,,,,,,,,,,,,,,,,,,,,,,,,,,,,,,,,,,,,,,,,,,,,,,,,,,,,,,,,,,,,,,,,,,,,,,,,,,,,,,,,,,,,,,,,,,,,,,,,,,,,,,,,,,,,,,,,,,,,,,,,,,,,,,,,,,,,,
1702544237,1702544237,114,0,4260.769043,4270.512695,4296.922852,4265.897461,4264.615234,4265,4264.230957,4278.205078,4264.102539,4256.538574,4462.05127,4444.487305,4325.256348,4392.563965,6042,4,80,,,,0,4,4,4,4,4,4,4,4,4,4,4,4,4,4,100,,,,,,,,,,,,,,,,,,,,,,,,,,,,,,,,,,,,,,,,,,,,,,,,,,,,,,,,,,,,,,,,,,,,,,,,,,,,,,,,,,,,,,,,,,,,,,,,,,,,,,,,,,,,,,,,,,,,,,,,,,,,,,,,,,,,,,
1702544237,1702544237,115,0,4264.230957,4281.025879,4300.641113,4279.615234,4267.307617,4263.846191,4265.512695,4283.205078,4268.717773,4256.538574,4476.282227,4444.871582,4323.717773,4415.897461,6277,4,80,,,,0,4,4,4,4,4,4,4,4,4,4,4,4,4,4,100,,,,,,,,,,,,,,,,,,,,,,,,,,,,,,,,,,,,,,,,,,,,,,,,,,,,,,,,,,,,,,,,,,,,,,,,,,,,,,,,,,,,,,,,,,,,,,,,,,,,,,,,,,,,,,,,,,,,,,,,,,,,,,,,,,,,,,
1702544237,1702544237,116,0,4263.205078,4283.461426,4295.769043,4280.128418,4268.077148,4263.974121,4263.717773,4279.615234,4265.897461,4252.05127,4477.05127,4440.384766,4319.743652,4413.589844,6701,4,80,,,,0,4,4,4,4,4,4,4,4,4,4,4,4,4,4,100,,,,,,,,,,,,,,,,,29,0,0.102597,-0.597168,0.136719,-0.783691,0.913686,-0.304725,0.219753,-9.724195,3.274893,88.835426,,,,,,,,,,,,,,,,,,,,,,,,,,,,,,,,,,,,,,,,,,,,,,,,,,,,,,,,,,,,,,,,,,,,,,,,,,,,,,,,,,,,,,,,,,,,,,,,,,,,,,,,,,
1702544237,1702544237,117,0,4268.333496,4283.974121,4296.025879,4276.538574,4269.487305,4273.846191,4270.256348,4281.666504,4269.230957,4252.692383,4476.666504,4448.205078,4326.025879,4401.282227,6945,4,80,,,,0,4,4,4,4,4,4,4,4,4,4,4,4,4,4,100,,,,,,,,,,,,,,,,,,,,,,,,,,,,,,,,,,,,,,,,,,,,,,,,,,,,,,,,,,,,,,,,,,,,,,,,,,,,,,,,,,,,,,,,,,,,,,,,,,,,,,,,,,,,,,,,,,,,,,,,,,,,,,,,,,,,,,
1702544237,1702544237,118,0,4268.974121,4279.487305,4297.05127,4272.563965,4269.871582,4277.307617,4275,4281.282227,4271.794922,4253.846191,4483.077148,4449.871582,4325,4391.282227,6042,4,80,,,,0,4,4,4,4,4,4,4,4,4,4,4,4,4,4,100,,,,,,,,,,,,,,,,,,,,,,,,,,,,,,,,,,,,,,,,,,,,,,,,,,,,,,,,,,,,,,,,,,,,,,,,,,,,,,,,,,,,,,,,,,,,,,,,,,,,,,,,,,,,,,,,,,,,,,,,,,,,,,,,,,,,,,
1702544237,1702544237,119,0,4260.641113,4282.94873,4285.897461,4261.153809,4263.717773,4268.461426,4265.769043,4267.05127,4253.717773,4244.102539,4467.692383,4432.692383,4310.128418,4383.205078,6277,4,80,,,,0,4,4,4,4,4,4,4,4,4,4,4,4,4,4,100,,,,,,,,,,,,,,,,,,,,,,,,,,,,,,,,,,,,,,,,,,,,,,,,,,,,,,,,,,,,,,,,,,,,,,,,,,,,,,,,,,,,,,,,,,,,,,,,,,,,,,,,,,,,,,,,,,,,,,,,,,,,,,,,,,,,,,
1702544237,1702544237,120,0,4261.410156,4296.282227,4282.436035,4259.871582,4262.820313,4267.05127,4263.717773,4259.358887,4246.538574,4243.461426,4444.358887,4427.05127,4317.563965,4396.538574,6701,4,80,,,,0,4,4,4,4,4,4,4,4,4,4,4,4,4,4,100,,,,,,,,,,,,,,,,,30,0,0.103033,-0.597107,0.136658,-0.783691,0.934684,-0.30619,0.224148,-9.635109,3.230737,88.735222,,,,,,,,,,,,,,,,,,,,,,,,,,,,,,,,,,,,,,,,,,,,,,,,,,,,,,,,,,,,,,,,,,,,,,,,,,,,,,,,,,,,,,,,,,,,,,,,,,,,,,,,,,
1702544237,1702544237,121,0,4262.94873,4290.256348,4288.974121,4269.102539,4263.717773,4268.846191,4269.871582,4264.871582,4256.410156,4251.922852,4446.666504,4431.153809,4327.692383,4406.153809,6945,4,80,,,,0,4,4,4,4,4,4,4,4,4,4,4,4,4,4,100,,,,,,,,,,,,,,,,,,,,,,,,,,,,,,,,,,,,,,,,,,,,,,,,,,,,,,,,,,,,,,,,,,,,,,,,,,,,,,,,,,,,,,,,,,,,,,,,,,,,,,,,,,,,,,,,,,,,,,,,,,,,,,,,,,,,,,
1702544237,1702544237,122,0,4253.077148,4273.077148,4284.358887,4262.436035,4261.922852,4265.256348,4265.512695,4265.512695,4252.820313,4239.615234,4453.717773,4424.358887,4307.820313,4377.05127,6042,4,80,,,,0,4,4,4,4,4,4,4,4,4,4,4,4,4,4,100,,,,,,,,,,,,,,,,,,,,,,,,,,,,,,,,,,,,,,,,,,,,,,,,,,,,,,,,,,,,,,,,,,,,,,,,,,,,,,,,,,,,,,,,,,,,,,,,,,,,,,,,,,,,,,,,,,,,,,,,,,,,,,,,,,,,,,
1702544237,1702544237,123,0,4247.307617,4279.230957,4271.922852,4248.077148,4264.615234,4267.692383,4260.384766,4261.410156,4250.384766,4226.410156,4445.384766,4415,4302.563965,4350.769043,6277,4,80,,,,0,4,4,4,4,4,4,4,4,4,4,4,4,4,4,100,,,,,,,,,,,,,,,,,,,,,,,,,,,,,,,,,,,,,,,,,,,,,,,,,,,,,,,,,,,,,,,,,,,,,,,,,,,,,,,,,,,,,,,,,,,,,,,,,,,,,,,,,,,,,,,,,,,,,,,,,,,,,,,,,,,,,,
1702544237,1702544237,124,0,4249.230957,4279.743652,4269.102539,4248.333496,4262.692383,4270.641113,4267.563965,4268.077148,4264.230957,4242.692383,4446.410156,4416.410156,4316.025879,4350.897461,6701,4,80,,,,0,4,4,4,4,4,4,4,4,4,4,4,4,4,4,100,,,,,,,,,,,,,,,,,31,0,0.103474,-0.597229,0.136841,-0.783508,0.926383,-0.30619,0.207057,-9.688265,3.22433,88.611694,,,,,,,,,,,,,,,,,,,,,,,,,,,,,,,,,,,,,,,,,,,,,,,,,,,,,,,,,,,,,,,,,,,,,,,,,,,,,,,,,,,,,,,,,,,,,,,,,,,,,,,,,,
1702544237,1702544237,125,0,4246.538574,4263.717773,4267.307617,4248.205078,4251.025879,4264.871582,4265,4268.461426,4263.077148,4253.717773,4447.05127,4416.410156,4307.307617,4344.487305,6945,4,80,,,,0,4,4,4,4,4,4,4,4,4,4,4,4,4,4,100,,,,,,,,,,,,,,,,,,,,,,,,,,,,,,,,,,,,,,,,,,,,,,,,,,,,,,,,,,,,,,,,,,,,,,,,,,,,,,,,,,,,,,,,,,,,,,,,,,,,,,,,,,,,,,,,,,,,,,,,,,,,,,,,,,,,,,
1702544237,1702544237,126,0,4240.128418,4268.461426,4260.512695,4245.512695,4243.589844,4260.384766,4250.769043,4253.077148,4247.563965,4240.128418,4435.128418,4409.358887,4295.512695,4337.05127,6042,4,80,,,,0,4,4,4,4,4,4,4,4,4,4,4,4,4,4,100,,,,,,,,,,,,,,,,,,,,,,,,,,,,,,,,,,,,,,,,,,,,,,,,,,,,,,,,,,,,,,,,,,,,,,,,,,,,,,,,,,,,,,,,,,,,,,,,,,,,,,,,,,,,,,,,,,,,,,,,,,,,,,,,,,,,,,
1702544237,1702544237,127,0,4240.641113,4281.666504,4265,4252.94873,4246.410156,4258.974121,4251.153809,4252.05127,4250.128418,4234.102539,4431.282227,4412.692383,4293.461426,4345.128418,80,4,80,,,,0,4,4,4,4,4,4,4,4,4,4,4,4,4,4,100,,,,,,,,,,,,,,,,,,,,,,,,,,,,,,,,,,,,,,,,,,,,,,,,,,,,,,,,,,,,,,,,,,,,,,,,,,,,,,,,,,,,,,,,,,,,,,,,,,,,,,,,,,,,,,,,,,,,,,,,,,,,,,,,,,,,,,
1702544237,1702544237,0,0,4257.94873,4280.256348,4284.743652,4262.94873,4257.820313,4264.102539,4264.615234,4268.333496,4261.025879,4241.794922,4444.615234,4430.128418,4299.358887,4351.538574,5379,4,80,,,,0,4,4,4,4,4,4,4,4,4,4,4,4,4,4,100,,,,,,,,,,,,,,,,,0,0,0.104239,-0.59729,0.13739,-0.783264,0.933708,-0.307166,0.219753,-9.652772,3.268564,88.583862,,,,,,,,,,,,,,,,,,,,,,,,,,,,,,,,,,,,,17.061226,0.916709,0.913942,0.521133,0.33338,49.915802,1.286527,0.876985,0.67683,0.500187,5.499683,0.470443,0.425371,0.383461,0.351656,10.267181,0.391713,0.717512,0.728245,0.534617,2.251792,0.311158,0.359626,0.220347,0.35173,0.888568,0.219152,0.274081,0.210028,0.199809,1.182783,0.42774,0.400562,0.291708,0.222302,0.779565,0.377499,0.323629,0.405627,0.195696,0.814332,0.379109,0.447183,0.285751,0.232692,0.604891,0.286813,0.462073,0.375683,0.328567,6.431352,1.035811,1.772611,1.136558,0.495093,6.087794,1.008268,0.743964,0.698357,0.487195,20.247896,1.610998,0.970167,0.977858,0.714226,23.099176,2.198374,0.904522,1.141674,1.1477
1702544237,1702544237,1,0,4267.179688,4278.846191,4290.512695,4261.282227,4259.743652,4265.641113,4262.307617,4265.256348,4254.487305,4236.794922,4452.05127,4432.179688,4311.794922,4353.077148,5556,4,80,,,,0,4,4,4,4,4,4,4,4,4,4,4,4,4,4,100,,,,,,,,,,,,,,,,,,,,,,,,,,,,,,,,,,,,,,,,,,,,,,,,,,,,,,,,,,,,,,,,,,,,,,,,,,,,,,,,,,,,,,,,,,,,,,,,,,,,,,,,,,,,,,,,,,,,,,,,,,,,,,,,,,,,,,
1702544237,1702544237,2,0,4250.256348,4280.128418,4270.512695,4253.846191,4248.461426,4255.384766,4249.487305,4246.794922,4241.666504,4231.922852,4436.025879,4413.974121,4306.410156,4355.897461,5472,4,80,,,,0,4,4,4,4,4,4,4,4,4,4,4,4,4,4,100,,,,,,,,,,,,,,,,,,,,,,,,,,,,,,,,,,,,,,,,,,,,,,,,,,,,,,,,,,,,,,,,,,,,,,,,,,,,,,,,,,,,,,,,,,,,,,,,,,,,,,,,,,,,,,,,,,,,,,,,,,,,,,,,,,,,,,
1702544237,1702544237,3,0,4241.410156,4272.563965,4261.025879,4253.461426,4248.717773,4253.589844,4249.487305,4247.436035,4239.358887,4235.384766,4424.230957,4405,4294.615234,4352.692383,5424,4,80,,,,0,4,4,4,4,4,4,4,4,4,4,4,4,4,4,100,,,,,,,,,,,,,,,,,,,,,,,,,,,,,,,,,,,,,,,,,,,,,,,,,,,,,,,,,,,,,,,,,,,,,,,,,,,,,,,,,,,,,,,,,,,,,,,,,,,,,,,,,,,,,,,,,,,,,,,,,,,,,,,,,,,,,,
1702544237,1702544237,4,0,4244.487305,4256.666504,4266.922852,4249.102539,4250.256348,4257.563965,4252.307617,4253.205078,4239.743652,4227.307617,4424.358887,4405.384766,4290.384766,4332.563965,5367,4,80,,,,0,4,4,4,4,4,4,4,4,4,4,4,4,4,4,100,,,,,,,,,,,,,,,,,1,0,0.104162,-0.597351,0.137878,-0.783142,0.912221,-0.308631,0.209498,-9.737494,3.425041,88.442139,,,,,,,,,,,,,,,,,,,,,,,,,,,,,,,,,,,,,,,,,,,,,,,,,,,,,,,,,,,,,,,,,,,,,,,,,,,,,,,,,,,,,,,,,,,,,,,,,,,,,,,,,,
1702544237,1702544237,5,0,4235.769043,4252.563965,4263.461426,4235.641113,4236.922852,4245.128418,4242.94873,4247.563965,4239.358887,4219.102539,4420.769043,4398.846191,4282.820313,4314.615234,5312,4,80,,,,0,4,4,4,4,4,4,4,4,4,4,4,4,4,4,100,,,,,,,,,,,,,,,,,,,,,,,,,,,,,,,,,,,,,,,,,,,,,,,,,,,,,,,,,,,,,,,,,,,,,,,,,,,,,,,,,,,,,,,,,,,,,,,,,,,,,,,,,,,,,,,,,,,,,,,,,,,,,,,,,,,,,,
1702544237,1702544237,6,0,4234.230957,4266.666504,4258.974121,4232.692383,4232.436035,4242.436035,4242.692383,4252.179688,4246.153809,4226.922852,4419.871582,4399.615234,4286.153809,4331.538574,5242,4,80,,,,0,4,4,4,4,4,4,4,4,4,4,4,4,4,4,100,,,,,,,,,,,,,,,,,,,,,,,,,,,,,,,,,,,,,,,,,,,,,,,,,,,,,,,,,,,,,,,,,,,,,,,,,,,,,,,,,,,,,,,,,,,,,,,,,,,,,,,,,,,,,,,,,,,,,,,,,,,,,,,,,,,,,,
1702544237,1702544237,7,0,4248.846191,4277.307617,4263.077148,4246.666504,4236.025879,4262.820313,4253.974121,4263.205078,4251.666504,4237.05127,4428.589844,4411.922852,4301.282227,4356.025879,5038,4,80,,,,0,4,4,4,4,4,4,4,4,4,4,4,4,4,4,100,,,,,,,,,,,,,,,,,,,,,,,,,,,,,,,,,,,,,,,,,,,,,,,,,,,,,,,,,,,,,,,,,,,,,,,,,,,,,,,,,,,,,,,,,,,,,,,,,,,,,,,,,,,,,,,,,,,,,,,,,,,,,,,,,,,,,,
1702544237,1702544237,8,0,4252.563965,4269.871582,4267.436035,4256.025879,4231.282227,4263.205078,4255.897461,4259.358887,4251.025879,4236.282227,4430.384766,4415.641113,4299.358887,4352.94873,5350,4,80,,,,0,4,4,4,4,4,4,4,4,4,4,4,4,4,4,100,,,,,,,,,,,,,,,,,2,0,0.104165,-0.597534,0.138123,-0.782959,0.898547,-0.296423,0.221707,-9.730412,3.36587,88.514595,,,,,,,,,,,,,,,,,,,,,,,,,,,,,,,,,,,,,,,,,,,,,,,,,,,,,,,,,,,,,,,,,,,,,,,,,,,,,,,,,,,,,,,,,,,,,,,,,,,,,,,,,,
1702544237,1702544237,9,0,4242.563965,4258.974121,4264.358887,4247.94873,4241.282227,4244.487305,4247.436035,4248.974121,4243.333496,4224.743652,4421.025879,4405,4286.666504,4336.153809,5352,4,80,,,,0,4,4,4,4,4,4,4,4,4,4,4,4,4,4,100,,,,,,,,,,,,,,,,,,,,,,,,,,,,,,,,,,,,,,,,,,,,,,,,,,,,,,,,,,,,,,,,,,,,,,,,,,,,,,,,,,,,,,,,,,,,,,,,,,,,,,,,,,,,,,,,,,,,,,,,,,,,,,,,,,,,,,
1702544237,1702544237,10,0,4240.512695,4258.589844,4259.615234,4243.077148,4248.589844,4248.589844,4246.538574,4245.641113,4232.820313,4216.410156,4415.897461,4398.974121,4289.358887,4334.102539,6055,4,80,,,,0,4,4,4,4,4,4,4,4,4,4,4,4,4,4,100,,,,,,,,,,,,,,,,,,,,,,,,,,,,,,,,,,,,,,,,,,,,,,,,,,,,,,,,,,,,,,,,,,,,,,,,,,,,,,,,,,,,,,,,,,,,,,,,,,,,,,,,,,,,,,,,,,,,,,,,,,,,,,,,,,,,,,
1702544237,1702544237,11,0,4252.05127,4268.077148,4267.94873,4257.94873,4234.230957,4262.436035,4259.358887,4249.743652,4236.025879,4223.205078,4425.128418,4412.307617,4296.025879,4348.589844,6277,4,80,,,,0,4,4,4,4,4,4,4,4,4,4,4,4,4,4,100,,,,,,,,,,,,,,,,,,,,,,,,,,,,,,,,,,,,,,,,,,,,,,,,,,,,,,,,,,,,,,,,,,,,,,,,,,,,,,,,,,,,,,,,,,,,,,,,,,,,,,,,,,,,,,,,,,,,,,,,,,,,,,,,,,,,,,
1702544237,1702544237,12,0,4263.846191,4279.487305,4282.179688,4268.846191,4243.205078,4259.102539,4264.487305,4254.487305,4247.820313,4235.641113,4439.743652,4424.615234,4296.282227,4362.307617,6690,4,80,,,,0,4,4,4,4,4,4,4,4,4,4,4,4,4,4,100,,,,,,,,,,,,,,,,,3,0,0.104432,-0.597351,0.138367,-0.78302,0.915639,-0.307166,0.20901,-9.640704,3.39595,88.413132,,,,,,,,,,,,,,,,,,,,,,,,,,,,,,,,,,,,,,,,,,,,,,,,,,,,,,,,,,,,,,,,,,,,,,,,,,,,,,,,,,,,,,,,,,,,,,,,,,,,,,,,,,
1702544237,1702544237,13,0,4262.692383,4283.717773,4277.436035,4257.563965,4267.692383,4253.974121,4252.307617,4250.128418,4246.282227,4234.358887,4434.743652,4417.179688,4298.846191,4363.589844,6953,4,80,,,,0,4,4,4,4,4,4,4,4,4,4,4,4,4,4,100,,,,,,,,,,,,,,,,,,,,,,,,,,,,,,,,,,,,,,,,,,,,,,,,,,,,,,,,,,,,,,,,,,,,,,,,,,,,,,,,,,,,,,,,,,,,,,,,,,,,,,,,,,,,,,,,,,,,,,,,,,,,,,,,,,,,,,
1702544237,1702544237,14,0,4260.897461,4286.666504,4262.820313,4252.94873,4264.743652,4254.358887,4244.871582,4245.769043,4241.153809,4227.179688,4424.871582,4409.358887,4306.410156,4353.846191,6055,4,80,,,,0,4,4,4,4,4,4,4,4,4,4,4,4,4,4,100,,,,,,,,,,,,,,,,,,,,,,,,,,,,,,,,,,,,,,,,,,,,,,,,,,,,,,,,,,,,,,,,,,,,,,,,,,,,,,,,,,,,,,,,,,,,,,,,,,,,,,,,,,,,,,,,,,,,,,,,,,,,,,,,,,,,,,
1702544237,1702544237,15,0,4264.871582,4291.794922,4264.230957,4264.230957,4254.615234,4249.358887,4247.307617,4254.230957,4250.641113,4230.641113,4436.410156,4414.487305,4311.282227,4355.384766,6277,4,80,,,,0,4,4,4,4,4,4,4,4,4,4,4,4,4,4,100,,,,,,,,,,,,,,,,,,,,,,,,,,,,,,,,,,,,,,,,,,,,,,,,,,,,,,,,,,,,,,,,,,,,,,,,,,,,,,,,,,,,,,,,,,,,,,,,,,,,,,,,,,,,,,,,,,,,,,,,,,,,,,,,,,,,,,
1702544237,1702544237,16,0,4266.153809,4296.922852,4274.871582,4272.820313,4261.410156,4251.025879,4250.128418,4267.94873,4260.512695,4244.102539,4453.333496,4422.307617,4310.128418,4367.692383,0,4,80,,,,0,4,4,4,4,4,4,4,4,4,4,4,4,4,4,100,1,83.333336,4,3,4,4,4,4,4,4,4,4,4,4,4,3,4,0,0.104485,-0.59729,0.138245,-0.783081,0.917592,-0.3267,0.22366,-9.776633,3.256355,88.238487,,,,,,,,,,,,,,,,,,,,,,,,,,,,,,,,,,,,,28.657818,1.176228,0.857638,0.596908,0.346255,85.120499,2.177486,0.857036,0.72686,0.479701,8.175873,0.48248,0.415982,0.452194,0.372513,16.530796,0.39754,0.798138,0.839684,0.570679,3.179268,0.31408,0.383554,0.247563,0.383694,1.066096,0.191958,0.245703,0.218604,0.215831,1.266615,0.444373,0.440341,0.331934,0.226607,1.006894,0.373938,0.312027,0.461739,0.200012,0.979239,0.317563,0.433246,0.327564,0.235082,0.712645,0.29636,0.457626,0.457724,0.334041,10.087936,0.986626,1.589056,1.205318,0.527332,9.328449,0.85524,0.612858,0.817671,0.496232,35.388695,2.268939,0.97782,0.998017,0.641304,39.32465,2.72015,0.95106,1.144734,1.043072
1702544237,1702544237,17,0,4273.974121,4308.974121,4281.538574,4281.410156,4272.05127,4267.436035,4257.820313,4276.666504,4265.769043,4254.615234,4458.974121,4431.922852,4319.871582,4377.94873,0,4,80,,,,0,4,4,4,4,4,4,4,4,4,4,4,4,4,4,100,,,,,,,,,,,,,,,,,,,,,,,,,,,,,,,,,,,,,,,,,,,,,,,,,,,,,,,,,,,,,,,,,,,,,,,,,,,,,,,,,,,,,,,,,,,,,,,,,,,,,,,,,,,,,,,,,,,,,,,,,,,,,,,,,,,,,,
1702544237,1702544237,18,0,4282.94873,4320.641113,4286.153809,4281.282227,4277.179688,4278.461426,4266.922852,4278.846191,4270.769043,4247.05127,4459.487305,4437.436035,4332.307617,4385,0,4,80,,,,0,4,4,4,4,4,4,4,4,4,4,4,4,4,4,100,,,,,,,,,,,,,,,,,,,,,,,,,,,,,,,,,,,,,,,,,,,,,,,,,,,,,,,,,,,,,,,,,,,,,,,,,,,,,,,,,,,,,,,,,,,,,,,,,,,,,,,,,,,,,,,,,,,,,,,,,,,,,,,,,,,,,,
1702544237,1702544237,19,0,4287.179688,4331.025879,4292.820313,4279.102539,4285.512695,4278.846191,4267.436035,4279.487305,4276.282227,4247.94873,4461.025879,4441.025879,4337.05127,4392.94873,0,4,80,,,,0,4,4,4,4,4,4,4,4,4,4,4,4,4,4,100,,,,,,,,,,,,,,,,,,,,,,,,,,,,,,,,,,,,,,,,,,,,,,,,,,,,,,,,,,,,,,,,,,,,,,,,,,,,,,,,,,,,,,,,,,,,,,,,,,,,,,,,,,,,,,,,,,,,,,,,,,,,,,,,,,,,,,
1702544237,1702544237,20,0,4293.461426,4337.179688,4297.692383,4290.897461,4294.102539,4284.615234,4273.461426,4280.897461,4280.384766,4265.897461,4464.743652,4447.94873,4341.538574,4398.974121,0,4,80,,,,0,4,4,4,4,4,4,4,4,4,4,4,4,4,4,100,,,,,,,,,,,,,,,,,5,0,0.104861,-0.59729,0.138306,-0.78302,0.911244,-0.311561,0.215847,-9.815637,3.330719,88.247971,,,,,,,,,,,,,,,,,,,,,,,,,,,,,,,,,,,,,,,,,,,,,,,,,,,,,,,,,,,,,,,,,,,,,,,,,,,,,,,,,,,,,,,,,,,,,,,,,,,,,,,,,,
1702544237,1702544237,21,0,4287.563965,4327.179688,4294.358887,4289.358887,4295.128418,4289.871582,4279.871582,4279.358887,4276.666504,4260.256348,4459.487305,4443.717773,4342.179688,4391.538574,0,4,80,,,,0,4,4,4,4,4,4,4,4,4,4,4,4,4,4,100,,,,,,,,,,,,,,,,,,,,,,,,,,,,,,,,,,,,,,,,,,,,,,,,,,,,,,,,,,,,,,,,,,,,,,,,,,,,,,,,,,,,,,,,,,,,,,,,,,,,,,,,,,,,,,,,,,,,,,,,,,,,,,,,,,,,,,
1702544237,1702544237,22,0,4286.666504,4328.077148,4300,4282.692383,4294.615234,4295,4282.692383,4285.512695,4278.717773,4252.179688,4463.846191,4446.153809,4343.205078,4392.563965,0,4,80,,,,0,4,4,4,4,4,4,4,4,4,4,4,4,4,4,100,,,,,,,,,,,,,,,,,,,,,,,,,,,,,,,,,,,,,,,,,,,,,,,,,,,,,,,,,,,,,,,,,,,,,,,,,,,,,,,,,,,,,,,,,,,,,,,,,,,,,,,,,,,,,,,,,,,,,,,,,,,,,,,,,,,,,,
1702544237,1702544237,23,0,4303.974121,4341.153809,4312.436035,4292.436035,4296.153809,4298.077148,4290.128418,4295.769043,4287.94873,4272.436035,4487.307617,4466.282227,4349.102539,4403.589844,0,4,80,,,,0,4,4,4,4,4,4,4,4,4,4,4,4,4,4,100,,,,,,,,,,,,,,,,,,,,,,,,,,,,,,,,,,,,,,,,,,,,,,,,,,,,,,,,,,,,,,,,,,,,,,,,,,,,,,,,,,,,,,,,,,,,,,,,,,,,,,,,,,,,,,,,,,,,,,,,,,,,,,,,,,,,,,
1702544237,1702544237,24,0,4301.666504,4331.794922,4305.256348,4286.410156,4287.692383,4285.256348,4283.589844,4286.153809,4281.922852,4275.512695,4480,4462.94873,4353.077148,4398.846191,0,4,80,,,,0,4,4,4,4,4,4,4,4,4,4,4,4,4,4,100,,,,,,,,,,,,,,,,,6,0,0.105155,-0.59729,0.138428,-0.782959,0.927359,-0.315468,0.218288,-9.70074,3.297647,88.356506,,,,,,,,,,,,,,,,,,,,,,,,,,,,,,,,,,,,,,,,,,,,,,,,,,,,,,,,,,,,,,,,,,,,,,,,,,,,,,,,,,,,,,,,,,,,,,,,,,,,,,,,,,
1702544237,1702544237,25,0,4281.794922,4322.94873,4290.384766,4275.256348,4275.512695,4271.666504,4270,4280.641113,4277.05127,4258.589844,4456.666504,4443.077148,4358.589844,4400.897461,0,4,80,,,,0,4,4,4,4,4,4,4,4,4,4,4,4,4,4,100,,,,,,,,,,,,,,,,,,,,,,,,,,,,,,,,,,,,,,,,,,,,,,,,,,,,,,,,,,,,,,,,,,,,,,,,,,,,,,,,,,,,,,,,,,,,,,,,,,,,,,,,,,,,,,,,,,,,,,,,,,,,,,,,,,,,,,
1702544237,1702544237,26,0,4285.256348,4326.922852,4293.461426,4287.05127,4277.05127,4276.538574,4273.461426,4295.384766,4290,4268.717773,4472.692383,4448.205078,4360.256348,4407.563965,0,4,80,,,,0,4,4,4,4,4,4,4,4,4,4,4,4,4,4,100,,,,,,,,,,,,,,,,,,,,,,,,,,,,,,,,,,,,,,,,,,,,,,,,,,,,,,,,,,,,,,,,,,,,,,,,,,,,,,,,,,,,,,,,,,,,,,,,,,,,,,,,,,,,,,,,,,,,,,,,,,,,,,,,,,,,,,
1702544237,1702544237,27,0,4295.256348,4317.563965,4297.692383,4287.05127,4281.153809,4281.025879,4272.820313,4293.333496,4290.512695,4279.230957,4485.256348,4455.641113,4351.282227,4394.487305,0,4,80,,,,0,4,4,4,4,4,4,4,4,4,4,4,4,4,4,100,,,,,,,,,,,,,,,,,,,,,,,,,,,,,,,,,,,,,,,,,,,,,,,,,,,,,,,,,,,,,,,,,,,,,,,,,,,,,,,,,,,,,,,,,,,,,,,,,,,,,,,,,,,,,,,,,,,,,,,,,,,,,,,,,,,,,,
1702544237,1702544237,28,0,4283.205078,4312.820313,4290.256348,4272.820313,4279.230957,4276.282227,4264.230957,4278.077148,4276.794922,4259.615234,4462.436035,4442.692383,4351.410156,4385.897461,0,4,80,,,,0,4,4,4,4,4,4,4,4,4,4,4,4,4,4,100,,,,,,,,,,,,,,,,,7,0,0.104995,-0.597473,0.138794,-0.782776,0.903919,-0.31498,0.21194,-9.680666,3.267883,88.370857,,,,,,,,,,,,,,,,,,,,,,,,,,,,,,,,,,,,,,,,,,,,,,,,,,,,,,,,,,,,,,,,,,,,,,,,,,,,,,,,,,,,,,,,,,,,,,,,,,,,,,,,,,
1702544237,1702544237,29,0,4273.333496,4326.025879,4288.717773,4279.230957,4278.717773,4280.128418,4272.94873,4279.871582,4276.666504,4251.922852,4458.333496,4438.077148,4360.128418,4397.179688,0,4,80,,,,0,4,4,4,4,4,4,4,4,4,4,4,4,4,4,100,,,,,,,,,,,,,,,,,,,,,,,,,,,,,,,,,,,,,,,,,,,,,,,,,,,,,,,,,,,,,,,,,,,,,,,,,,,,,,,,,,,,,,,,,,,,,,,,,,,,,,,,,,,,,,,,,,,,,,,,,,,,,,,,,,,,,,
1702544237,1702544237,30,0,4283.077148,4328.333496,4292.179688,4290.512695,4277.179688,4283.333496,4282.94873,4282.05127,4279.615234,4264.230957,4479.871582,4448.717773,4352.692383,4402.179688,0,4,80,,,,0,4,4,4,4,4,4,4,4,4,4,4,4,4,4,100,,,,,,,,,,,,,,,,,,,,,,,,,,,,,,,,,,,,,,,,,,,,,,,,,,,,,,,,,,,,,,,,,,,,,,,,,,,,,,,,,,,,,,,,,,,,,,,,,,,,,,,,,,,,,,,,,,,,,,,,,,,,,,,,,,,,,,
1702544237,1702544237,31,0,4294.871582,4325.641113,4295.897461,4294.615234,4279.743652,4284.615234,4276.282227,4279.615234,4280.256348,4270.256348,4485,4457.94873,4349.615234,4399.743652,0,4,80,,,,0,4,4,4,4,4,4,4,4,4,4,4,4,4,4,100,,,,,,,,,,,,,,,,,,,,,,,,,,,,,,,,,,,,,,,,,,,,,,,,,,,,,,,,,,,,,,,,,,,,,,,,,,,,,,,,,,,,,,,,,,,,,,,,,,,,,,,,,,,,,,,,,,,,,,,,,,,,,,,,,,,,,,
1702544237,1702544237,32,0,4286.794922,4321.282227,4294.743652,4285.897461,4281.025879,4283.846191,4266.410156,4279.487305,4277.563965,4257.563965,4465.384766,4450,4357.307617,4399.230957,0,4,80,,,,0,4,4,4,4,4,4,4,4,4,4,4,4,4,4,100,,,,,,,,,,,,,,,,,8,0,0.104887,-0.597595,0.139038,-0.782654,0.901477,-0.302771,0.209498,-9.745933,3.357761,88.433769,,,,,,,,,,,,,,,,,,,,,,,,,,,,,,,,,,,,,40.124065,1.495519,0.783417,0.662822,0.355561,120.701485,3.217203,0.804891,0.765926,0.453943,10.581878,0.539546,0.419786,0.511256,0.382002,22.597677,0.497055,0.869634,0.917762,0.600911,4.064899,0.345187,0.416572,0.271302,0.42636,1.208842,0.177047,0.231512,0.232592,0.228689,1.319445,0.483817,0.497463,0.377268,0.228188,1.20031,0.428024,0.350796,0.492559,0.200976,1.119836,0.353194,0.465369,0.364529,0.235512,0.795218,0.374238,0.48152,0.5093,0.341509,13.498435,0.967674,1.303034,1.292082,0.545133,12.283661,0.77622,0.536282,0.902353,0.491992,50.637386,2.966187,0.933086,1.023971,0.603764,55.582092,3.412348,1.003375,1.144966,0.969683
1702544237,1702544237,33,0,4272.94873,4307.436035,4290,4265.897461,4268.205078,4271.410156,4261.410156,4273.077148,4263.077148,4245.128418,4445.256348,4436.282227,4353.846191,4390.384766,0,4,80,,,,0,4,4,4,4,4,4,4,4,4,4,4,4,4,4,100,,,,,,,,,,,,,,,,,,,,,,,,,,,,,,,,,,,,,,,,,,,,,,,,,,,,,,,,,,,,,,,,,,,,,,,,,,,,,,,,,,,,,,,,,,,,,,,,,,,,,,,,,,,,,,,,,,,,,,,,,,,,,,,,,,,,,,
1702544237,1702544237,34,0,4281.666504,4312.436035,4291.153809,4266.538574,4251.922852,4270.512695,4267.563965,4274.871582,4259.358887,4254.358887,4455.641113,4445.641113,4353.846191,4393.077148,0,4,80,,,,0,4,4,4,4,4,4,4,4,4,4,4,4,4,4,100,,,,,,,,,,,,,,,,,,,,,,,,,,,,,,,,,,,,,,,,,,,,,,,,,,,,,,,,,,,,,,,,,,,,,,,,,,,,,,,,,,,,,,,,,,,,,,,,,,,,,,,,,,,,,,,,,,,,,,,,,,,,,,,,,,,,,,
1702544237,1702544237,35,0,4280.512695,4316.282227,4287.94873,4275,4257.179688,4277.692383,4267.179688,4279.230957,4269.615234,4259.230957,4472.563965,4447.94873,4354.358887,4400.769043,0,4,80,,,,0,4,4,4,4,4,4,4,4,4,4,4,4,4,4,100,,,,,,,,,,,,,,,,,,,,,,,,,,,,,,,,,,,,,,,,,,,,,,,,,,,,,,,,,,,,,,,,,,,,,,,,,,,,,,,,,,,,,,,,,,,,,,,,,,,,,,,,,,,,,,,,,,,,,,,,,,,,,,,,,,,,,,
1702544237,1702544237,36,0,4260.512695,4296.153809,4276.666504,4268.205078,4271.666504,4265.897461,4250.256348,4267.05127,4262.307617,4244.743652,4455.256348,4426.282227,4336.410156,4385,0,4,80,,,,0,4,4,4,4,4,4,4,4,4,4,4,4,4,4,100,,,,,,,,,,,,,,,,,9,0,0.104887,-0.597595,0.139038,-0.782654,0.916127,-0.31498,0.207545,-9.888006,3.155318,88.32373,,,,,,,,,,,,,,,,,,,,,,,,,,,,,,,,,,,,,,,,,,,,,,,,,,,,,,,,,,,,,,,,,,,,,,,,,,,,,,,,,,,,,,,,,,,,,,,,,,,,,,,,,,
1702544237,1702544237,37,0,4266.153809,4295.384766,4280.384766,4267.820313,4257.436035,4256.922852,4251.153809,4265.128418,4259.358887,4246.538574,4438.461426,4427.436035,4339.102539,4379.358887,0,4,80,,,,0,4,4,4,4,4,4,4,4,4,4,4,4,4,4,100,,,,,,,,,,,,,,,,,,,,,,,,,,,,,,,,,,,,,,,,,,,,,,,,,,,,,,,,,,,,,,,,,,,,,,,,,,,,,,,,,,,,,,,,,,,,,,,,,,,,,,,,,,,,,,,,,,,,,,,,,,,,,,,,,,,,,,
1702544237,1702544237,38,0,4282.692383,4319.230957,4295.897461,4280.512695,4251.538574,4267.307617,4268.205078,4281.153809,4275.769043,4263.077148,4459.358887,4448.205078,4366.410156,4396.794922,0,4,80,,,,0,4,4,4,4,4,4,4,4,4,4,4,4,4,4,100,,,,,,,,,,,,,,,,,,,,,,,,,,,,,,,,,,,,,,,,,,,,,,,,,,,,,,,,,,,,,,,,,,,,,,,,,,,,,,,,,,,,,,,,,,,,,,,,,,,,,,,,,,,,,,,,,,,,,,,,,,,,,,,,,,,,,,
1702544237,1702544237,39,0,4277.179688,4327.307617,4293.589844,4282.179688,4280.641113,4269.487305,4265.641113,4280.128418,4275.641113,4258.589844,4470.256348,4443.974121,4369.743652,4405.769043,0,4,80,,,,0,4,4,4,4,4,4,4,4,4,4,4,4,4,4,100,,,,,,,,,,,,,,,,,,,,,,,,,,,,,,,,,,,,,,,,,,,,,,,,,,,,,,,,,,,,,,,,,,,,,,,,,,,,,,,,,,,,,,,,,,,,,,,,,,,,,,,,,,,,,,,,,,,,,,,,,,,,,,,,,,,,,,
1702544237,1702544237,40,0,4272.307617,4319.358887,4281.922852,4271.666504,4289.615234,4261.410156,4255.384766,4266.025879,4260.897461,4248.461426,4453.333496,4430,4353.205078,4397.692383,0,4,80,,,,0,4,4,4,4,4,4,4,4,4,4,4,4,4,4,100,,,,,,,,,,,,,,,,,10,0,0.104807,-0.597412,0.138855,-0.782837,0.878037,-0.2974,0.215358,-9.965872,3.056453,88.391357,,,,,,,,,,,,,,,,,,,,,,,,,,,,,,,,,,,,,,,,,,,,,,,,,,,,,,,,,,,,,,,,,,,,,,,,,,,,,,,,,,,,,,,,,,,,,,,,,,,,,,,,,,
1702544237,1702544237,41,0,4273.333496,4308.461426,4278.589844,4265.641113,4270.897461,4260.384766,4259.230957,4260.128418,4257.692383,4249.102539,4446.410156,4428.974121,4346.538574,4385.128418,0,4,80,,,,0,4,4,4,4,4,4,4,4,4,4,4,4,4,4,100,,,,,,,,,,,,,,,,,,,,,,,,,,,,,,,,,,,,,,,,,,,,,,,,,,,,,,,,,,,,,,,,,,,,,,,,,,,,,,,,,,,,,,,,,,,,,,,,,,,,,,,,,,,,,,,,,,,,,,,,,,,,,,,,,,,,,,
1702544237,1702544237,42,0,4267.307617,4300.641113,4279.230957,4270.897461,4272.692383,4262.94873,4263.461426,4260.769043,4258.846191,4246.538574,4456.410156,4428.717773,4351.666504,4383.077148,0,4,80,,,,0,4,4,4,4,4,4,4,4,4,4,4,4,4,4,100,,,,,,,,,,,,,,,,,,,,,,,,,,,,,,,,,,,,,,,,,,,,,,,,,,,,,,,,,,,,,,,,,,,,,,,,,,,,,,,,,,,,,,,,,,,,,,,,,,,,,,,,,,,,,,,,,,,,,,,,,,,,,,,,,,,,,,
1702544237,1702544237,43,0,4273.717773,4312.692383,4289.358887,4282.179688,4286.538574,4270.897461,4266.025879,4270,4259.743652,4250.256348,4468.589844,4438.461426,4360.256348,4402.436035,0,4,80,,,,0,4,4,4,4,4,4,4,4,4,4,4,4,4,4,100,,,,,,,,,,,,,,,,,,,,,,,,,,,,,,,,,,,,,,,,,,,,,,,,,,,,,,,,,,,,,,,,,,,,,,,,,,,,,,,,,,,,,,,,,,,,,,,,,,,,,,,,,,,,,,,,,,,,,,,,,,,,,,,,,,,,,,
1702544237,1702544237,44,0,4282.563965,4325.512695,4293.461426,4280.512695,4280.769043,4272.692383,4267.436035,4272.436035,4262.436035,4251.666504,4467.820313,4445,4360.384766,4417.307617,0,4,80,,,,0,4,4,4,4,4,4,4,4,4,4,4,4,4,4,100,,,,,,,,,,,,,,,,,11,0,0.104806,-0.597229,0.138611,-0.78302,0.919546,-0.309608,0.219265,-10.035952,2.967474,88.518883,,,,,,,,,,,,,,,,,,,,,,,,,,,,,,,,,,,,,,,,,,,,,,,,,,,,,,,,,,,,,,,,,,,,,,,,,,,,,,,,,,,,,,,,,,,,,,,,,,,,,,,,,,
1702544237,1702544237,45,0,4277.94873,4325,4286.025879,4275.384766,4276.666504,4265.641113,4263.205078,4263.589844,4260.128418,4240.256348,4448.333496,4433.077148,4358.717773,4408.077148,0,4,80,,,,0,4,4,4,4,4,4,4,4,4,4,4,4,4,4,100,,,,,,,,,,,,,,,,,,,,,,,,,,,,,,,,,,,,,,,,,,,,,,,,,,,,,,,,,,,,,,,,,,,,,,,,,,,,,,,,,,,,,,,,,,,,,,,,,,,,,,,,,,,,,,,,,,,,,,,,,,,,,,,,,,,,,,
1702544237,1702544237,46,0,4285.641113,4328.461426,4293.589844,4280.128418,4283.333496,4271.794922,4267.307617,4268.846191,4260.384766,4239.487305,4441.538574,4439.487305,4362.94873,4402.05127,0,4,80,,,,0,4,4,4,4,4,4,4,4,4,4,4,4,4,4,100,,,,,,,,,,,,,,,,,,,,,,,,,,,,,,,,,,,,,,,,,,,,,,,,,,,,,,,,,,,,,,,,,,,,,,,,,,,,,,,,,,,,,,,,,,,,,,,,,,,,,,,,,,,,,,,,,,,,,,,,,,,,,,,,,,,,,,
1702544237,1702544237,47,0,4299.487305,4322.05127,4307.436035,4287.307617,4293.846191,4282.820313,4277.563965,4280.897461,4270.641113,4256.666504,4463.333496,4460.128418,4359.230957,4411.538574,0,4,80,,,,0,4,4,4,4,4,4,4,4,4,4,4,4,4,4,100,,,,,,,,,,,,,,,,,,,,,,,,,,,,,,,,,,,,,,,,,,,,,,,,,,,,,,,,,,,,,,,,,,,,,,,,,,,,,,,,,,,,,,,,,,,,,,,,,,,,,,,,,,,,,,,,,,,,,,,,,,,,,,,,,,,,,,
1702544237,1702544237,48,0,4292.94873,4308.846191,4303.077148,4291.282227,4295.384766,4280.128418,4276.666504,4278.589844,4277.563965,4262.436035,4474.358887,4454.871582,4357.563965,4418.717773,0,4,80,,,,0,4,4,4,4,4,4,4,4,4,4,4,4,4,4,100,,,,,,,,,,,,,,,,,12,0,0.104457,-0.59729,0.138611,-0.78302,0.921499,-0.313515,0.218777,-10.01569,3.137394,88.40033,,,,,,,,,,,,,,,,,,,,,,,,,,,,,,,,,,,,,47.973763,1.739129,0.695959,0.704811,0.360005,145.957443,4.052957,0.740535,0.776436,0.431251,11.95011,0.606725,0.42885,0.552421,0.375604,26.633869,0.63539,0.914355,0.934283,0.62571,4.717893,0.390894,0.450594,0.289047,0.471165,1.287818,0.171608,0.233686,0.250158,0.237615,1.340527,0.521646,0.560744,0.418259,0.227759,1.299126,0.506568,0.408548,0.498555,0.201016,1.188548,0.448246,0.508926,0.387673,0.232057,0.821718,0.482202,0.500295,0.514632,0.349629,15.579572,0.963102,0.998118,1.371218,0.547966,14.103987,0.746264,0.515908,0.933866,0.47729,61.415489,3.452252,0.831023,1.033667,0.607299,66.865822,4.048102,1.058315,1.158942,0.957978
1702544237,1702544237,49,0,4280.512695,4316.153809,4297.307617,4285.897461,4287.563965,4275.897461,4270.128418,4276.666504,4277.94873,4260.897461,4465,4440.897461,4369.487305,4420,0,4,80,,,,0,4,4,4,4,4,4,4,4,4,4,4,4,4,4,100,,,,,,,,,,,,,,,,,,,,,,,,,,,,,,,,,,,,,,,,,,,,,,,,,,,,,,,,,,,,,,,,,,,,,,,,,,,,,,,,,,,,,,,,,,,,,,,,,,,,,,,,,,,,,,,,,,,,,,,,,,,,,,,,,,,,,,
1702544237,1702544237,50,0,4281.025879,4324.615234,4300.512695,4276.666504,4283.974121,4279.102539,4268.974121,4276.922852,4270.512695,4261.025879,4464.615234,4446.794922,4366.794922,4411.666504,0,4,80,,,,0,4,4,4,4,4,4,4,4,4,4,4,4,4,4,100,,,,,,,,,,,,,,,,,,,,,,,,,,,,,,,,,,,,,,,,,,,,,,,,,,,,,,,,,,,,,,,,,,,,,,,,,,,,,,,,,,,,,,,,,,,,,,,,,,,,,,,,,,,,,,,,,,,,,,,,,,,,,,,,,,,,,,
1702544237,1702544237,51,0,4286.538574,4313.205078,4298.077148,4277.563965,4284.871582,4279.358887,4268.461426,4268.589844,4261.794922,4255.256348,4467.307617,4452.179688,4356.538574,4403.077148,0,4,80,,,,0,4,4,4,4,4,4,4,4,4,4,4,4,4,4,100,,,,,,,,,,,,,,,,,,,,,,,,,,,,,,,,,,,,,,,,,,,,,,,,,,,,,,,,,,,,,,,,,,,,,,,,,,,,,,,,,,,,,,,,,,,,,,,,,,,,,,,,,,,,,,,,,,,,,,,,,,,,,,,,,,,,,,
1702544237,1702544237,52,0,4286.538574,4305.256348,4293.846191,4281.538574,4288.205078,4277.179688,4265.256348,4269.487305,4266.538574,4253.333496,4457.692383,4446.410156,4360.897461,4408.589844,0,4,80,,,,0,4,4,4,4,4,4,4,4,4,4,4,4,4,4,100,,,,,,,,,,,,,,,,,13,0,0.104349,-0.597229,0.138611,-0.783081,0.927359,-0.313026,0.210475,-9.914121,3.156988,88.376968,,,,,,,,,,,,,,,,,,,,,,,,,,,,,,,,,,,,,,,,,,,,,,,,,,,,,,,,,,,,,,,,,,,,,,,,,,,,,,,,,,,,,,,,,,,,,,,,,,,,,,,,,,
1702544237,1702544237,53,0,4282.692383,4313.333496,4295.769043,4279.230957,4286.794922,4278.333496,4264.743652,4277.820313,4274.487305,4256.922852,4455.384766,4444.743652,4366.282227,4415.897461,0,4,80,,,,0,4,4,4,4,4,4,4,4,4,4,4,4,4,4,100,,,,,,,,,,,,,,,,,,,,,,,,,,,,,,,,,,,,,,,,,,,,,,,,,,,,,,,,,,,,,,,,,,,,,,,,,,,,,,,,,,,,,,,,,,,,,,,,,,,,,,,,,,,,,,,,,,,,,,,,,,,,,,,,,,,,,,
1702544237,1702544237,54,0,4279.743652,4318.461426,4293.205078,4275.512695,4279.230957,4275,4264.358887,4272.563965,4266.922852,4249.102539,4464.871582,4443.461426,4359.230957,4406.666504,0,4,80,,,,0,4,4,4,4,4,4,4,4,4,4,4,4,4,4,100,,,,,,,,,,,,,,,,,,,,,,,,,,,,,,,,,,,,,,,,,,,,,,,,,,,,,,,,,,,,,,,,,,,,,,,,,,,,,,,,,,,,,,,,,,,,,,,,,,,,,,,,,,,,,,,,,,,,,,,,,,,,,,,,,,,,,,
1702544237,1702544237,55,0,4280.256348,4316.025879,4287.820313,4275.769043,4277.436035,4268.205078,4261.794922,4261.410156,4255.128418,4242.436035,4457.307617,4435.769043,4353.333496,4400.769043,0,4,80,,,,0,4,4,4,4,4,4,4,4,4,4,4,4,4,4,100,,,,,,,,,,,,,,,,,,,,,,,,,,,,,,,,,,,,,,,,,,,,,,,,,,,,,,,,,,,,,,,,,,,,,,,,,,,,,,,,,,,,,,,,,,,,,,,,,,,,,,,,,,,,,,,,,,,,,,,,,,,,,,,,,,,,,,
1702544237,1702544237,56,0,4277.179688,4310.769043,4283.461426,4279.615234,4279.358887,4265.641113,4259.102539,4262.563965,4258.333496,4252.179688,4443.717773,4426.282227,4355.512695,4408.846191,0,4,80,,,,0,4,4,4,4,4,4,4,4,4,4,4,4,4,4,100,,,,,,,,,,,,,,,,,14,0,0.104428,-0.59729,0.138977,-0.782959,0.909779,-0.305701,0.217312,-10.106042,3.041289,88.405937,,,,,,,,,,,,,,,,,,,,,,,,,,,,,,,,,,,,,,,,,,,,,,,,,,,,,,,,,,,,,,,,,,,,,,,,,,,,,,,,,,,,,,,,,,,,,,,,,,,,,,,,,,
1702544237,1702544237,57,0,4271.922852,4305.128418,4282.179688,4280.384766,4277.436035,4266.153809,4260.128418,4268.333496,4266.282227,4252.820313,4450,4425.384766,4356.025879,4403.461426,0,4,80,,,,0,4,4,4,4,4,4,4,4,4,4,4,4,4,4,100,,,,,,,,,,,,,,,,,,,,,,,,,,,,,,,,,,,,,,,,,,,,,,,,,,,,,,,,,,,,,,,,,,,,,,,,,,,,,,,,,,,,,,,,,,,,,,,,,,,,,,,,,,,,,,,,,,,,,,,,,,,,,,,,,,,,,,
1702544237,1702544237,58,0,4276.025879,4308.205078,4284.871582,4272.307617,4281.282227,4268.333496,4261.025879,4267.436035,4265.769043,4243.077148,4459.743652,4430.384766,4358.846191,4392.05127,0,4,80,,,,0,4,4,4,4,4,4,4,4,4,4,4,4,4,4,100,,,,,,,,,,,,,,,,,,,,,,,,,,,,,,,,,,,,,,,,,,,,,,,,,,,,,,,,,,,,,,,,,,,,,,,,,,,,,,,,,,,,,,,,,,,,,,,,,,,,,,,,,,,,,,,,,,,,,,,,,,,,,,,,,,,,,,
1702544237,1702544237,59,0,4280.769043,4312.692383,4286.025879,4274.615234,4283.333496,4278.589844,4263.717773,4264.487305,4260.897461,4250.384766,4460.897461,4428.077148,4366.922852,4410.384766,0,4,80,,,,0,4,4,4,4,4,4,4,4,4,4,4,4,4,4,100,,,,,,,,,,,,,,,,,,,,,,,,,,,,,,,,,,,,,,,,,,,,,,,,,,,,,,,,,,,,,,,,,,,,,,,,,,,,,,,,,,,,,,,,,,,,,,,,,,,,,,,,,,,,,,,,,,,,,,,,,,,,,,,,,,,,,,
1702544237,1702544237,60,0,4271.025879,4301.922852,4281.538574,4280.384766,4263.974121,4276.922852,4262.307617,4263.461426,4258.974121,4252.692383,4459.871582,4420,4356.282227,4415.128418,0,4,80,,,,0,4,4,4,4,4,4,4,4,4,4,4,4,4,4,100,,,,,,,,,,,,,,,,,15,0,0.104557,-0.597168,0.139404,-0.782959,0.910267,-0.287633,0.209498,-10.062104,2.93716,88.398674,,,,,,,,,,,,,,,,,,,,,,,,,,,,,,,,,,,,,,,,,,,,,,,,,,,,,,,,,,,,,,,,,,,,,,,,,,,,,,,,,,,,,,,,,,,,,,,,,,,,,,,,,,
1702544237,1702544237,61,0,4257.05127,4284.487305,4275,4269.615234,4254.358887,4250.384766,4250.384766,4262.05127,4258.205078,4234.615234,4443.846191,4412.94873,4323.974121,4375.641113,0,4,80,,,,0,4,4,4,4,4,4,4,4,4,4,4,4,4,4,100,,,,,,,,,,,,,,,,,,,,,,,,,,,,,,,,,,,,,,,,,,,,,,,,,,,,,,,,,,,,,,,,,,,,,,,,,,,,,,,,,,,,,,,,,,,,,,,,,,,,,,,,,,,,,,,,,,,,,,,,,,,,,,,,,,,,,,
1702544237,1702544237,62,0,4263.077148,4291.282227,4275.512695,4261.410156,4271.410156,4252.307617,4248.846191,4262.436035,4259.743652,4230.641113,4432.307617,4417.692383,4327.692383,4375,0,4,80,,,,0,4,4,4,4,4,4,4,4,4,4,4,4,4,4,100,,,,,,,,,,,,,,,,,,,,,,,,,,,,,,,,,,,,,,,,,,,,,,,,,,,,,,,,,,,,,,,,,,,,,,,,,,,,,,,,,,,,,,,,,,,,,,,,,,,,,,,,,,,,,,,,,,,,,,,,,,,,,,,,,,,,,,
1702544237,1702544237,63,0,4272.563965,4305.384766,4280,4268.974121,4271.025879,4281.666504,4263.846191,4265.384766,4263.846191,4247.563965,4446.922852,4423.589844,4362.436035,4416.538574,0,4,80,,,,0,4,4,4,4,4,4,4,4,4,4,4,4,4,4,100,,,,,,,,,,,,,,,,,,,,,,,,,,,,,,,,,,,,,,,,,,,,,,,,,,,,,,,,,,,,,,,,,,,,,,,,,,,,,,,,,,,,,,,,,,,,,,,,,,,,,,,,,,,,,,,,,,,,,,,,,,,,,,,,,,,,,,
1702544237,1702544237,64,0,4267.436035,4299.615234,4280.256348,4270.897461,4252.94873,4276.666504,4267.436035,4264.230957,4260.641113,4250.256348,4451.282227,4418.205078,4360.384766,4407.436035,5392,4,80,,,,0,4,4,4,4,4,4,4,4,4,4,4,4,4,4,100,,,,,,,,,,,,,,,,,16,0,0.104606,-0.597168,0.139709,-0.782898,0.925406,-0.305701,0.219265,-10.07256,2.960111,88.34214,,,,,,,,,,,,,,,,,,,,,,,,,,,,,,,,,,,,,49.713623,1.81449,0.614979,0.715229,0.361524,152.974838,4.397086,0.691476,0.759397,0.414664,11.850852,0.653652,0.446929,0.574678,0.355557,27.343018,0.754692,0.93501,0.881619,0.642833,5.099398,0.426693,0.488351,0.298707,0.506726,1.327556,0.183817,0.262524,0.26915,0.244403,1.351735,0.537022,0.624623,0.446862,0.227943,1.308362,0.570996,0.463737,0.487897,0.204253,1.207942,0.548996,0.546978,0.393695,0.226446,0.805704,0.56988,0.495888,0.475033,0.363609,15.836278,0.953601,0.756064,1.419248,0.545227,14.246743,0.729774,0.546642,0.912923,0.458526,64.2089,3.523,0.688986,1.005678,0.636966,69.471794,4.362366,1.114922,1.194744,1.004557
1702544237,1702544237,65,0,4267.692383,4293.333496,4282.307617,4263.333496,4255.512695,4257.820313,4258.461426,4263.333496,4257.307617,4242.820313,4441.025879,4419.743652,4341.666504,4380.128418,5549,4,80,,,,0,4,4,4,4,4,4,4,4,4,4,4,4,4,4,100,,,,,,,,,,,,,,,,,,,,,,,,,,,,,,,,,,,,,,,,,,,,,,,,,,,,,,,,,,,,,,,,,,,,,,,,,,,,,,,,,,,,,,,,,,,,,,,,,,,,,,,,,,,,,,,,,,,,,,,,,,,,,,,,,,,,,,
1702544237,1702544237,66,0,4278.077148,4296.794922,4290.769043,4270.256348,4272.820313,4266.538574,4263.205078,4266.666504,4262.307617,4245.897461,4446.922852,4430.769043,4346.538574,4396.922852,5484,4,80,,,,0,4,4,4,4,4,4,4,4,4,4,4,4,4,4,100,,,,,,,,,,,,,,,,,,,,,,,,,,,,,,,,,,,,,,,,,,,,,,,,,,,,,,,,,,,,,,,,,,,,,,,,,,,,,,,,,,,,,,,,,,,,,,,,,,,,,,,,,,,,,,,,,,,,,,,,,,,,,,,,,,,,,,
1702544237,1702544237,67,0,4273.077148,4293.974121,4291.538574,4282.436035,4275.641113,4271.410156,4263.846191,4263.717773,4262.820313,4249.358887,4444.743652,4426.538574,4352.692383,4400.384766,5460,4,80,,,,0,4,4,4,4,4,4,4,4,4,4,4,4,4,4,100,,,,,,,,,,,,,,,,,,,,,,,,,,,,,,,,,,,,,,,,,,,,,,,,,,,,,,,,,,,,,,,,,,,,,,,,,,,,,,,,,,,,,,,,,,,,,,,,,,,,,,,,,,,,,,,,,,,,,,,,,,,,,,,,,,,,,,
1702544237,1702544237,68,0,4263.974121,4298.461426,4282.307617,4281.666504,4269.615234,4261.282227,4252.307617,4257.820313,4256.794922,4245.256348,4435.641113,4416.282227,4350.897461,4387.436035,5369,4,80,,,,0,4,4,4,4,4,4,4,4,4,4,4,4,4,4,100,,,,,,,,,,,,,,,,,17,0,0.104733,-0.596863,0.139893,-0.783081,0.928824,-0.290074,0.209498,-10.131971,2.997433,88.474594,,,,,,,,,,,,,,,,,,,,,,,,,,,,,,,,,,,,,,,,,,,,,,,,,,,,,,,,,,,,,,,,,,,,,,,,,,,,,,,,,,,,,,,,,,,,,,,,,,,,,,,,,,
1702544237,1702544237,69,0,4273.846191,4313.974121,4279.358887,4276.922852,4264.358887,4262.307617,4250.256348,4260.128418,4258.077148,4245.641113,4449.102539,4418.589844,4355.384766,4402.179688,5325,4,80,,,,0,4,4,4,4,4,4,4,4,4,4,4,4,4,4,100,,,,,,,,,,,,,,,,,,,,,,,,,,,,,,,,,,,,,,,,,,,,,,,,,,,,,,,,,,,,,,,,,,,,,,,,,,,,,,,,,,,,,,,,,,,,,,,,,,,,,,,,,,,,,,,,,,,,,,,,,,,,,,,,,,,,,,
1702544237,1702544237,70,0,4275.128418,4304.487305,4279.871582,4273.333496,4264.230957,4266.666504,4252.563965,4261.282227,4260.769043,4248.077148,4450.769043,4418.461426,4357.05127,4401.538574,5263,4,80,,,,0,4,4,4,4,4,4,4,4,4,4,4,4,4,4,100,,,,,,,,,,,,,,,,,,,,,,,,,,,,,,,,,,,,,,,,,,,,,,,,,,,,,,,,,,,,,,,,,,,,,,,,,,,,,,,,,,,,,,,,,,,,,,,,,,,,,,,,,,,,,,,,,,,,,,,,,,,,,,,,,,,,,,
1702544237,1702544237,71,0,4270.897461,4293.589844,4283.461426,4275.641113,4271.922852,4268.205078,4255.384766,4261.025879,4262.436035,4246.666504,4444.358887,4423.589844,4360.256348,4393.717773,5046,4,80,,,,0,4,4,4,4,4,4,4,4,4,4,4,4,4,4,100,,,,,,,,,,,,,,,,,,,,,,,,,,,,,,,,,,,,,,,,,,,,,,,,,,,,,,,,,,,,,,,,,,,,,,,,,,,,,,,,,,,,,,,,,,,,,,,,,,,,,,,,,,,,,,,,,,,,,,,,,,,,,,,,,,,,,,
1702544237,1702544237,72,0,4280.641113,4313.846191,4290.897461,4287.436035,4275.512695,4273.205078,4261.410156,4270.384766,4269.615234,4250.128418,4465.641113,4440.897461,4365.769043,4415.384766,5357,4,80,,,,0,4,4,4,4,4,4,4,4,4,4,4,4,4,4,100,,,,,,,,,,,,,,,,,18,0,0.105053,-0.596741,0.139832,-0.783142,0.920034,-0.316445,0.214382,-10.102107,3.164356,88.477135,,,,,,,,,,,,,,,,,,,,,,,,,,,,,,,,,,,,,,,,,,,,,,,,,,,,,,,,,,,,,,,,,,,,,,,,,,,,,,,,,,,,,,,,,,,,,,,,,,,,,,,,,,
1702544237,1702544237,73,0,4288.077148,4326.153809,4294.871582,4298.205078,4282.94873,4276.282227,4264.358887,4280.384766,4276.922852,4253.461426,4478.333496,4448.077148,4363.589844,4425,5355,4,80,,,,0,4,4,4,4,4,4,4,4,4,4,4,4,4,4,100,,,,,,,,,,,,,,,,,,,,,,,,,,,,,,,,,,,,,,,,,,,,,,,,,,,,,,,,,,,,,,,,,,,,,,,,,,,,,,,,,,,,,,,,,,,,,,,,,,,,,,,,,,,,,,,,,,,,,,,,,,,,,,,,,,,,,,
1702544237,1702544237,74,0,4289.358887,4308.205078,4296.922852,4295.897461,4295.512695,4280.128418,4267.94873,4281.538574,4283.717773,4250.641113,4461.410156,4445.897461,4367.820313,4408.333496,6072,4,80,,,,0,4,4,4,4,4,4,4,4,4,4,4,4,4,4,100,,,,,,,,,,,,,,,,,,,,,,,,,,,,,,,,,,,,,,,,,,,,,,,,,,,,,,,,,,,,,,,,,,,,,,,,,,,,,,,,,,,,,,,,,,,,,,,,,,,,,,,,,,,,,,,,,,,,,,,,,,,,,,,,,,,,,,
1702544237,1702544237,75,0,4290.769043,4303.077148,4299.743652,4289.871582,4291.794922,4284.102539,4276.666504,4277.94873,4279.871582,4253.461426,4456.538574,4447.05127,4372.179688,4406.922852,6322,4,80,,,,0,4,4,4,4,4,4,4,4,4,4,4,4,4,4,100,,,,,,,,,,,,,,,,,,,,,,,,,,,,,,,,,,,,,,,,,,,,,,,,,,,,,,,,,,,,,,,,,,,,,,,,,,,,,,,,,,,,,,,,,,,,,,,,,,,,,,,,,,,,,,,,,,,,,,,,,,,,,,,,,,,,,,
1702544237,1702544237,76,0,4288.077148,4320.641113,4292.563965,4287.05127,4280.256348,4281.282227,4275.256348,4275.769043,4265.384766,4260.512695,4467.94873,4446.153809,4367.820313,4421.410156,6710,4,80,,,,0,4,4,4,4,4,4,4,4,4,4,4,4,4,4,100,,,,,,,,,,,,,,,,,19,0,0.105846,-0.596558,0.140015,-0.783142,0.906361,-0.308143,0.222683,-9.991897,3.147921,88.479424,,,,,,,,,,,,,,,,,,,,,,,,,,,,,,,,,,,,,,,,,,,,,,,,,,,,,,,,,,,,,,,,,,,,,,,,,,,,,,,,,,,,,,,,,,,,,,,,,,,,,,,,,,
1702544237,1702544237,77,0,4278.589844,4321.666504,4281.282227,4284.487305,4278.717773,4277.94873,4265.641113,4272.563965,4265.384766,4250,4463.717773,4441.282227,4367.436035,4419.230957,6972,4,80,,,,0,4,4,4,4,4,4,4,4,4,4,4,4,4,4,100,,,,,,,,,,,,,,,,,,,,,,,,,,,,,,,,,,,,,,,,,,,,,,,,,,,,,,,,,,,,,,,,,,,,,,,,,,,,,,,,,,,,,,,,,,,,,,,,,,,,,,,,,,,,,,,,,,,,,,,,,,,,,,,,,,,,,,
1702544237,1702544237,78,0,4269.743652,4295.769043,4274.487305,4275.384766,4279.358887,4280.384766,4265.769043,4266.922852,4266.666504,4230.256348,4446.666504,4428.846191,4359.743652,4398.717773,6072,4,80,,,,0,4,4,4,4,4,4,4,4,4,4,4,4,4,4,100,,,,,,,,,,,,,,,,,,,,,,,,,,,,,,,,,,,,,,,,,,,,,,,,,,,,,,,,,,,,,,,,,,,,,,,,,,,,,,,,,,,,,,,,,,,,,,,,,,,,,,,,,,,,,,,,,,,,,,,,,,,,,,,,,,,,,,
1702544237,1702544237,79,0,4261.538574,4274.743652,4268.461426,4263.974121,4274.102539,4280.128418,4266.538574,4260.897461,4251.282227,4225,4428.717773,4413.333496,4341.538574,4383.846191,6322,4,80,,,,0,4,4,4,4,4,4,4,4,4,4,4,4,4,4,100,,,,,,,,,,,,,,,,,,,,,,,,,,,,,,,,,,,,,,,,,,,,,,,,,,,,,,,,,,,,,,,,,,,,,,,,,,,,,,,,,,,,,,,,,,,,,,,,,,,,,,,,,,,,,,,,,,,,,,,,,,,,,,,,,,,,,,
1702544237,1702544237,80,0,4261.794922,4283.846191,4270.769043,4271.153809,4274.871582,4274.743652,4260.641113,4258.589844,4249.615234,4232.563965,4425.641113,4413.717773,4343.974121,4398.205078,6710,4,80,,,,0,4,4,4,4,4,4,4,4,4,4,4,4,4,4,100,1,58.333332,4,1,3,4,4,4,4,4,4,4,4,4,3,3,20,0,0.105462,-0.596313,0.14032,-0.783325,0.921011,-0.322305,0.216823,-9.976041,3.133129,88.481476,,,,,,,,,,,,,,,,,,,,,,,,,,,,,,,,,,,,,44.777351,1.697533,0.554825,0.693809,0.363483,138.937958,4.125138,0.672689,0.731906,0.403728,10.355214,0.668746,0.478371,0.580806,0.329286,24.492487,0.812944,0.938631,0.776563,0.647802,5.314921,0.441258,0.542697,0.297259,0.52579,1.403814,0.234918,0.326023,0.285597,0.252,1.387238,0.528737,0.68609,0.454853,0.231731,1.293583,0.602402,0.507691,0.469388,0.214439,1.254097,0.618402,0.580588,0.384037,0.222849,0.827217,0.6042,0.468783,0.407427,0.389987,14.203669,0.923271,0.613654,1.414735,0.554008,12.770716,0.709489,0.610584,0.855215,0.444142,58.077641,3.117457,0.53114,0.93161,0.665343,62.436852,4.188337,1.165139,1.242524,1.077705
1702544237,1702544237,81,0,4272.692383,4296.538574,4282.692383,4284.230957,4280.256348,4272.820313,4257.436035,4265.641113,4266.025879,4245.384766,4444.743652,4428.461426,4365.641113,4417.436035,6972,4,80,,,,0,4,4,4,4,4,4,4,4,4,4,4,4,4,4,100,,,,,,,,,,,,,,,,,,,,,,,,,,,,,,,,,,,,,,,,,,,,,,,,,,,,,,,,,,,,,,,,,,,,,,,,,,,,,,,,,,,,,,,,,,,,,,,,,,,,,,,,,,,,,,,,,,,,,,,,,,,,,,,,,,,,,,
1702544237,1702544237,82,0,4281.025879,4299.871582,4289.615234,4275.384766,4280.256348,4274.743652,4260.384766,4274.358887,4270.384766,4250,4461.153809,4441.794922,4371.410156,4413.846191,6072,4,80,,,,0,4,4,4,4,4,4,4,4,4,4,4,4,4,4,100,,,,,,,,,,,,,,,,,,,,,,,,,,,,,,,,,,,,,,,,,,,,,,,,,,,,,,,,,,,,,,,,,,,,,,,,,,,,,,,,,,,,,,,,,,,,,,,,,,,,,,,,,,,,,,,,,,,,,,,,,,,,,,,,,,,,,,
1702544237,1702544237,83,0,4277.563965,4293.077148,4282.307617,4259.230957,4269.487305,4267.563965,4255.256348,4270.256348,4259.871582,4235.897461,4451.666504,4435.897461,4355.256348,4395.512695,6322,4,80,,,,0,4,4,4,4,4,4,4,4,4,4,4,4,4,4,100,,,,,,,,,,,,,,,,,,,,,,,,,,,,,,,,,,,,,,,,,,,,,,,,,,,,,,,,,,,,,,,,,,,,,,,,,,,,,,,,,,,,,,,,,,,,,,,,,,,,,,,,,,,,,,,,,,,,,,,,,,,,,,,,,,,,,,
1702544237,1702544237,84,0,4262.05127,4278.846191,4272.436035,4259.230957,4257.179688,4255.512695,4244.102539,4260.256348,4253.205078,4227.820313,4436.922852,4419.615234,4350.769043,4391.794922,6710,4,80,,,,0,4,4,4,4,4,4,4,4,4,4,4,4,4,4,100,,,,,,,,,,,,,,,,,21,0,0.105853,-0.596252,0.140625,-0.783264,0.921988,-0.308143,0.20901,-9.86177,3.136482,88.466667,,,,,,,,,,,,,,,,,,,,,,,,,,,,,,,,,,,,,,,,,,,,,,,,,,,,,,,,,,,,,,,,,,,,,,,,,,,,,,,,,,,,,,,,,,,,,,,,,,,,,,,,,,
1702544237,1702544237,85,0,4262.563965,4286.410156,4276.153809,4273.717773,4260.256348,4257.307617,4245,4263.846191,4256.922852,4239.358887,4448.717773,4428.589844,4368.205078,4414.743652,6972,4,80,,,,0,4,4,4,4,4,4,4,4,4,4,4,4,4,4,100,,,,,,,,,,,,,,,,,,,,,,,,,,,,,,,,,,,,,,,,,,,,,,,,,,,,,,,,,,,,,,,,,,,,,,,,,,,,,,,,,,,,,,,,,,,,,,,,,,,,,,,,,,,,,,,,,,,,,,,,,,,,,,,,,,,,,,
1702544237,1702544237,86,0,4276.282227,4297.692383,4283.461426,4281.922852,4269.487305,4266.153809,4253.077148,4268.846191,4256.410156,4241.666504,4456.794922,4448.077148,4366.282227,4417.307617,6072,4,80,,,,0,4,4,4,4,4,4,4,4,4,4,4,4,4,4,100,,,,,,,,,,,,,,,,,,,,,,,,,,,,,,,,,,,,,,,,,,,,,,,,,,,,,,,,,,,,,,,,,,,,,,,,,,,,,,,,,,,,,,,,,,,,,,,,,,,,,,,,,,,,,,,,,,,,,,,,,,,,,,,,,,,,,,
1702544237,1702544237,87,0,4274.487305,4286.538574,4281.922852,4273.205078,4264.487305,4267.820313,4252.436035,4261.153809,4246.153809,4231.794922,4440.512695,4438.589844,4346.153809,4392.820313,6322,4,80,,,,0,4,4,4,4,4,4,4,4,4,4,4,4,4,4,100,,,,,,,,,,,,,,,,,,,,,,,,,,,,,,,,,,,,,,,,,,,,,,,,,,,,,,,,,,,,,,,,,,,,,,,,,,,,,,,,,,,,,,,,,,,,,,,,,,,,,,,,,,,,,,,,,,,,,,,,,,,,,,,,,,,,,,
1702544237,1702544237,88,0,4262.692383,4276.025879,4278.589844,4258.589844,4251.025879,4258.333496,4245.128418,4255.769043,4243.333496,4233.461426,4430.769043,4420.512695,4356.666504,4387.307617,6710,4,80,,,,0,4,4,4,4,4,4,4,4,4,4,4,4,4,4,100,,,,,,,,,,,,,,,,,22,0,0.105736,-0.596252,0.141052,-0.783203,0.925894,-0.302283,0.215847,-9.808926,3.056167,88.486664,,,,,,,,,,,,,,,,,,,,,,,,,,,,,,,,,,,,,,,,,,,,,,,,,,,,,,,,,,,,,,,,,,,,,,,,,,,,,,,,,,,,,,,,,,,,,,,,,,,,,,,,,,
1702544238,1702544238,89,0,4259.487305,4278.717773,4276.538574,4253.205078,4242.307617,4248.077148,4241.025879,4251.922852,4248.461426,4232.692383,4436.282227,4422.820313,4374.358887,4400.128418,6972,4,80,,,,0,4,4,4,4,4,4,4,4,4,4,4,4,4,4,100,,,,,,,,,,,,,,,,,,,,,,,,,,,,,,,,,,,,,,,,,,,,,,,,,,,,,,,,,,,,,,,,,,,,,,,,,,,,,,,,,,,,,,,,,,,,,,,,,,,,,,,,,,,,,,,,,,,,,,,,,,,,,,,,,,,,,,
1702544238,1702544238,90,0,4268.077148,4278.846191,4276.794922,4262.05127,4248.205078,4257.436035,4248.846191,4251.025879,4249.230957,4229.743652,4433.717773,4431.282227,4359.487305,4409.615234,6072,4,80,,,,0,4,4,4,4,4,4,4,4,4,4,4,4,4,4,100,,,,,,,,,,,,,,,,,,,,,,,,,,,,,,,,,,,,,,,,,,,,,,,,,,,,,,,,,,,,,,,,,,,,,,,,,,,,,,,,,,,,,,,,,,,,,,,,,,,,,,,,,,,,,,,,,,,,,,,,,,,,,,,,,,,,,,
1702544238,1702544238,91,0,4271.666504,4280.384766,4278.589844,4272.820313,4265,4261.282227,4248.333496,4254.230957,4248.205078,4237.820313,4427.179688,4431.153809,4352.692383,4407.94873,6322,4,80,,,,0,4,4,4,4,4,4,4,4,4,4,4,4,4,4,100,,,,,,,,,,,,,,,,,,,,,,,,,,,,,,,,,,,,,,,,,,,,,,,,,,,,,,,,,,,,,,,,,,,,,,,,,,,,,,,,,,,,,,,,,,,,,,,,,,,,,,,,,,,,,,,,,,,,,,,,,,,,,,,,,,,,,,
1702544238,1702544238,92,0,4263.461426,4275.128418,4275.256348,4262.307617,4257.94873,4248.846191,4237.179688,4253.846191,4249.358887,4242.692383,4437.94873,4426.538574,4366.025879,4391.538574,6710,4,80,,,,0,4,4,4,4,4,4,4,4,4,4,4,4,4,4,100,,,,,,,,,,,,,,,,,23,0,0.105827,-0.596069,0.141418,-0.783264,0.919057,-0.328653,0.218777,-9.811367,3.050551,88.571335,,,,,,,,,,,,,,,,,,,,,,,,,,,,,,,,,,,,,,,,,,,,,,,,,,,,,,,,,,,,,,,,,,,,,,,,,,,,,,,,,,,,,,,,,,,,,,,,,,,,,,,,,,
1702544238,1702544238,93,0,4260.769043,4267.436035,4275.128418,4247.563965,4230.512695,4253.333496,4245.897461,4257.692383,4257.563965,4244.487305,4447.179688,4429.102539,4362.179688,4391.153809,6972,4,80,,,,0,4,4,4,4,4,4,4,4,4,4,4,4,4,4,100,,,,,,,,,,,,,,,,,,,,,,,,,,,,,,,,,,,,,,,,,,,,,,,,,,,,,,,,,,,,,,,,,,,,,,,,,,,,,,,,,,,,,,,,,,,,,,,,,,,,,,,,,,,,,,,,,,,,,,,,,,,,,,,,,,,,,,
1702544238,1702544238,94,0,4269.102539,4282.692383,4277.436035,4254.230957,4235.384766,4263.846191,4255.128418,4263.205078,4265.256348,4249.230957,4437.563965,4429.871582,4355.512695,4408.205078,6072,4,80,,,,0,4,4,4,4,4,4,4,4,4,4,4,4,4,4,100,,,,,,,,,,,,,,,,,,,,,,,,,,,,,,,,,,,,,,,,,,,,,,,,,,,,,,,,,,,,,,,,,,,,,,,,,,,,,,,,,,,,,,,,,,,,,,,,,,,,,,,,,,,,,,,,,,,,,,,,,,,,,,,,,,,,,,
1702544238,1702544238,95,0,4273.205078,4294.358887,4278.205078,4273.461426,4261.025879,4259.487305,4246.666504,4260.128418,4261.538574,4248.717773,4438.717773,4426.282227,4374.358887,4407.820313,6322,4,80,,,,0,4,4,4,4,4,4,4,4,4,4,4,4,4,4,100,,,,,,,,,,,,,,,,,,,,,,,,,,,,,,,,,,,,,,,,,,,,,,,,,,,,,,,,,,,,,,,,,,,,,,,,,,,,,,,,,,,,,,,,,,,,,,,,,,,,,,,,,,,,,,,,,,,,,,,,,,,,,,,,,,,,,,
1702544238,1702544238,96,0,4277.05127,4294.871582,4286.153809,4284.102539,4262.692383,4258.846191,4249.358887,4261.282227,4265.384766,4252.307617,4460.384766,4438.717773,4387.307617,4404.871582,6710,4,80,,,,0,4,4,4,4,4,4,4,4,4,4,4,4,4,4,100,,,,,,,,,,,,,,,,,24,0,0.105671,-0.595886,0.141968,-0.783325,0.918569,-0.31205,0.22073,-9.713563,2.945496,88.580864,,,,,,,,,,,,,,,,,,,,,,,,,,,,,,,,,,,,,34.951893,1.441326,0.524768,0.648335,0.368864,109.16053,3.355149,0.68319,0.714875,0.398791,8.035522,0.65926,0.522664,0.573792,0.304989,19.077002,0.795137,0.931911,0.651443,0.636597,5.567827,0.427651,0.625861,0.283941,0.529397,1.592979,0.336912,0.416033,0.296556,0.26496,1.491542,0.509721,0.738539,0.43803,0.240644,1.349689,0.603518,0.534877,0.448139,0.232507,1.412785,0.644275,0.612673,0.363454,0.225737,0.947376,0.579511,0.432873,0.334541,0.430289,11.386616,0.87021,0.561688,1.351548,0.591296,10.252277,0.701072,0.678867,0.780243,0.441178,45.25803,2.362556,0.384424,0.827874,0.672903,48.267387,3.561326,1.191855,1.275584,1.140874
1702544238,1702544238,97,0,4292.94873,4310.769043,4297.436035,4285.128418,4266.025879,4267.307617,4263.333496,4273.717773,4278.461426,4263.974121,4471.025879,4457.563965,4382.436035,4429.487305,6972,4,80,,,,0,4,4,4,4,4,4,4,4,4,4,4,4,4,4,100,,,,,,,,,,,,,,,,,,,,,,,,,,,,,,,,,,,,,,,,,,,,,,,,,,,,,,,,,,,,,,,,,,,,,,,,,,,,,,,,,,,,,,,,,,,,,,,,,,,,,,,,,,,,,,,,,,,,,,,,,,,,,,,,,,,,,,
1702544238,1702544238,98,0,4297.94873,4322.05127,4296.666504,4286.282227,4287.692383,4270.128418,4260.897461,4274.743652,4278.461426,4264.230957,4464.743652,4453.205078,4384.358887,4440.641113,6072,4,80,,,,0,4,4,4,4,4,4,4,4,4,4,4,4,4,4,100,,,,,,,,,,,,,,,,,,,,,,,,,,,,,,,,,,,,,,,,,,,,,,,,,,,,,,,,,,,,,,,,,,,,,,,,,,,,,,,,,,,,,,,,,,,,,,,,,,,,,,,,,,,,,,,,,,,,,,,,,,,,,,,,,,,,,,
1702544238,1702544238,99,0,4291.666504,4317.820313,4294.358887,4287.436035,4293.205078,4276.025879,4254.487305,4265.384766,4271.666504,4255.769043,4461.922852,4441.794922,4391.025879,4422.820313,6322,4,80,,,,0,4,4,4,4,4,4,4,4,4,4,4,4,4,4,100,,,,,,,,,,,,,,,,,,,,,,,,,,,,,,,,,,,,,,,,,,,,,,,,,,,,,,,,,,,,,,,,,,,,,,,,,,,,,,,,,,,,,,,,,,,,,,,,,,,,,,,,,,,,,,,,,,,,,,,,,,,,,,,,,,,,,,
1702544238,1702544238,100,0,4305.769043,4331.153809,4304.871582,4297.563965,4292.436035,4285,4261.922852,4269.102539,4272.563965,4260.769043,4468.461426,4456.282227,4400.256348,4433.846191,6710,4,80,,,,0,4,4,4,4,4,4,4,4,4,4,4,4,4,4,100,,,,,,,,,,,,,,,,,25,0,0.105952,-0.595581,0.142029,-0.783508,0.921011,-0.322305,0.20608,-9.708874,2.934279,88.639442,,,,,,,,,,,,,,,,,,,,,,,,,,,,,,,,,,,,,,,,,,,,,,,,,,,,,,,,,,,,,,,,,,,,,,,,,,,,,,,,,,,,,,,,,,,,,,,,,,,,,,,,,,
1702544238,1702544238,101,0,4325.256348,4356.025879,4316.794922,4315.256348,4307.94873,4290.128418,4273.589844,4282.307617,4280.769043,4270.128418,4475,4478.717773,4405.769043,4460.128418,6972,4,80,,,,0,4,4,4,4,4,4,4,4,4,4,4,4,4,4,100,,,,,,,,,,,,,,,,,,,,,,,,,,,,,,,,,,,,,,,,,,,,,,,,,,,,,,,,,,,,,,,,,,,,,,,,,,,,,,,,,,,,,,,,,,,,,,,,,,,,,,,,,,,,,,,,,,,,,,,,,,,,,,,,,,,,,,
1702544238,1702544238,102,0,4314.358887,4361.922852,4317.05127,4321.538574,4314.615234,4298.333496,4278.205078,4287.436035,4288.717773,4270.384766,4476.153809,4477.94873,4405,4456.025879,6072,4,80,,,,0,4,4,4,4,4,4,4,4,4,4,4,4,4,4,100,,,,,,,,,,,,,,,,,,,,,,,,,,,,,,,,,,,,,,,,,,,,,,,,,,,,,,,,,,,,,,,,,,,,,,,,,,,,,,,,,,,,,,,,,,,,,,,,,,,,,,,,,,,,,,,,,,,,,,,,,,,,,,,,,,,,,,
1702544238,1702544238,103,0,4301.538574,4360.641113,4315.512695,4313.205078,4314.615234,4306.025879,4279.358887,4291.025879,4293.974121,4265.256348,4485.256348,4470.384766,4410.897461,4445.256348,6322,4,80,,,,0,4,4,4,4,4,4,4,4,4,4,4,4,4,4,100,,,,,,,,,,,,,,,,,,,,,,,,,,,,,,,,,,,,,,,,,,,,,,,,,,,,,,,,,,,,,,,,,,,,,,,,,,,,,,,,,,,,,,,,,,,,,,,,,,,,,,,,,,,,,,,,,,,,,,,,,,,,,,,,,,,,,,
1702544238,1702544238,104,0,4322.692383,4369.871582,4322.94873,4310.128418,4325.256348,4312.563965,4286.538574,4298.077148,4296.922852,4265.128418,4496.153809,4485.128418,4413.974121,4455.769043,6710,4,80,,,,0,4,4,4,4,4,4,4,4,4,4,4,4,4,4,100,,,,,,,,,,,,,,,,,26,0,0.106049,-0.59552,0.142212,-0.783508,0.912709,-0.30912,0.216823,-9.67132,2.924185,88.80883,,,,,,,,,,,,,,,,,,,,,,,,,,,,,,,,,,,,,,,,,,,,,,,,,,,,,,,,,,,,,,,,,,,,,,,,,,,,,,,,,,,,,,,,,,,,,,,,,,,,,,,,,,
1702544238,1702544238,105,0,4335.897461,4370.769043,4327.820313,4313.846191,4323.461426,4308.589844,4285.512695,4290.512695,4290,4268.589844,4489.230957,4495.641113,4403.077148,4462.436035,6972,4,80,,,,0,4,4,4,4,4,4,4,4,4,4,4,4,4,4,100,,,,,,,,,,,,,,,,,,,,,,,,,,,,,,,,,,,,,,,,,,,,,,,,,,,,,,,,,,,,,,,,,,,,,,,,,,,,,,,,,,,,,,,,,,,,,,,,,,,,,,,,,,,,,,,,,,,,,,,,,,,,,,,,,,,,,,
1702544238,1702544238,106,0,4316.922852,4356.538574,4323.717773,4309.358887,4313.077148,4304.615234,4279.487305,4280.384766,4277.436035,4265.769043,4483.589844,4483.205078,4402.05127,4456.538574,6072,4,80,,,,0,4,4,4,4,4,4,4,4,4,4,4,4,4,4,100,,,,,,,,,,,,,,,,,,,,,,,,,,,,,,,,,,,,,,,,,,,,,,,,,,,,,,,,,,,,,,,,,,,,,,,,,,,,,,,,,,,,,,,,,,,,,,,,,,,,,,,,,,,,,,,,,,,,,,,,,,,,,,,,,,,,,,
1702544238,1702544238,107,0,4309.230957,4357.307617,4324.743652,4309.102539,4321.794922,4314.871582,4289.487305,4290,4282.307617,4266.794922,4490.256348,4482.692383,4420.384766,4461.282227,6322,4,80,,,,0,4,4,4,4,4,4,4,4,4,4,4,4,4,4,100,,,,,,,,,,,,,,,,,,,,,,,,,,,,,,,,,,,,,,,,,,,,,,,,,,,,,,,,,,,,,,,,,,,,,,,,,,,,,,,,,,,,,,,,,,,,,,,,,,,,,,,,,,,,,,,,,,,,,,,,,,,,,,,,,,,,,,
1702544238,1702544238,108,0,4323.846191,4368.717773,4328.589844,4311.153809,4329.615234,4318.077148,4301.153809,4300.897461,4299.102539,4274.487305,4488.205078,4493.846191,4422.05127,4462.05127,6710,4,80,,,,0,4,4,4,4,4,4,4,4,4,4,4,4,4,4,100,,,,,,,,,,,,,,,,,27,0,0.105803,-0.59552,0.142395,-0.783508,0.908802,-0.308631,0.20901,-9.637521,3.1651,88.84462,,,,,,,,,,,,,,,,,,,,,,,,,,,,,,,,,,,,,,,,,,,,,,,,,,,,,,,,,,,,,,,,,,,,,,,,,,,,,,,,,,,,,,,,,,,,,,,,,,,,,,,,,,
1702544238,1702544238,109,0,4329.487305,4366.282227,4327.563965,4309.871582,4315.897461,4310.641113,4293.333496,4297.692383,4296.538574,4274.230957,4482.692383,4485.128418,4414.102539,4462.436035,6972,4,80,,,,0,4,4,4,4,4,4,4,4,4,4,4,4,4,4,100,,,,,,,,,,,,,,,,,,,,,,,,,,,,,,,,,,,,,,,,,,,,,,,,,,,,,,,,,,,,,,,,,,,,,,,,,,,,,,,,,,,,,,,,,,,,,,,,,,,,,,,,,,,,,,,,,,,,,,,,,,,,,,,,,,,,,,
1702544238,1702544238,110,0,4317.05127,4356.922852,4325.641113,4308.589844,4309.102539,4306.922852,4281.025879,4288.589844,4280.256348,4264.743652,4485.897461,4471.666504,4410.384766,4458.077148,6072,4,80,,,,0,4,4,4,4,4,4,4,4,4,4,4,4,4,4,100,,,,,,,,,,,,,,,,,,,,,,,,,,,,,,,,,,,,,,,,,,,,,,,,,,,,,,,,,,,,,,,,,,,,,,,,,,,,,,,,,,,,,,,,,,,,,,,,,,,,,,,,,,,,,,,,,,,,,,,,,,,,,,,,,,,,,,
1702544238,1702544238,111,0,4305.128418,4347.179688,4320.897461,4300.641113,4308.333496,4300.641113,4277.05127,4279.487305,4274.358887,4257.820313,4480.512695,4472.307617,4394.358887,4442.307617,6322,4,80,,,,0,4,4,4,4,4,4,4,4,4,4,4,4,4,4,100,,,,,,,,,,,,,,,,,,,,,,,,,,,,,,,,,,,,,,,,,,,,,,,,,,,,,,,,,,,,,,,,,,,,,,,,,,,,,,,,,,,,,,,,,,,,,,,,,,,,,,,,,,,,,,,,,,,,,,,,,,,,,,,,,,,,,,
1702544238,1702544238,112,0,4304.358887,4340.128418,4317.05127,4293.846191,4303.846191,4292.563965,4276.025879,4276.666504,4278.077148,4261.666504,4471.794922,4475.641113,4386.025879,4440.641113,6710,4,80,,,,0,4,4,4,4,4,4,4,4,4,4,4,4,4,4,100,,,,,,,,,,,,,,,,,28,0,0.105365,-0.595459,0.142639,-0.783569,0.907826,-0.30619,0.220242,-9.740436,3.231923,88.810158,,,,,,,,,,,,,,,,,,,,,,,,,,,,,,,,,,,,,23.619734,1.138231,0.525438,0.59136,0.378799,73.284035,2.373883,0.705615,0.720445,0.406002,5.713521,0.642865,0.57532,0.557343,0.286836,12.947041,0.722065,0.915274,0.540346,0.609342,6.018042,0.396052,0.734119,0.263913,0.526424,1.934044,0.481164,0.505266,0.301669,0.287389,1.690844,0.498871,0.770851,0.399059,0.25315,1.527311,0.588506,0.543313,0.422794,0.255157,1.712238,0.636301,0.645295,0.336973,0.237184,1.191919,0.514148,0.407974,0.276794,0.477826,8.364449,0.81907,0.56883,1.237631,0.663474,7.685164,0.726658,0.732969,0.702412,0.452711,30.104177,1.505562,0.276498,0.728692,0.659019,31.831139,2.67418,1.176553,1.266684,1.178629
1702544238,1702544238,113,0,4305.256348,4342.05127,4318.333496,4295.897461,4300.897461,4294.615234,4275.769043,4280.512695,4279.743652,4266.794922,4473.205078,4470.641113,4399.230957,4445.384766,6972,4,80,,,,0,4,4,4,4,4,4,4,4,4,4,4,4,4,4,100,,,,,,,,,,,,,,,,,,,,,,,,,,,,,,,,,,,,,,,,,,,,,,,,,,,,,,,,,,,,,,,,,,,,,,,,,,,,,,,,,,,,,,,,,,,,,,,,,,,,,,,,,,,,,,,,,,,,,,,,,,,,,,,,,,,,,,
1702544238,1702544238,114,0,4296.922852,4338.717773,4312.05127,4297.307617,4283.974121,4294.487305,4273.461426,4277.563965,4273.974121,4263.333496,4468.461426,4458.717773,4399.743652,4432.692383,6072,4,80,,,,0,4,4,4,4,4,4,4,4,4,4,4,4,4,4,100,,,,,,,,,,,,,,,,,,,,,,,,,,,,,,,,,,,,,,,,,,,,,,,,,,,,,,,,,,,,,,,,,,,,,,,,,,,,,,,,,,,,,,,,,,,,,,,,,,,,,,,,,,,,,,,,,,,,,,,,,,,,,,,,,,,,,,
1702544238,1702544238,115,0,4291.025879,4322.307617,4307.179688,4290.897461,4279.487305,4292.94873,4274.230957,4276.538574,4273.333496,4258.717773,4465,4459.871582,4383.461426,4420.769043,6322,4,80,,,,0,4,4,4,4,4,4,4,4,4,4,4,4,4,4,100,,,,,,,,,,,,,,,,,,,,,,,,,,,,,,,,,,,,,,,,,,,,,,,,,,,,,,,,,,,,,,,,,,,,,,,,,,,,,,,,,,,,,,,,,,,,,,,,,,,,,,,,,,,,,,,,,,,,,,,,,,,,,,,,,,,,,,
1702544238,1702544238,116,0,4296.153809,4321.794922,4313.717773,4292.820313,4311.282227,4299.743652,4278.974121,4285.128418,4282.307617,4267.563965,4472.563965,4475.512695,4388.461426,4433.205078,6710,4,80,,,,0,4,4,4,4,4,4,4,4,4,4,4,4,4,4,100,,,,,,,,,,,,,,,,,29,0,0.105396,-0.595154,0.142883,-0.783752,0.925406,-0.318398,0.208033,-9.649725,3.025397,88.879143,,,,,,,,,,,,,,,,,,,,,,,,,,,,,,,,,,,,,,,,,,,,,,,,,,,,,,,,,,,,,,,,,,,,,,,,,,,,,,,,,,,,,,,,,,,,,,,,,,,,,,,,,,
1702544238,1702544238,117,0,4295,4334.230957,4314.102539,4302.692383,4313.717773,4301.410156,4279.487305,4285.512695,4287.563965,4280,4476.025879,4478.717773,4403.205078,4445,6972,4,80,,,,0,4,4,4,4,4,4,4,4,4,4,4,4,4,4,100,,,,,,,,,,,,,,,,,,,,,,,,,,,,,,,,,,,,,,,,,,,,,,,,,,,,,,,,,,,,,,,,,,,,,,,,,,,,,,,,,,,,,,,,,,,,,,,,,,,,,,,,,,,,,,,,,,,,,,,,,,,,,,,,,,,,,,
1702544238,1702544238,118,0,4298.077148,4328.974121,4313.717773,4307.820313,4274.358887,4297.05127,4277.820313,4280.256348,4281.282227,4275.641113,4474.871582,4474.743652,4400.128418,4442.820313,6072,4,80,,,,0,4,4,4,4,4,4,4,4,4,4,4,4,4,4,100,,,,,,,,,,,,,,,,,,,,,,,,,,,,,,,,,,,,,,,,,,,,,,,,,,,,,,,,,,,,,,,,,,,,,,,,,,,,,,,,,,,,,,,,,,,,,,,,,,,,,,,,,,,,,,,,,,,,,,,,,,,,,,,,,,,,,,
1702544238,1702544238,119,0,4313.589844,4324.230957,4324.871582,4310.897461,4272.436035,4292.94873,4278.461426,4284.102539,4276.153809,4267.436035,4487.307617,4485.512695,4402.692383,4446.666504,6322,4,80,,,,0,4,4,4,4,4,4,4,4,4,4,4,4,4,4,100,,,,,,,,,,,,,,,,,,,,,,,,,,,,,,,,,,,,,,,,,,,,,,,,,,,,,,,,,,,,,,,,,,,,,,,,,,,,,,,,,,,,,,,,,,,,,,,,,,,,,,,,,,,,,,,,,,,,,,,,,,,,,,,,,,,,,,
1702544238,1702544238,120,0,4318.846191,4339.102539,4332.179688,4319.743652,4306.922852,4291.794922,4279.358887,4291.538574,4285.512695,4272.94873,4506.153809,4500.256348,4418.205078,4457.94873,6710,4,80,,,,0,4,4,4,4,4,4,4,4,4,4,4,4,4,4,100,,,,,,,,,,,,,,,,,30,0,0.105396,-0.595154,0.142883,-0.783752,0.923941,-0.311561,0.230009,-9.751419,3.022858,88.724556,,,,,,,,,,,,,,,,,,,,,,,,,,,,,,,,,,,,,,,,,,,,,,,,,,,,,,,,,,,,,,,,,,,,,,,,,,,,,,,,,,,,,,,,,,,,,,,,,,,,,,,,,,
1702544238,1702544238,121,0,4310.256348,4347.820313,4330.512695,4323.589844,4313.846191,4296.922852,4277.820313,4292.692383,4294.487305,4282.820313,4506.410156,4502.94873,4419.102539,4463.333496,6972,4,80,,,,0,4,4,4,4,4,4,4,4,4,4,4,4,4,4,100,,,,,,,,,,,,,,,,,,,,,,,,,,,,,,,,,,,,,,,,,,,,,,,,,,,,,,,,,,,,,,,,,,,,,,,,,,,,,,,,,,,,,,,,,,,,,,,,,,,,,,,,,,,,,,,,,,,,,,,,,,,,,,,,,,,,,,
1702544238,1702544238,122,0,4309.743652,4340.128418,4335,4318.846191,4307.94873,4299.102539,4277.563965,4289.102539,4287.179688,4280.128418,4496.282227,4502.307617,4409.743652,4456.666504,6072,4,80,,,,0,4,4,4,4,4,4,4,4,4,4,4,4,4,4,100,,,,,,,,,,,,,,,,,,,,,,,,,,,,,,,,,,,,,,,,,,,,,,,,,,,,,,,,,,,,,,,,,,,,,,,,,,,,,,,,,,,,,,,,,,,,,,,,,,,,,,,,,,,,,,,,,,,,,,,,,,,,,,,,,,,,,,
1702544238,1702544238,123,0,4318.717773,4342.436035,4338.205078,4321.666504,4311.922852,4293.333496,4278.589844,4284.230957,4278.077148,4269.871582,4493.077148,4500.769043,4415.641113,4459.487305,6322,4,80,,,,0,4,4,4,4,4,4,4,4,4,4,4,4,4,4,100,,,,,,,,,,,,,,,,,,,,,,,,,,,,,,,,,,,,,,,,,,,,,,,,,,,,,,,,,,,,,,,,,,,,,,,,,,,,,,,,,,,,,,,,,,,,,,,,,,,,,,,,,,,,,,,,,,,,,,,,,,,,,,,,,,,,,,
1702544238,1702544238,124,0,4317.563965,4344.358887,4330.897461,4320.384766,4310.769043,4291.794922,4279.743652,4278.846191,4278.846191,4265.512695,4488.333496,4494.615234,4416.922852,4464.358887,6710,4,80,,,,0,4,4,4,4,4,4,4,4,4,4,4,4,4,4,100,,,,,,,,,,,,,,,,,31,0,0.105287,-0.595093,0.142883,-0.783813,0.896594,-0.286656,0.239287,-9.659611,3.037239,88.635437,,,,,,,,,,,,,,,,,,,,,,,,,,,,,,,,,,,,,,,,,,,,,,,,,,,,,,,,,,,,,,,,,,,,,,,,,,,,,,,,,,,,,,,,,,,,,,,,,,,,,,,,,,
1702544238,1702544238,125,0,4306.922852,4330.769043,4324.487305,4308.717773,4307.05127,4297.05127,4280.897461,4278.717773,4280,4266.666504,4484.615234,4490.128418,4403.974121,4451.538574,6972,4,80,,,,0,4,4,4,4,4,4,4,4,4,4,4,4,4,4,100,,,,,,,,,,,,,,,,,,,,,,,,,,,,,,,,,,,,,,,,,,,,,,,,,,,,,,,,,,,,,,,,,,,,,,,,,,,,,,,,,,,,,,,,,,,,,,,,,,,,,,,,,,,,,,,,,,,,,,,,,,,,,,,,,,,,,,
1702544238,1702544238,126,0,4297.307617,4327.179688,4319.871582,4309.743652,4307.820313,4295.769043,4279.871582,4282.94873,4278.461426,4265.769043,4488.205078,4485.769043,4405.512695,4442.563965,6072,4,80,,,,0,4,4,4,4,4,4,4,4,4,4,4,4,4,4,100,,,,,,,,,,,,,,,,,,,,,,,,,,,,,,,,,,,,,,,,,,,,,,,,,,,,,,,,,,,,,,,,,,,,,,,,,,,,,,,,,,,,,,,,,,,,,,,,,,,,,,,,,,,,,,,,,,,,,,,,,,,,,,,,,,,,,,
1702544238,1702544238,127,0,4294.230957,4330.641113,4313.717773,4316.153809,4309.487305,4294.615234,4280.384766,4287.94873,4279.871582,4262.179688,4487.179688,4480.384766,4409.358887,4443.205078,80,4,80,,,,0,4,4,4,4,4,4,4,4,4,4,4,4,4,4,100,,,,,,,,,,,,,,,,,,,,,,,,,,,,,,,,,,,,,,,,,,,,,,,,,,,,,,,,,,,,,,,,,,,,,,,,,,,,,,,,,,,,,,,,,,,,,,,,,,,,,,,,,,,,,,,,,,,,,,,,,,,,,,,,,,,,,,
1702544238,1702544238,0,0,4293.846191,4323.589844,4308.974121,4305.384766,4308.333496,4295.641113,4279.871582,4287.436035,4279.358887,4260.512695,4471.666504,4474.358887,4388.589844,4433.589844,5375,4,80,,,,0,4,4,4,4,4,4,4,4,4,4,4,4,4,4,100,,,,,,,,,,,,,,,,,0,0,0.105041,-0.59491,0.142822,-0.783997,0.933219,-0.313026,0.207057,-9.626983,2.966848,88.555229,,,,,,,,,,,,,,,,,,,,,,,,,,,,,,,,,,,,,13.979334,0.869136,0.549757,0.534411,0.393378,41.780697,1.499849,0.716147,0.743526,0.435418,4.033068,0.624427,0.628913,0.533787,0.273526,7.863204,0.626364,0.879653,0.465392,0.572018,6.697945,0.359295,0.847176,0.246706,0.528738,2.395639,0.635631,0.562728,0.301906,0.319196,1.97253,0.511451,0.775547,0.346559,0.265499,1.799868,0.572931,0.537457,0.389065,0.275745,2.099599,0.617411,0.67814,0.308885,0.255787,1.507305,0.440171,0.409927,0.246898,0.518813,5.994771,0.80357,0.603149,1.089339,0.760461,5.832008,0.784654,0.777238,0.626803,0.478824,17.064659,0.786798,0.226021,0.665351,0.638096,17.998516,1.791635,1.10835,1.203539,1.199451
1702544238,1702544238,1,0,4291.153809,4327.307617,4308.205078,4299.615234,4309.871582,4294.102539,4277.692383,4280.256348,4280,4257.94873,4467.05127,4472.436035,4380.384766,4434.615234,5537,4,80,,,,0,4,4,4,4,4,4,4,4,4,4,4,4,4,4,100,,,,,,,,,,,,,,,,,,,,,,,,,,,,,,,,,,,,,,,,,,,,,,,,,,,,,,,,,,,,,,,,,,,,,,,,,,,,,,,,,,,,,,,,,,,,,,,,,,,,,,,,,,,,,,,,,,,,,,,,,,,,,,,,,,,,,,
1702544238,1702544238,2,0,4293.717773,4335.512695,4312.563965,4315,4313.077148,4296.025879,4280.897461,4279.743652,4279.615234,4253.846191,4479.487305,4478.461426,4389.871582,4441.794922,5474,4,80,,,,0,4,4,4,4,4,4,4,4,4,4,4,4,4,4,100,,,,,,,,,,,,,,,,,,,,,,,,,,,,,,,,,,,,,,,,,,,,,,,,,,,,,,,,,,,,,,,,,,,,,,,,,,,,,,,,,,,,,,,,,,,,,,,,,,,,,,,,,,,,,,,,,,,,,,,,,,,,,,,,,,,,,,
1702544238,1702544238,3,0,4290.769043,4320.641113,4309.102539,4312.692383,4302.307617,4293.846191,4278.974121,4276.025879,4264.871582,4246.282227,4468.461426,4472.05127,4372.692383,4427.563965,5424,4,80,,,,0,4,4,4,4,4,4,4,4,4,4,4,4,4,4,100,,,,,,,,,,,,,,,,,,,,,,,,,,,,,,,,,,,,,,,,,,,,,,,,,,,,,,,,,,,,,,,,,,,,,,,,,,,,,,,,,,,,,,,,,,,,,,,,,,,,,,,,,,,,,,,,,,,,,,,,,,,,,,,,,,,,,,
1702544238,1702544238,4,0,4290.128418,4320.256348,4305.897461,4303.846191,4293.846191,4290.769043,4273.589844,4274.230957,4261.538574,4244.487305,4454.871582,4463.333496,4372.05127,4433.846191,5370,4,80,,,,0,4,4,4,4,4,4,4,4,4,4,4,4,4,4,100,,,,,,,,,,,,,,,,,1,0,0.105303,-0.594849,0.142883,-0.783997,0.918569,-0.31791,0.227078,-9.730951,2.93683,88.549706,,,,,,,,,,,,,,,,,,,,,,,,,,,,,,,,,,,,,,,,,,,,,,,,,,,,,,,,,,,,,,,,,,,,,,,,,,,,,,,,,,,,,,,,,,,,,,,,,,,,,,,,,,
1702544238,1702544238,5,0,4306.538574,4344.615234,4317.820313,4320.256348,4305.384766,4296.922852,4281.538574,4289.230957,4285,4263.589844,4480.769043,4478.974121,4412.05127,4470.384766,5285,4,80,,,,0,4,4,4,4,4,4,4,4,4,4,4,4,4,4,100,,,,,,,,,,,,,,,,,,,,,,,,,,,,,,,,,,,,,,,,,,,,,,,,,,,,,,,,,,,,,,,,,,,,,,,,,,,,,,,,,,,,,,,,,,,,,,,,,,,,,,,,,,,,,,,,,,,,,,,,,,,,,,,,,,,,,,
1702544238,1702544238,6,0,4311.922852,4341.922852,4329.615234,4331.410156,4312.307617,4301.666504,4292.179688,4297.820313,4296.282227,4281.410156,4498.589844,4499.230957,4414.102539,4462.179688,5230,4,80,,,,0,4,4,4,4,4,4,4,4,4,4,4,4,4,4,100,,,,,,,,,,,,,,,,,,,,,,,,,,,,,,,,,,,,,,,,,,,,,,,,,,,,,,,,,,,,,,,,,,,,,,,,,,,,,,,,,,,,,,,,,,,,,,,,,,,,,,,,,,,,,,,,,,,,,,,,,,,,,,,,,,,,,,
1702544238,1702544238,7,0,4295.256348,4315.769043,4324.487305,4317.436035,4298.717773,4295.384766,4287.820313,4292.436035,4281.025879,4267.692383,4473.846191,4493.461426,4377.94873,4421.025879,5045,4,80,,,,0,4,4,4,4,4,4,4,4,4,4,4,4,4,4,100,,,,,,,,,,,,,,,,,,,,,,,,,,,,,,,,,,,,,,,,,,,,,,,,,,,,,,,,,,,,,,,,,,,,,,,,,,,,,,,,,,,,,,,,,,,,,,,,,,,,,,,,,,,,,,,,,,,,,,,,,,,,,,,,,,,,,,
1702544238,1702544238,8,0,4288.846191,4308.846191,4313.589844,4305.641113,4291.282227,4288.205078,4277.692383,4287.436035,4270.897461,4247.307617,4462.179688,4477.436035,4377.563965,4425,5370,4,80,,,,0,4,4,4,4,4,4,4,4,4,4,4,4,4,4,100,,,,,,,,,,,,,,,,,2,0,0.105134,-0.595215,0.142822,-0.783752,0.915151,-0.322793,0.225613,-9.807857,3.093147,88.561401,,,,,,,,,,,,,,,,,,,,,,,,,,,,,,,,,,,,,,,,,,,,,,,,,,,,,,,,,,,,,,,,,,,,,,,,,,,,,,,,,,,,,,,,,,,,,,,,,,,,,,,,,,
1702544238,1702544238,9,0,4297.05127,4317.94873,4308.846191,4306.153809,4296.794922,4288.333496,4278.077148,4284.871582,4273.974121,4245.641113,4483.333496,4472.820313,4393.205078,4453.846191,5360,4,80,,,,0,4,4,4,4,4,4,4,4,4,4,4,4,4,4,100,,,,,,,,,,,,,,,,,,,,,,,,,,,,,,,,,,,,,,,,,,,,,,,,,,,,,,,,,,,,,,,,,,,,,,,,,,,,,,,,,,,,,,,,,,,,,,,,,,,,,,,,,,,,,,,,,,,,,,,,,,,,,,,,,,,,,,
1702544238,1702544238,10,0,4297.563965,4318.333496,4312.179688,4305.897461,4297.307617,4293.974121,4285.384766,4284.743652,4279.230957,4251.153809,4487.05127,4474.487305,4388.589844,4451.538574,6053,4,80,,,,0,4,4,4,4,4,4,4,4,4,4,4,4,4,4,100,,,,,,,,,,,,,,,,,,,,,,,,,,,,,,,,,,,,,,,,,,,,,,,,,,,,,,,,,,,,,,,,,,,,,,,,,,,,,,,,,,,,,,,,,,,,,,,,,,,,,,,,,,,,,,,,,,,,,,,,,,,,,,,,,,,,,,
1702544238,1702544238,11,0,4289.615234,4308.205078,4317.692383,4305.769043,4291.922852,4295.769043,4284.871582,4286.153809,4277.563965,4256.153809,4466.410156,4477.436035,4382.436035,4422.05127,6309,4,80,,,,0,4,4,4,4,4,4,4,4,4,4,4,4,4,4,100,,,,,,,,,,,,,,,,,,,,,,,,,,,,,,,,,,,,,,,,,,,,,,,,,,,,,,,,,,,,,,,,,,,,,,,,,,,,,,,,,,,,,,,,,,,,,,,,,,,,,,,,,,,,,,,,,,,,,,,,,,,,,,,,,,,,,,
1702544238,1702544238,12,0,4282.307617,4303.589844,4314.743652,4303.974121,4288.077148,4283.461426,4276.666504,4280.512695,4266.922852,4255.512695,4458.333496,4478.461426,4376.410156,4409.358887,6674,4,80,,,,0,4,4,4,4,4,4,4,4,4,4,4,4,4,4,100,,,,,,,,,,,,,,,,,3,0,0.105239,-0.595459,0.143066,-0.783508,0.913686,-0.313026,0.216823,-9.643738,3.200499,88.521927,,,,,,,,,,,,,,,,,,,,,,,,,,,,,,,,,,,,,,,,,,,,,,,,,,,,,,,,,,,,,,,,,,,,,,,,,,,,,,,,,,,,,,,,,,,,,,,,,,,,,,,,,,
1702544238,1702544238,13,0,4278.205078,4300.641113,4301.794922,4298.077148,4282.307617,4275.384766,4274.871582,4274.358887,4261.410156,4246.794922,4462.820313,4468.846191,4369.871582,4429.487305,6935,4,80,,,,0,4,4,4,4,4,4,4,4,4,4,4,4,4,4,100,,,,,,,,,,,,,,,,,,,,,,,,,,,,,,,,,,,,,,,,,,,,,,,,,,,,,,,,,,,,,,,,,,,,,,,,,,,,,,,,,,,,,,,,,,,,,,,,,,,,,,,,,,,,,,,,,,,,,,,,,,,,,,,,,,,,,,
1702544238,1702544238,14,0,4278.333496,4283.846191,4295.641113,4296.410156,4267.692383,4283.846191,4279.743652,4277.692383,4262.94873,4239.871582,4456.794922,4458.717773,4372.436035,4433.846191,6053,4,80,,,,0,4,4,4,4,4,4,4,4,4,4,4,4,4,4,100,,,,,,,,,,,,,,,,,,,,,,,,,,,,,,,,,,,,,,,,,,,,,,,,,,,,,,,,,,,,,,,,,,,,,,,,,,,,,,,,,,,,,,,,,,,,,,,,,,,,,,,,,,,,,,,,,,,,,,,,,,,,,,,,,,,,,,
1702544238,1702544238,15,0,4280.512695,4281.282227,4300.384766,4296.410156,4263.333496,4283.846191,4279.358887,4277.05127,4264.871582,4243.077148,4451.153809,4464.358887,4374.487305,4414.102539,6309,4,80,,,,0,4,4,4,4,4,4,4,4,4,4,4,4,4,4,100,,,,,,,,,,,,,,,,,,,,,,,,,,,,,,,,,,,,,,,,,,,,,,,,,,,,,,,,,,,,,,,,,,,,,,,,,,,,,,,,,,,,,,,,,,,,,,,,,,,,,,,,,,,,,,,,,,,,,,,,,,,,,,,,,,,,,,
1702544238,1702544238,16,0,4281.153809,4303.974121,4303.717773,4294.358887,4272.820313,4277.94873,4276.025879,4272.820313,4265,4251.025879,4460.641113,4472.820313,4369.871582,4414.230957,0,4,80,,,,0,4,4,4,4,4,4,4,4,4,4,4,4,4,4,100,1,75,4,3,4,4,4,4,4,4,4,4,4,4,3,3,4,0,0.105208,-0.595581,0.14325,-0.783386,0.919546,-0.30326,0.210475,-9.712697,3.063782,88.436401,,,,,,,,,,,,,,,,,,,,,,,,,,,,,,,,,,,,,7.852851,0.687617,0.580578,0.482141,0.413147,20.774981,0.962105,0.692857,0.761144,0.489924,3.205809,0.603971,0.668128,0.503023,0.260323,4.822156,0.558442,0.811731,0.432366,0.53204,7.65037,0.329052,0.932029,0.244629,0.54707,2.946889,0.759166,0.564514,0.297594,0.353683,2.308271,0.55135,0.747843,0.292651,0.273626,2.092949,0.566695,0.52214,0.347552,0.287164,2.47488,0.60677,0.702039,0.284074,0.277175,1.800994,0.385228,0.439288,0.246019,0.538204,4.621048,0.85499,0.637723,0.930083,0.856655,5.00088,0.865368,0.812911,0.552735,0.516751,8.551207,0.356746,0.23004,0.64515,0.627878,9.451591,1.145286,0.981965,1.086108,1.218272
1702544238,1702544238,17,0,4270.641113,4296.410156,4295.384766,4285.384766,4283.333496,4276.153809,4266.153809,4265.512695,4253.461426,4238.077148,4453.974121,4455.769043,4358.717773,4418.717773,0,4,80,,,,0,4,4,4,4,4,4,4,4,4,4,4,4,4,4,100,,,,,,,,,,,,,,,,,,,,,,,,,,,,,,,,,,,,,,,,,,,,,,,,,,,,,,,,,,,,,,,,,,,,,,,,,,,,,,,,,,,,,,,,,,,,,,,,,,,,,,,,,,,,,,,,,,,,,,,,,,,,,,,,,,,,,,
1702544238,1702544238,18,0,4265.897461,4271.025879,4285.512695,4273.077148,4283.589844,4270,4260.256348,4256.153809,4239.487305,4219.102539,4431.025879,4436.282227,4349.871582,4406.666504,0,4,80,,,,0,4,4,4,4,4,4,4,4,4,4,4,4,4,4,100,,,,,,,,,,,,,,,,,,,,,,,,,,,,,,,,,,,,,,,,,,,,,,,,,,,,,,,,,,,,,,,,,,,,,,,,,,,,,,,,,,,,,,,,,,,,,,,,,,,,,,,,,,,,,,,,,,,,,,,,,,,,,,,,,,,,,,
1702544238,1702544238,19,0,4281.153809,4279.615234,4293.717773,4282.563965,4257.436035,4281.153809,4281.410156,4268.333496,4252.94873,4232.436035,4438.205078,4452.05127,4358.589844,4409.743652,0,4,80,,,,0,4,4,4,4,4,4,4,4,4,4,4,4,4,4,100,,,,,,,,,,,,,,,,,,,,,,,,,,,,,,,,,,,,,,,,,,,,,,,,,,,,,,,,,,,,,,,,,,,,,,,,,,,,,,,,,,,,,,,,,,,,,,,,,,,,,,,,,,,,,,,,,,,,,,,,,,,,,,,,,,,,,,
1702544238,1702544238,20,0,4281.025879,4286.666504,4299.615234,4301.794922,4240.128418,4290.641113,4295.128418,4282.436035,4270.128418,4248.461426,4454.743652,4465.384766,4365.897461,4416.153809,0,4,80,,,,0,4,4,4,4,4,4,4,4,4,4,4,4,4,4,100,,,,,,,,,,,,,,,,,5,0,0.105106,-0.595642,0.143738,-0.783264,0.919546,-0.327188,0.204126,-9.724761,2.974071,88.409424,,,,,,,,,,,,,,,,,,,,,,,,,,,,,,,,,,,,,,,,,,,,,,,,,,,,,,,,,,,,,,,,,,,,,,,,,,,,,,,,,,,,,,,,,,,,,,,,,,,,,,,,,,
1702544238,1702544238,21,0,4265.897461,4275.384766,4285.769043,4297.563965,4269.871582,4269.487305,4277.179688,4271.025879,4258.717773,4229.871582,4443.205078,4448.461426,4353.846191,4403.846191,0,4,80,,,,0,4,4,4,4,4,4,4,4,4,4,4,4,4,4,100,,,,,,,,,,,,,,,,,,,,,,,,,,,,,,,,,,,,,,,,,,,,,,,,,,,,,,,,,,,,,,,,,,,,,,,,,,,,,,,,,,,,,,,,,,,,,,,,,,,,,,,,,,,,,,,,,,,,,,,,,,,,,,,,,,,,,,
1702544238,1702544238,22,0,4271.538574,4283.205078,4279.487305,4287.94873,4296.410156,4260.897461,4268.205078,4261.538574,4251.025879,4221.153809,4422.05127,4437.692383,4351.794922,4405.384766,0,4,80,,,,0,4,4,4,4,4,4,4,4,4,4,4,4,4,4,100,,,,,,,,,,,,,,,,,,,,,,,,,,,,,,,,,,,,,,,,,,,,,,,,,,,,,,,,,,,,,,,,,,,,,,,,,,,,,,,,,,,,,,,,,,,,,,,,,,,,,,,,,,,,,,,,,,,,,,,,,,,,,,,,,,,,,,
1702544238,1702544238,23,0,4285.769043,4294.230957,4289.230957,4297.307617,4282.179688,4280.128418,4280,4272.179688,4262.563965,4236.538574,4424.615234,4446.922852,4367.563965,4419.487305,0,4,80,,,,0,4,4,4,4,4,4,4,4,4,4,4,4,4,4,100,,,,,,,,,,,,,,,,,,,,,,,,,,,,,,,,,,,,,,,,,,,,,,,,,,,,,,,,,,,,,,,,,,,,,,,,,,,,,,,,,,,,,,,,,,,,,,,,,,,,,,,,,,,,,,,,,,,,,,,,,,,,,,,,,,,,,,
1702544238,1702544238,24,0,4279.230957,4283.846191,4290.641113,4300.384766,4274.102539,4279.487305,4279.358887,4277.436035,4264.615234,4239.615234,4450.512695,4451.794922,4369.871582,4410.641113,0,4,80,,,,0,4,4,4,4,4,4,4,4,4,4,4,4,4,4,100,,,,,,,,,,,,,,,,,6,0,0.105643,-0.595642,0.143677,-0.783203,0.911732,-0.309608,0.216335,-9.918951,2.94333,88.535149,,,,,,,,,,,,,,,,,,,,,,,,,,,,,,,,,,,,,,,,,,,,,,,,,,,,,,,,,,,,,,,,,,,,,,,,,,,,,,,,,,,,,,,,,,,,,,,,,,,,,,,,,,
1702544238,1702544238,25,0,4265.384766,4273.333496,4279.230957,4285.256348,4281.025879,4266.922852,4268.333496,4272.179688,4253.333496,4234.871582,4452.05127,4440.769043,4357.563965,4396.410156,0,4,80,,,,0,4,4,4,4,4,4,4,4,4,4,4,4,4,4,100,,,,,,,,,,,,,,,,,,,,,,,,,,,,,,,,,,,,,,,,,,,,,,,,,,,,,,,,,,,,,,,,,,,,,,,,,,,,,,,,,,,,,,,,,,,,,,,,,,,,,,,,,,,,,,,,,,,,,,,,,,,,,,,,,,,,,,
1702544238,1702544238,26,0,4270.128418,4277.05127,4278.461426,4289.230957,4280.384766,4274.743652,4274.102539,4272.692383,4255.384766,4234.487305,4429.871582,4438.717773,4357.05127,4405.512695,0,4,80,,,,0,4,4,4,4,4,4,4,4,4,4,4,4,4,4,100,,,,,,,,,,,,,,,,,,,,,,,,,,,,,,,,,,,,,,,,,,,,,,,,,,,,,,,,,,,,,,,,,,,,,,,,,,,,,,,,,,,,,,,,,,,,,,,,,,,,,,,,,,,,,,,,,,,,,,,,,,,,,,,,,,,,,,
1702544238,1702544238,27,0,4281.922852,4282.307617,4284.615234,4299.102539,4282.436035,4280.641113,4278.974121,4270.128418,4262.820313,4230.769043,4425.512695,4445.128418,4359.102539,4408.974121,0,4,80,,,,0,4,4,4,4,4,4,4,4,4,4,4,4,4,4,100,,,,,,,,,,,,,,,,,,,,,,,,,,,,,,,,,,,,,,,,,,,,,,,,,,,,,,,,,,,,,,,,,,,,,,,,,,,,,,,,,,,,,,,,,,,,,,,,,,,,,,,,,,,,,,,,,,,,,,,,,,,,,,,,,,,,,,
1702544238,1702544238,28,0,4276.282227,4278.717773,4280.897461,4283.974121,4281.538574,4278.077148,4268.461426,4263.846191,4254.102539,4230,4425.256348,4440.128418,4351.538574,4385.256348,0,4,80,,,,0,4,4,4,4,4,4,4,4,4,4,4,4,4,4,100,,,,,,,,,,,,,,,,,7,0,0.105713,-0.595703,0.143372,-0.783203,0.911732,-0.313515,0.210963,-9.960389,2.982331,88.364967,,,,,,,,,,,,,,,,,,,,,,,,,,,,,,,,,,,,,,,,,,,,,,,,,,,,,,,,,,,,,,,,,,,,,,,,,,,,,,,,,,,,,,,,,,,,,,,,,,,,,,,,,,
1702544238,1702544238,29,0,4270.384766,4272.179688,4276.538574,4278.589844,4277.179688,4277.692383,4263.205078,4263.589844,4245.384766,4230.256348,4431.153809,4433.974121,4354.615234,4386.025879,0,4,80,,,,0,4,4,4,4,4,4,4,4,4,4,4,4,4,4,100,,,,,,,,,,,,,,,,,,,,,,,,,,,,,,,,,,,,,,,,,,,,,,,,,,,,,,,,,,,,,,,,,,,,,,,,,,,,,,,,,,,,,,,,,,,,,,,,,,,,,,,,,,,,,,,,,,,,,,,,,,,,,,,,,,,,,,
1702544238,1702544238,30,0,4284.743652,4286.025879,4285.384766,4295.641113,4279.102539,4278.205078,4273.846191,4269.102539,4255.512695,4227.05127,4442.94873,4440.769043,4370,4422.179688,0,4,80,,,,0,4,4,4,4,4,4,4,4,4,4,4,4,4,4,100,,,,,,,,,,,,,,,,,,,,,,,,,,,,,,,,,,,,,,,,,,,,,,,,,,,,,,,,,,,,,,,,,,,,,,,,,,,,,,,,,,,,,,,,,,,,,,,,,,,,,,,,,,,,,,,,,,,,,,,,,,,,,,,,,,,,,,
1702544238,1702544238,31,0,4290.128418,4297.05127,4292.94873,4301.410156,4280.128418,4278.333496,4281.025879,4275.128418,4265.641113,4232.436035,4427.05127,4448.974121,4365.256348,4425.512695,0,4,80,,,,0,4,4,4,4,4,4,4,4,4,4,4,4,4,4,100,,,,,,,,,,,,,,,,,,,,,,,,,,,,,,,,,,,,,,,,,,,,,,,,,,,,,,,,,,,,,,,,,,,,,,,,,,,,,,,,,,,,,,,,,,,,,,,,,,,,,,,,,,,,,,,,,,,,,,,,,,,,,,,,,,,,,,
1702544238,1702544238,32,0,4292.179688,4284.487305,4297.563965,4292.94873,4281.410156,4279.871582,4280.384766,4278.974121,4263.077148,4251.666504,4430.769043,4455.256348,4364.615234,4408.205078,0,4,80,,,,0,4,4,4,4,4,4,4,4,4,4,4,4,4,4,100,,,,,,,,,,,,,,,,,8,0,0.105189,-0.595825,0.14325,-0.783203,0.89464,-0.325723,0.213893,-9.981017,3.050764,88.445137,,,,,,,,,,,,,,,,,,,,,,,,,,,,,,,,,,,,,5.290443,0.621146,0.598245,0.431255,0.437903,11.271837,0.802586,0.634732,0.747933,0.559574,3.065121,0.594479,0.677802,0.464305,0.242357,3.842372,0.569417,0.707594,0.43486,0.494394,8.86529,0.322897,0.957666,0.269097,0.587625,3.556977,0.821978,0.507521,0.287979,0.379705,2.648756,0.608364,0.690231,0.248133,0.274453,2.327148,0.576688,0.50343,0.306915,0.285039,2.749244,0.614791,0.703814,0.268341,0.297512,1.994615,0.363342,0.479827,0.267914,0.527297,4.171727,1.003482,0.662055,0.785332,0.922111,5.045349,0.978365,0.83622,0.480405,0.55904,4.742895,0.240553,0.270365,0.649977,0.639126,6.031429,0.832633,0.817482,0.924733,1.244464
1702544238,1702544238,33,0,4307.307617,4287.692383,4307.307617,4294.358887,4283.974121,4283.077148,4285,4283.205078,4264.102539,4255.769043,4465.256348,4466.666504,4390.512695,4426.666504,0,4,80,,,,0,4,4,4,4,4,4,4,4,4,4,4,4,4,4,100,,,,,,,,,,,,,,,,,,,,,,,,,,,,,,,,,,,,,,,,,,,,,,,,,,,,,,,,,,,,,,,,,,,,,,,,,,,,,,,,,,,,,,,,,,,,,,,,,,,,,,,,,,,,,,,,,,,,,,,,,,,,,,,,,,,,,,
1702544238,1702544238,34,0,4300.512695,4298.974121,4299.615234,4302.692383,4277.307617,4277.05127,4280.256348,4277.563965,4262.307617,4230.897461,4449.743652,4461.153809,4390,4441.410156,0,4,80,,,,0,4,4,4,4,4,4,4,4,4,4,4,4,4,4,100,,,,,,,,,,,,,,,,,,,,,,,,,,,,,,,,,,,,,,,,,,,,,,,,,,,,,,,,,,,,,,,,,,,,,,,,,,,,,,,,,,,,,,,,,,,,,,,,,,,,,,,,,,,,,,,,,,,,,,,,,,,,,,,,,,,,,,
1702544238,1702544238,35,0,4279.487305,4283.461426,4285.256348,4302.94873,4269.102539,4271.538574,4268.717773,4269.230957,4253.717773,4216.538574,4423.205078,4447.05127,4370.128418,4424.230957,0,4,80,,,,0,4,4,4,4,4,4,4,4,4,4,4,4,4,4,100,,,,,,,,,,,,,,,,,,,,,,,,,,,,,,,,,,,,,,,,,,,,,,,,,,,,,,,,,,,,,,,,,,,,,,,,,,,,,,,,,,,,,,,,,,,,,,,,,,,,,,,,,,,,,,,,,,,,,,,,,,,,,,,,,,,,,,
1702544238,1702544238,36,0,4275.256348,4262.179688,4286.922852,4288.461426,4266.410156,4270.512695,4265,4268.974121,4249.615234,4228.846191,4428.205078,4441.922852,4366.794922,4408.589844,0,4,80,,,,0,4,4,4,4,4,4,4,4,4,4,4,4,4,4,100,,,,,,,,,,,,,,,,,9,0,0.105426,-0.595703,0.14325,-0.783264,0.910756,-0.317422,0.202661,-10.199582,3.029021,88.517288,,,,,,,,,,,,,,,,,,,,,,,,,,,,,,,,,,,,,,,,,,,,,,,,,,,,,,,,,,,,,,,,,,,,,,,,,,,,,,,,,,,,,,,,,,,,,,,,,,,,,,,,,,
1702544238,1702544238,37,0,4276.794922,4257.94873,4288.205078,4269.102539,4263.077148,4265.384766,4263.333496,4266.538574,4246.794922,4230.256348,4412.563965,4435.128418,4359.615234,4401.922852,0,4,80,,,,0,4,4,4,4,4,4,4,4,4,4,4,4,4,4,100,,,,,,,,,,,,,,,,,,,,,,,,,,,,,,,,,,,,,,,,,,,,,,,,,,,,,,,,,,,,,,,,,,,,,,,,,,,,,,,,,,,,,,,,,,,,,,,,,,,,,,,,,,,,,,,,,,,,,,,,,,,,,,,,,,,,,,
1702544238,1702544238,38,0,4277.307617,4261.410156,4286.538574,4268.077148,4263.333496,4261.922852,4265.769043,4262.307617,4245.256348,4217.05127,4405.384766,4436.410156,4357.94873,4399.487305,0,4,80,,,,0,4,4,4,4,4,4,4,4,4,4,4,4,4,4,100,,,,,,,,,,,,,,,,,,,,,,,,,,,,,,,,,,,,,,,,,,,,,,,,,,,,,,,,,,,,,,,,,,,,,,,,,,,,,,,,,,,,,,,,,,,,,,,,,,,,,,,,,,,,,,,,,,,,,,,,,,,,,,,,,,,,,,
1702544238,1702544238,39,0,4281.922852,4265.769043,4292.436035,4277.94873,4262.179688,4266.410156,4270.256348,4264.743652,4248.205078,4222.94873,4427.563965,4442.563965,4370.512695,4403.461426,0,4,80,,,,0,4,4,4,4,4,4,4,4,4,4,4,4,4,4,100,,,,,,,,,,,,,,,,,,,,,,,,,,,,,,,,,,,,,,,,,,,,,,,,,,,,,,,,,,,,,,,,,,,,,,,,,,,,,,,,,,,,,,,,,,,,,,,,,,,,,,,,,,,,,,,,,,,,,,,,,,,,,,,,,,,,,,
1702544238,1702544238,40,0,4280.512695,4265.256348,4293.974121,4283.589844,4255.384766,4267.307617,4268.333496,4265.512695,4248.846191,4232.05127,4424.743652,4441.153809,4367.563965,4403.077148,0,4,80,,,,0,4,4,4,4,4,4,4,4,4,4,4,4,4,4,100,,,,,,,,,,,,,,,,,10,0,0.105048,-0.595886,0.143433,-0.783142,0.906361,-0.333048,0.202173,-10.29629,2.909452,88.598892,,,,,,,,,,,,,,,,,,,,,,,,,,,,,,,,,,,,,,,,,,,,,,,,,,,,,,,,,,,,,,,,,,,,,,,,,,,,,,,,,,,,,,,,,,,,,,,,,,,,,,,,,,
1702544238,1702544238,41,0,4277.563965,4259.230957,4287.94873,4281.794922,4257.94873,4260.769043,4263.333496,4262.179688,4246.153809,4219.487305,4413.974121,4438.717773,4360.512695,4400.769043,0,4,80,,,,0,4,4,4,4,4,4,4,4,4,4,4,4,4,4,100,,,,,,,,,,,,,,,,,,,,,,,,,,,,,,,,,,,,,,,,,,,,,,,,,,,,,,,,,,,,,,,,,,,,,,,,,,,,,,,,,,,,,,,,,,,,,,,,,,,,,,,,,,,,,,,,,,,,,,,,,,,,,,,,,,,,,,
1702544238,1702544238,42,0,4281.666504,4264.230957,4285,4278.589844,4265.128418,4263.077148,4265.256348,4265.256348,4249.615234,4216.410156,4414.230957,4436.410156,4369.871582,4413.717773,0,4,80,,,,0,4,4,4,4,4,4,4,4,4,4,4,4,4,4,100,,,,,,,,,,,,,,,,,,,,,,,,,,,,,,,,,,,,,,,,,,,,,,,,,,,,,,,,,,,,,,,,,,,,,,,,,,,,,,,,,,,,,,,,,,,,,,,,,,,,,,,,,,,,,,,,,,,,,,,,,,,,,,,,,,,,,,
1702544238,1702544238,43,0,4282.179688,4265.512695,4281.282227,4283.461426,4255.641113,4263.461426,4265.512695,4264.358887,4249.743652,4231.538574,4410.384766,4432.05127,4363.846191,4421.282227,0,4,80,,,,0,4,4,4,4,4,4,4,4,4,4,4,4,4,4,100,,,,,,,,,,,,,,,,,,,,,,,,,,,,,,,,,,,,,,,,,,,,,,,,,,,,,,,,,,,,,,,,,,,,,,,,,,,,,,,,,,,,,,,,,,,,,,,,,,,,,,,,,,,,,,,,,,,,,,,,,,,,,,,,,,,,,,
1702544238,1702544238,44,0,4277.692383,4250,4279.871582,4275.512695,4239.871582,4252.307617,4258.461426,4253.846191,4238.974121,4228.461426,4408.974121,4428.589844,4350.384766,4393.717773,0,4,80,,,,0,4,4,4,4,4,4,4,4,4,4,4,4,4,4,100,,,,,,,,,,,,,,,,,11,0,0.104404,-0.595947,0.143982,-0.783081,0.921988,-0.311561,0.215358,-10.249995,2.751841,88.589005,,,,,,,,,,,,,,,,,,,,,,,,,,,,,,,,,,,,,,,,,,,,,,,,,,,,,,,,,,,,,,,,,,,,,,,,,,,,,,,,,,,,,,,,,,,,,,,,,,,,,,,,,,
1702544238,1702544238,45,0,4278.589844,4244.358887,4281.025879,4266.794922,4241.025879,4253.333496,4259.487305,4247.05127,4232.820313,4215,4403.717773,4426.410156,4363.461426,4376.922852,0,4,80,,,,0,4,4,4,4,4,4,4,4,4,4,4,4,4,4,100,,,,,,,,,,,,,,,,,,,,,,,,,,,,,,,,,,,,,,,,,,,,,,,,,,,,,,,,,,,,,,,,,,,,,,,,,,,,,,,,,,,,,,,,,,,,,,,,,,,,,,,,,,,,,,,,,,,,,,,,,,,,,,,,,,,,,,
1702544238,1702544238,46,0,4277.820313,4252.563965,4278.717773,4278.461426,4248.205078,4262.436035,4263.589844,4247.820313,4234.743652,4219.358887,4395.128418,4426.153809,4376.666504,4405,0,4,80,,,,0,4,4,4,4,4,4,4,4,4,4,4,4,4,4,100,,,,,,,,,,,,,,,,,,,,,,,,,,,,,,,,,,,,,,,,,,,,,,,,,,,,,,,,,,,,,,,,,,,,,,,,,,,,,,,,,,,,,,,,,,,,,,,,,,,,,,,,,,,,,,,,,,,,,,,,,,,,,,,,,,,,,,
1702544238,1702544238,47,0,4269.102539,4250.384766,4272.692383,4276.153809,4243.974121,4253.974121,4255.769043,4247.307617,4234.102539,4218.077148,4396.666504,4425.641113,4367.179688,4414.230957,0,4,80,,,,0,4,4,4,4,4,4,4,4,4,4,4,4,4,4,100,,,,,,,,,,,,,,,,,,,,,,,,,,,,,,,,,,,,,,,,,,,,,,,,,,,,,,,,,,,,,,,,,,,,,,,,,,,,,,,,,,,,,,,,,,,,,,,,,,,,,,,,,,,,,,,,,,,,,,,,,,,,,,,,,,,,,,
1702544238,1702544238,48,0,4264.358887,4242.563965,4261.410156,4254.487305,4229.615234,4234.358887,4240.641113,4241.922852,4228.846191,4202.692383,4396.666504,4412.179688,4355,4384.230957,0,4,80,,,,0,4,4,4,4,4,4,4,4,4,4,4,4,4,4,100,,,,,,,,,,,,,,,,,12,0,0.104415,-0.595886,0.144226,-0.783081,0.912709,-0.314492,0.2178,-10.174995,2.693323,88.380104,,,,,,,,,,,,,,,,,,,,,,,,,,,,,,,,,,,,,4.908801,0.686727,0.592503,0.377492,0.46681,9.358588,0.911651,0.55834,0.698844,0.628481,3.231765,0.63501,0.651478,0.419355,0.219326,4.165324,0.687819,0.583902,0.461334,0.462639,10.250744,0.347815,0.904384,0.329684,0.649557,4.177731,0.815524,0.409341,0.272792,0.388279,2.932789,0.666803,0.613578,0.219049,0.268435,2.469388,0.604,0.483417,0.28045,0.26985,2.893934,0.63774,0.672567,0.268613,0.316721,2.054493,0.371798,0.509204,0.30805,0.49072,4.262533,1.256626,0.668981,0.672957,0.940244,5.511787,1.167162,0.839781,0.415503,0.596758,3.842074,0.374573,0.3229,0.656572,0.673999,5.543441,0.842033,0.653579,0.749055,1.282711
1702544238,1702544238,49,0,4272.563965,4245.384766,4263.205078,4263.717773,4232.820313,4241.282227,4247.179688,4241.922852,4228.077148,4206.794922,4403.205078,4410.769043,4358.846191,4379.871582,0,4,80,,,,0,4,4,4,4,4,4,4,4,4,4,4,4,4,4,100,,,,,,,,,,,,,,,,,,,,,,,,,,,,,,,,,,,,,,,,,,,,,,,,,,,,,,,,,,,,,,,,,,,,,,,,,,,,,,,,,,,,,,,,,,,,,,,,,,,,,,,,,,,,,,,,,,,,,,,,,,,,,,,,,,,,,,
1702544238,1702544238,50,0,4284.615234,4253.846191,4279.743652,4287.563965,4253.974121,4260.769043,4263.077148,4247.563965,4233.461426,4226.666504,4413.077148,4430.897461,4367.307617,4401.922852,0,4,80,,,,0,4,4,4,4,4,4,4,4,4,4,4,4,4,4,100,,,,,,,,,,,,,,,,,,,,,,,,,,,,,,,,,,,,,,,,,,,,,,,,,,,,,,,,,,,,,,,,,,,,,,,,,,,,,,,,,,,,,,,,,,,,,,,,,,,,,,,,,,,,,,,,,,,,,,,,,,,,,,,,,,,,,,
1702544238,1702544238,51,0,4278.077148,4247.05127,4276.794922,4273.205078,4247.307617,4253.461426,4254.615234,4246.666504,4232.563965,4224.871582,4405.256348,4426.410156,4363.205078,4401.538574,0,4,80,,,,0,4,4,4,4,4,4,4,4,4,4,4,4,4,4,100,,,,,,,,,,,,,,,,,,,,,,,,,,,,,,,,,,,,,,,,,,,,,,,,,,,,,,,,,,,,,,,,,,,,,,,,,,,,,,,,,,,,,,,,,,,,,,,,,,,,,,,,,,,,,,,,,,,,,,,,,,,,,,,,,,,,,,
1702544238,1702544238,52,0,4264.102539,4238.333496,4263.846191,4254.487305,4231.025879,4239.487305,4241.794922,4242.436035,4228.974121,4212.820313,4395.641113,4407.820313,4362.307617,4389.102539,0,4,80,,,,0,4,4,4,4,4,4,4,4,4,4,4,4,4,4,100,,,,,,,,,,,,,,,,,13,0,0.10432,-0.595398,0.144653,-0.783386,0.916616,-0.30619,0.216335,-10.090829,2.740658,88.575432,,,,,,,,,,,,,,,,,,,,,,,,,,,,,,,,,,,,,,,,,,,,,,,,,,,,,,,,,,,,,,,,,,,,,,,,,,,,,,,,,,,,,,,,,,,,,,,,,,,,,,,,,,
1702544238,1702544238,53,0,4271.794922,4252.179688,4272.307617,4273.077148,4247.436035,4244.230957,4250.128418,4248.974121,4235.256348,4218.717773,4401.025879,4416.666504,4364.615234,4396.666504,0,4,80,,,,0,4,4,4,4,4,4,4,4,4,4,4,4,4,4,100,,,,,,,,,,,,,,,,,,,,,,,,,,,,,,,,,,,,,,,,,,,,,,,,,,,,,,,,,,,,,,,,,,,,,,,,,,,,,,,,,,,,,,,,,,,,,,,,,,,,,,,,,,,,,,,,,,,,,,,,,,,,,,,,,,,,,,
1702544238,1702544238,54,0,4284.358887,4263.077148,4281.794922,4281.666504,4254.743652,4252.820313,4260.256348,4256.153809,4243.333496,4229.358887,4405.256348,4430.128418,4359.358887,4412.05127,0,4,80,,,,0,4,4,4,4,4,4,4,4,4,4,4,4,4,4,100,,,,,,,,,,,,,,,,,,,,,,,,,,,,,,,,,,,,,,,,,,,,,,,,,,,,,,,,,,,,,,,,,,,,,,,,,,,,,,,,,,,,,,,,,,,,,,,,,,,,,,,,,,,,,,,,,,,,,,,,,,,,,,,,,,,,,,
1702544238,1702544238,55,0,4283.077148,4259.871582,4276.153809,4264.743652,4239.102539,4252.692383,4257.820313,4252.179688,4242.05127,4230.641113,4409.230957,4426.153809,4366.538574,4411.025879,0,4,80,,,,0,4,4,4,4,4,4,4,4,4,4,4,4,4,4,100,,,,,,,,,,,,,,,,,,,,,,,,,,,,,,,,,,,,,,,,,,,,,,,,,,,,,,,,,,,,,,,,,,,,,,,,,,,,,,,,,,,,,,,,,,,,,,,,,,,,,,,,,,,,,,,,,,,,,,,,,,,,,,,,,,,,,,
1702544238,1702544238,56,0,4283.846191,4265.897461,4280.897461,4274.871582,4256.025879,4260.641113,4259.358887,4251.538574,4239.871582,4229.230957,4420.128418,4429.487305,4377.436035,4399.871582,0,4,80,,,,0,4,4,4,4,4,4,4,4,4,4,4,4,4,4,100,,,,,,,,,,,,,,,,,14,0,0.10393,-0.595276,0.144775,-0.783508,0.915151,-0.322793,0.215358,-10.098413,2.783258,88.551216,,,,,,,,,,,,,,,,,,,,,,,,,,,,,,,,,,,,,,,,,,,,,,,,,,,,,,,,,,,,,,,,,,,,,,,,,,,,,,,,,,,,,,,,,,,,,,,,,,,,,,,,,,
1702544238,1702544238,57,0,4296.025879,4284.487305,4295.128418,4304.102539,4286.666504,4272.179688,4265.769043,4261.410156,4252.563965,4238.717773,4432.05127,4441.282227,4380.897461,4413.077148,0,4,80,,,,0,4,4,4,4,4,4,4,4,4,4,4,4,4,4,100,,,,,,,,,,,,,,,,,,,,,,,,,,,,,,,,,,,,,,,,,,,,,,,,,,,,,,,,,,,,,,,,,,,,,,,,,,,,,,,,,,,,,,,,,,,,,,,,,,,,,,,,,,,,,,,,,,,,,,,,,,,,,,,,,,,,,,
1702544238,1702544238,58,0,4302.820313,4293.077148,4296.025879,4298.589844,4280.512695,4273.205078,4266.025879,4267.820313,4263.846191,4248.846191,4439.230957,4448.589844,4381.794922,4433.846191,0,4,80,,,,0,4,4,4,4,4,4,4,4,4,4,4,4,4,4,100,,,,,,,,,,,,,,,,,,,,,,,,,,,,,,,,,,,,,,,,,,,,,,,,,,,,,,,,,,,,,,,,,,,,,,,,,,,,,,,,,,,,,,,,,,,,,,,,,,,,,,,,,,,,,,,,,,,,,,,,,,,,,,,,,,,,,,
1702544238,1702544238,59,0,4307.05127,4295.897461,4297.94873,4289.487305,4274.230957,4277.307617,4270.512695,4269.487305,4265,4251.153809,4439.487305,4457.05127,4383.077148,4428.846191,0,4,80,,,,0,4,4,4,4,4,4,4,4,4,4,4,4,4,4,100,,,,,,,,,,,,,,,,,,,,,,,,,,,,,,,,,,,,,,,,,,,,,,,,,,,,,,,,,,,,,,,,,,,,,,,,,,,,,,,,,,,,,,,,,,,,,,,,,,,,,,,,,,,,,,,,,,,,,,,,,,,,,,,,,,,,,,
1702544238,1702544238,60,0,4313.205078,4305.641113,4309.487305,4304.102539,4287.05127,4281.538574,4277.94873,4276.410156,4271.410156,4259.871582,4447.692383,4463.205078,4389.487305,4429.102539,0,4,80,,,,0,4,4,4,4,4,4,4,4,4,4,4,4,4,4,100,,,,,,,,,,,,,,,,,15,0,0.104322,-0.595032,0.144836,-0.78363,0.916127,-0.315468,0.221218,-10.038571,2.721599,88.5961,,,,,,,,,,,,,,,,,,,,,,,,,,,,,,,,,,,,,,,,,,,,,,,,,,,,,,,,,,,,,,,,,,,,,,,,,,,,,,,,,,,,,,,,,,,,,,,,,,,,,,,,,,
1702544238,1702544238,61,0,4310.769043,4306.282227,4312.436035,4301.025879,4282.563965,4280.897461,4278.077148,4280.897461,4279.871582,4270.769043,4460.769043,4466.410156,4392.436035,4446.153809,0,4,80,,,,0,4,4,4,4,4,4,4,4,4,4,4,4,4,4,100,,,,,,,,,,,,,,,,,,,,,,,,,,,,,,,,,,,,,,,,,,,,,,,,,,,,,,,,,,,,,,,,,,,,,,,,,,,,,,,,,,,,,,,,,,,,,,,,,,,,,,,,,,,,,,,,,,,,,,,,,,,,,,,,,,,,,,
1702544238,1702544238,62,0,4311.922852,4304.487305,4311.538574,4285.641113,4277.307617,4280.897461,4272.563965,4277.820313,4280.256348,4269.487305,4457.563965,4474.615234,4388.205078,4445,0,4,80,,,,0,4,4,4,4,4,4,4,4,4,4,4,4,4,4,100,,,,,,,,,,,,,,,,,,,,,,,,,,,,,,,,,,,,,,,,,,,,,,,,,,,,,,,,,,,,,,,,,,,,,,,,,,,,,,,,,,,,,,,,,,,,,,,,,,,,,,,,,,,,,,,,,,,,,,,,,,,,,,,,,,,,,,
1702544238,1702544238,63,0,4326.153809,4320,4313.717773,4290.641113,4288.846191,4284.230957,4277.563965,4282.436035,4278.333496,4266.153809,4464.743652,4480,4392.05127,4441.153809,0,4,80,,,,0,4,4,4,4,4,4,4,4,4,4,4,4,4,4,100,,,,,,,,,,,,,,,,,,,,,,,,,,,,,,,,,,,,,,,,,,,,,,,,,,,,,,,,,,,,,,,,,,,,,,,,,,,,,,,,,,,,,,,,,,,,,,,,,,,,,,,,,,,,,,,,,,,,,,,,,,,,,,,,,,,,,,
1702544238,1702544238,64,0,4330.769043,4333.333496,4312.307617,4300,4287.692383,4282.563965,4280.897461,4289.230957,4280.512695,4269.358887,4479.102539,4477.179688,4401.153809,4451.025879,5404,4,80,,,,0,4,4,4,4,4,4,4,4,4,4,4,4,4,4,100,,,,,,,,,,,,,,,,,16,0,0.104237,-0.595032,0.144897,-0.78363,0.919546,-0.322305,0.210475,-10.051381,2.682773,88.686485,,,,,,,,,,,,,,,,,,,,,,,,,,,,,,,,,,,,,5.213305,0.849077,0.561896,0.321862,0.497907,10.305541,1.085476,0.485134,0.629508,0.681952,3.417778,0.739568,0.592512,0.373564,0.197527,4.928621,0.873453,0.476257,0.49552,0.441464,11.58358,0.396002,0.780758,0.430495,0.725135,4.726691,0.7514,0.298467,0.251994,0.378638,3.105067,0.705173,0.531949,0.206505,0.261005,2.543818,0.644556,0.465831,0.278833,0.247714,2.943517,0.662355,0.613439,0.289775,0.338716,2.016614,0.394178,0.517963,0.36523,0.446722,4.561807,1.559665,0.665683,0.597792,0.922091,5.990892,1.429471,0.813587,0.36847,0.624971,3.981939,0.634277,0.376654,0.64952,0.72514,5.870488,1.054269,0.534178,0.594047,1.330259
1702544238,1702544238,65,0,4317.692383,4319.230957,4309.230957,4293.846191,4281.410156,4278.333496,4271.282227,4283.589844,4278.461426,4264.358887,4452.307617,4473.717773,4388.589844,4441.282227,5571,4,80,,,,0,4,4,4,4,4,4,4,4,4,4,4,4,4,4,100,,,,,,,,,,,,,,,,,,,,,,,,,,,,,,,,,,,,,,,,,,,,,,,,,,,,,,,,,,,,,,,,,,,,,,,,,,,,,,,,,,,,,,,,,,,,,,,,,,,,,,,,,,,,,,,,,,,,,,,,,,,,,,,,,,,,,,
1702544238,1702544238,66,0,4316.282227,4307.05127,4312.179688,4287.94873,4293.589844,4282.94873,4268.974121,4276.410156,4276.410156,4263.589844,4429.487305,4475.897461,4381.282227,4430.384766,5524,4,80,,,,0,4,4,4,4,4,4,4,4,4,4,4,4,4,4,100,,,,,,,,,,,,,,,,,,,,,,,,,,,,,,,,,,,,,,,,,,,,,,,,,,,,,,,,,,,,,,,,,,,,,,,,,,,,,,,,,,,,,,,,,,,,,,,,,,,,,,,,,,,,,,,,,,,,,,,,,,,,,,,,,,,,,,
1702544238,1702544238,67,0,4326.025879,4315,4311.153809,4298.205078,4299.871582,4287.179688,4273.589844,4282.179688,4279.871582,4267.436035,4462.94873,4477.692383,4397.05127,4450,5452,4,80,,,,0,4,4,4,4,4,4,4,4,4,4,4,4,4,4,100,,,,,,,,,,,,,,,,,,,,,,,,,,,,,,,,,,,,,,,,,,,,,,,,,,,,,,,,,,,,,,,,,,,,,,,,,,,,,,,,,,,,,,,,,,,,,,,,,,,,,,,,,,,,,,,,,,,,,,,,,,,,,,,,,,,,,,
1702544238,1702544238,68,0,4315.256348,4311.666504,4301.153809,4297.94873,4284.487305,4278.846191,4266.538574,4279.230957,4275.512695,4256.410156,4479.358887,4466.794922,4390.897461,4449.358887,5419,4,80,,,,0,4,4,4,4,4,4,4,4,4,4,4,4,4,4,100,,,,,,,,,,,,,,,,,17,0,0.103914,-0.595154,0.144958,-0.783569,0.905872,-0.318887,0.210475,-9.996243,2.681162,88.634506,,,,,,,,,,,,,,,,,,,,,,,,,,,,,,,,,,,,,,,,,,,,,,,,,,,,,,,,,,,,,,,,,,,,,,,,,,,,,,,,,,,,,,,,,,,,,,,,,,,,,,,,,,
1702544238,1702544238,69,0,4299.102539,4303.333496,4295.769043,4278.205078,4275.384766,4269.615234,4257.94873,4265,4265.128418,4250.128418,4452.05127,4453.974121,4375.384766,4413.589844,5332,4,80,,,,0,4,4,4,4,4,4,4,4,4,4,4,4,4,4,100,,,,,,,,,,,,,,,,,,,,,,,,,,,,,,,,,,,,,,,,,,,,,,,,,,,,,,,,,,,,,,,,,,,,,,,,,,,,,,,,,,,,,,,,,,,,,,,,,,,,,,,,,,,,,,,,,,,,,,,,,,,,,,,,,,,,,,
1702544238,1702544238,70,0,4305,4310.256348,4302.563965,4277.692383,4279.743652,4273.974121,4264.615234,4267.307617,4265.256348,4261.025879,4439.487305,4460,4382.820313,4410.256348,5262,4,80,,,,0,4,4,4,4,4,4,4,4,4,4,4,4,4,4,100,,,,,,,,,,,,,,,,,,,,,,,,,,,,,,,,,,,,,,,,,,,,,,,,,,,,,,,,,,,,,,,,,,,,,,,,,,,,,,,,,,,,,,,,,,,,,,,,,,,,,,,,,,,,,,,,,,,,,,,,,,,,,,,,,,,,,,
1702544238,1702544238,71,0,4313.461426,4310.897461,4308.077148,4295.256348,4281.025879,4280.128418,4267.563965,4277.820313,4270.641113,4264.615234,4445.128418,4465.897461,4388.461426,4436.282227,5061,4,80,,,,0,4,4,4,4,4,4,4,4,4,4,4,4,4,4,100,,,,,,,,,,,,,,,,,,,,,,,,,,,,,,,,,,,,,,,,,,,,,,,,,,,,,,,,,,,,,,,,,,,,,,,,,,,,,,,,,,,,,,,,,,,,,,,,,,,,,,,,,,,,,,,,,,,,,,,,,,,,,,,,,,,,,,
