Timestamp,OriginalTimestamp,EEG.Counter,EEG.Interpolated,EEG.AF3,EEG.F7,EEG.F3,EEG.FC5,EEG.T7,EEG.P7,EEG.O1,EEG.O2,EEG.P8,EEG.T8,EEG.FC6,EEG.F4,EEG.F8,EEG.AF4,EEG.RawCq,EEG.Battery,EEG.BatteryPercent,MarkerIndex,MarkerType,MarkerValueInt,EEG.MarkerHardware,CQ.AF3,CQ.F7,CQ.F3,CQ.FC5,CQ.T7,CQ.P7,CQ.O1,CQ.O2,CQ.P8,CQ.T8,CQ.FC6,CQ.F4,CQ.F8,CQ.AF4,CQ.Overall,EQ.SampleRateQuality,EQ.OVERALL,EQ.AF3,EQ.F7,EQ.F3,EQ.FC5,EQ.T7,EQ.P7,EQ.O1,EQ.O2,EQ.P8,EQ.T8,EQ.FC6,EQ.F4,EQ.F8,EQ.AF4,MOT.CounterMems,MOT.InterpolatedMems,MOT.Q0,MOT.Q1,MOT.Q2,MOT.Q3,MOT.AccX,MOT.AccY,MOT.AccZ,MOT.MagX,MOT.MagY,MOT.MagZ,PM.Attention.IsActive,PM.Attention.Scaled,PM.Attention.Raw,PM.Attention.Min,PM.Attention.Max,PM.Engagement.IsActive,PM.Engagement.Scaled,PM.Engagement.Raw,PM.Engagement.Min,PM.Engagement.Max,PM.Excitement.IsActive,PM.Excitement.Scaled,PM.Excitement.Raw,PM.Excitement.Min,PM.Excitement.Max,PM.LongTermExcitement,PM.Stress.IsActive,PM.Stress.Scaled,PM.Stress.Raw,PM.Stress.Min,PM.Stress.Max,PM.Relaxation.IsActive,PM.Relaxation.Scaled,PM.Relaxation.Raw,PM.Relaxation.Min,PM.Relaxation.Max,PM.Interest.IsActive,PM.Interest.Scaled,PM.Interest.Raw,PM.Interest.Min,PM.Interest.Max,PM.Focus.IsActive,PM.Focus.Scaled,PM.Focus.Raw,PM.Focus.Min,PM.Focus.Max,POW.AF3.Theta,POW.AF3.Alpha,POW.AF3.BetaL,POW.AF3.BetaH,POW.AF3.Gamma,POW.F7.Theta,POW.F7.Alpha,POW.F7.BetaL,POW.F7.BetaH,POW.F7.Gamma,POW.F3.Theta,POW.F3.Alpha,POW.F3.BetaL,POW.F3.BetaH,POW.F3.Gamma,POW.FC5.Theta,POW.FC5.Alpha,POW.FC5.BetaL,POW.FC5.BetaH,POW.FC5.Gamma,POW.T7.Theta,POW.T7.Alpha,POW.T7.BetaL,POW.T7.BetaH,POW.T7.Gamma,POW.P7.Theta,POW.P7.Alpha,POW.P7.BetaL,POW.P7.BetaH,POW.P7.Gamma,POW.O1.Theta,POW.O1.Alpha,POW.O1.BetaL,POW.O1.BetaH,POW.O1.Gamma,POW.O2.Theta,POW.O2.Alpha,POW.O2.BetaL,POW.O2.BetaH,POW.O2.Gamma,POW.P8.Theta,POW.P8.Alpha,POW.P8.BetaL,POW.P8.BetaH,POW.P8.Gamma,POW.T8.Theta,POW.T8.Alpha,POW.T8.BetaL,POW.T8.BetaH,POW.T8.Gamma,POW.FC6.Theta,POW.FC6.Alpha,POW.FC6.BetaL,POW.FC6.BetaH,POW.FC6.Gamma,POW.F4.Theta,POW.F4.Alpha,POW.F4.BetaL,POW.F4.BetaH,POW.F4.Gamma,POW.F8.Theta,POW.F8.Alpha,POW.F8.BetaL,POW.F8.BetaH,POW.F8.Gamma,POW.AF4.Theta,POW.AF4.Alpha,POW.AF4.BetaL,POW.AF4.BetaH,POW.AF4.Gamma
,,,,,,,,,,,,,,,,,,,,,,,,,,,,,,,,,,,,,,,,,,,,,,,,,,,,,,,,,,,,,,,,,,,,,,,,,,,,,,,,,,,,,,,,,,,,,,,,,,,,,,,,,,,,,,,,,,,,,,,,,,,,,,,,,,,,,,,,,,,,,,,,,,,,,,,,,,,,,,,,,,,,,,,,,,,,,
1702544515,1702544515,7,0,4376.410156,4357.307617,4367.179688,4324.358887,4308.717773,4328.846191,4276.922852,4260.769043,4280.641113,4280,4472.692383,4480.512695,4425.256348,4514.615234,5090,4,79,,,,0,4,4,4,4,4,4,4,4,4,4,4,4,4,4,100,,,,,,,,,,,,,,,,,,,,,,,,,,,,,,,,,,,,,,,,,,,,,,,,,,,,,,,,,,,,,,,,,,,,,,,,,,,,,,,,,,,,,,,,,,,,,,,,,,,,,,,,,,,,,,,,,,,,,,,,,,,,,,,,,,,,,,
1702544515,1702544515,8,0,4371.666504,4328.717773,4367.563965,4309.487305,4314.743652,4315.128418,4274.487305,4265.128418,4281.538574,4270.641113,4461.794922,4481.025879,4411.153809,4490.769043,5359,4,79,,,,0,4,4,4,4,4,4,4,4,4,4,4,4,4,4,100,,,,,,,,,,,,,,,,,2,0,0.525145,0.324768,-0.646057,0.44873,0.965938,-0.221218,-0.087413,-17.642656,6.80023,82.311249,,,,,,,,,,,,,,,,,,,,,,,,,,,,,,,,,,,,,,,,,,,,,,,,,,,,,,,,,,,,,,,,,,,,,,,,,,,,,,,,,,,,,,,,,,,,,,,,,,,,,,,,,,
1702544515,1702544515,9,0,4380.128418,4328.589844,4375.512695,4316.025879,4299.487305,4322.94873,4284.230957,4281.922852,4298.461426,4299.358887,4484.743652,4493.205078,4433.717773,4506.922852,5354,4,79,,,,0,4,4,4,4,4,4,4,4,4,4,4,4,4,4,100,,,,,,,,,,,,,,,,,,,,,,,,,,,,,,,,,,,,,,,,,,,,,,,,,,,,,,,,,,,,,,,,,,,,,,,,,,,,,,,,,,,,,,,,,,,,,,,,,,,,,,,,,,,,,,,,,,,,,,,,,,,,,,,,,,,,,,
1702544515,1702544515,10,0,4371.410156,4330.897461,4371.538574,4320.641113,4285.897461,4327.94873,4292.05127,4286.538574,4304.871582,4316.922852,4498.077148,4493.205078,4440.384766,4513.461426,6025,4,79,,,,0,4,4,4,4,4,4,4,4,4,4,4,4,4,4,100,,,,,,,,,,,,,,,,,,,,,,,,,,,,,,,,,,,,,,,,,,,,,,,,,,,,,,,,,,,,,,,,,,,,,,,,,,,,,,,,,,,,,,,,,,,,,,,,,,,,,,,,,,,,,,,,,,,,,,,,,,,,,,,,,,,,,,
1702544515,1702544515,11,0,4350.512695,4306.666504,4361.153809,4310.897461,4296.025879,4320.384766,4285.769043,4278.717773,4299.743652,4302.820313,4483.846191,4484.615234,4415.769043,4481.410156,6259,4,79,,,,0,4,4,4,4,4,4,4,4,4,4,4,4,4,4,100,,,,,,,,,,,,,,,,,,,,,,,,,,,,,,,,,,,,,,,,,,,,,,,,,,,,,,,,,,,,,,,,,,,,,,,,,,,,,,,,,,,,,,,,,,,,,,,,,,,,,,,,,,,,,,,,,,,,,,,,,,,,,,,,,,,,,,
1702544515,1702544515,12,0,4351.666504,4299.102539,4363.717773,4308.974121,4297.692383,4314.102539,4278.333496,4275.128418,4299.487305,4282.94873,4476.282227,4479.487305,4405.641113,4483.589844,6681,4,79,,,,0,4,4,4,4,4,4,4,4,4,4,4,4,4,4,100,,,,,,,,,,,,,,,,,3,0,0.525212,0.325928,-0.64563,0.448425,0.96838,-0.194848,-0.096203,-17.745058,6.85354,82.313461,,,,,,,,,,,,,,,,,,,,,,,,,,,,,,,,,,,,,,,,,,,,,,,,,,,,,,,,,,,,,,,,,,,,,,,,,,,,,,,,,,,,,,,,,,,,,,,,,,,,,,,,,,
1702544515,1702544515,13,0,4357.820313,4304.230957,4362.94873,4308.717773,4287.692383,4311.025879,4272.820313,4269.102539,4287.563965,4270.769043,4476.922852,4472.436035,4409.358887,4493.974121,6957,4,79,,,,0,4,4,4,4,4,4,4,4,4,4,4,4,4,4,100,,,,,,,,,,,,,,,,,,,,,,,,,,,,,,,,,,,,,,,,,,,,,,,,,,,,,,,,,,,,,,,,,,,,,,,,,,,,,,,,,,,,,,,,,,,,,,,,,,,,,,,,,,,,,,,,,,,,,,,,,,,,,,,,,,,,,,
1702544515,1702544515,14,0,4367.307617,4308.461426,4366.025879,4310.384766,4296.538574,4327.179688,4285.128418,4271.666504,4285.897461,4280.384766,4487.563965,4486.025879,4413.077148,4481.538574,6025,4,79,,,,0,4,4,4,4,4,4,4,4,4,4,4,4,4,4,100,,,,,,,,,,,,,,,,,,,,,,,,,,,,,,,,,,,,,,,,,,,,,,,,,,,,,,,,,,,,,,,,,,,,,,,,,,,,,,,,,,,,,,,,,,,,,,,,,,,,,,,,,,,,,,,,,,,,,,,,,,,,,,,,,,,,,,
1702544515,1702544515,15,0,4415.384766,4354.871582,4411.410156,4359.102539,4343.846191,4378.077148,4336.410156,4316.153809,4338.717773,4329.358887,4540,4549.743652,4455.128418,4536.922852,6259,4,79,,,,0,4,4,4,4,4,4,4,4,4,4,4,4,4,4,100,,,,,,,,,,,,,,,,,,,,,,,,,,,,,,,,,,,,,,,,,,,,,,,,,,,,,,,,,,,,,,,,,,,,,,,,,,,,,,,,,,,,,,,,,,,,,,,,,,,,,,,,,,,,,,,,,,,,,,,,,,,,,,,,,,,,,,
1702544515,1702544515,16,0,4461.153809,4404.871582,4465.128418,4421.025879,4391.153809,4422.436035,4388.461426,4365.897461,4392.436035,4373.717773,4603.589844,4609.102539,4514.358887,4617.179688,0,4,79,,,,0,4,4,4,4,4,4,4,4,4,4,4,4,4,4,100,1,25,3,1,1,3,3,1,3,3,3,3,3,3,1,1,4,0,0.525844,0.327148,-0.644836,0.447937,0.961055,-0.208522,-0.080088,-17.68722,6.884853,82.332115,,,,,,,,,,,,,,,,,,,,,,,,,,,,,,,,,,,,,5.311646,1.585923,0.672938,0.601425,0.507125,13.174143,1.875097,0.845264,0.700705,0.666645,4.393463,1.57029,0.614391,0.355816,0.394094,10.642928,2.136703,0.35919,0.687907,0.56433,5.468124,1.241231,0.59168,0.936144,1.068208,5.864906,1.351482,0.473989,0.4776,0.278597,3.784434,1.675372,0.667639,0.269791,0.369468,4.498241,2.055562,0.883583,0.30401,0.344632,5.490358,2.222545,0.676868,0.501395,0.625552,6.181384,2.926251,0.915904,1.458312,1.577658,8.354856,3.620821,1.819542,2.088801,0.9765,7.615252,3.111411,1.463016,0.405514,0.658017,7.775062,2.825065,1.022079,0.890458,1.261064,6.564332,2.954199,0.976119,0.738112,1.911869
1702544515,1702544515,17,0,4456.153809,4391.922852,4467.179688,4416.666504,4386.922852,4422.307617,4392.820313,4367.563965,4391.282227,4371.666504,4615.128418,4610.897461,4521.794922,4605.897461,0,4,79,,,,0,4,4,4,4,4,4,4,4,4,4,4,4,4,4,100,,,,,,,,,,,,,,,,,,,,,,,,,,,,,,,,,,,,,,,,,,,,,,,,,,,,,,,,,,,,,,,,,,,,,,,,,,,,,,,,,,,,,,,,,,,,,,,,,,,,,,,,,,,,,,,,,,,,,,,,,,,,,,,,,,,,,,
1702544515,1702544515,18,0,4437.563965,4360.128418,4443.589844,4383.589844,4358.717773,4406.153809,4377.563965,4353.846191,4376.922852,4364.358887,4582.94873,4591.794922,4493.461426,4561.025879,0,4,79,,,,0,4,4,4,4,4,4,4,4,4,4,4,4,4,4,100,,,,,,,,,,,,,,,,,,,,,,,,,,,,,,,,,,,,,,,,,,,,,,,,,,,,,,,,,,,,,,,,,,,,,,,,,,,,,,,,,,,,,,,,,,,,,,,,,,,,,,,,,,,,,,,,,,,,,,,,,,,,,,,,,,,,,,
1702544515,1702544515,19,0,4446.410156,4369.487305,4451.025879,4392.94873,4364.230957,4413.589844,4387.179688,4367.436035,4390.897461,4379.358887,4583.846191,4603.077148,4489.871582,4571.922852,0,4,79,,,,0,4,4,4,4,4,4,4,4,4,4,4,4,4,4,100,,,,,,,,,,,,,,,,,,,,,,,,,,,,,,,,,,,,,,,,,,,,,,,,,,,,,,,,,,,,,,,,,,,,,,,,,,,,,,,,,,,,,,,,,,,,,,,,,,,,,,,,,,,,,,,,,,,,,,,,,,,,,,,,,,,,,,
1702544515,1702544515,20,0,4453.333496,4381.025879,4465.769043,4408.461426,4380.769043,4417.820313,4395.128418,4378.846191,4403.205078,4383.717773,4607.563965,4616.538574,4490,4580.769043,0,4,79,,,,0,4,4,4,4,4,4,4,4,4,4,4,4,4,4,100,,,,,,,,,,,,,,,,,5,0,0.526683,0.328003,-0.644226,0.447205,0.94787,-0.198266,-0.091808,-17.835163,6.946368,82.0989,,,,,,,,,,,,,,,,,,,,,,,,,,,,,,,,,,,,,,,,,,,,,,,,,,,,,,,,,,,,,,,,,,,,,,,,,,,,,,,,,,,,,,,,,,,,,,,,,,,,,,,,,,
1702544515,1702544515,21,0,4437.820313,4362.94873,4451.794922,4391.666504,4366.282227,4401.666504,4379.743652,4367.436035,4397.179688,4363.077148,4591.153809,4599.358887,4474.102539,4556.666504,0,4,79,,,,0,4,4,4,4,4,4,4,4,4,4,4,4,4,4,100,,,,,,,,,,,,,,,,,,,,,,,,,,,,,,,,,,,,,,,,,,,,,,,,,,,,,,,,,,,,,,,,,,,,,,,,,,,,,,,,,,,,,,,,,,,,,,,,,,,,,,,,,,,,,,,,,,,,,,,,,,,,,,,,,,,,,,
1702544515,1702544515,22,0,4429.102539,4348.717773,4438.077148,4383.717773,4349.615234,4395.897461,4370,4355,4389.487305,4342.820313,4570.384766,4580.512695,4472.692383,4548.461426,0,4,79,,,,0,4,4,4,4,4,4,4,4,4,4,4,4,4,4,100,,,,,,,,,,,,,,,,,,,,,,,,,,,,,,,,,,,,,,,,,,,,,,,,,,,,,,,,,,,,,,,,,,,,,,,,,,,,,,,,,,,,,,,,,,,,,,,,,,,,,,,,,,,,,,,,,,,,,,,,,,,,,,,,,,,,,,
1702544515,1702544515,23,0,4433.077148,4352.307617,4440.128418,4399.102539,4350.384766,4404.102539,4375,4352.179688,4389.871582,4345.512695,4581.666504,4577.820313,4478.974121,4561.282227,0,4,79,,,,0,4,4,4,4,4,4,4,4,4,4,4,4,4,4,100,,,,,,,,,,,,,,,,,,,,,,,,,,,,,,,,,,,,,,,,,,,,,,,,,,,,,,,,,,,,,,,,,,,,,,,,,,,,,,,,,,,,,,,,,,,,,,,,,,,,,,,,,,,,,,,,,,,,,,,,,,,,,,,,,,,,,,
1702544515,1702544515,24,0,4428.589844,4346.922852,4434.743652,4397.436035,4339.743652,4394.230957,4368.717773,4344.871582,4386.153809,4363.846191,4587.436035,4575.769043,4469.230957,4560.384766,0,4,79,,,,0,4,4,4,4,4,4,4,4,4,4,4,4,4,4,100,,,,,,,,,,,,,,,,,6,0,0.527626,0.327881,-0.643982,0.446533,0.963985,-0.196313,-0.094738,-17.801647,6.918398,82.255676,,,,,,,,,,,,,,,,,,,,,,,,,,,,,,,,,,,,,,,,,,,,,,,,,,,,,,,,,,,,,,,,,,,,,,,,,,,,,,,,,,,,,,,,,,,,,,,,,,,,,,,,,,
1702544515,1702544515,25,0,4414.487305,4326.410156,4422.436035,4377.94873,4320.512695,4377.692383,4353.461426,4328.205078,4362.94873,4353.974121,4560.897461,4563.461426,4444.487305,4529.871582,0,4,79,,,,0,4,4,4,4,4,4,4,4,4,4,4,4,4,4,100,,,,,,,,,,,,,,,,,,,,,,,,,,,,,,,,,,,,,,,,,,,,,,,,,,,,,,,,,,,,,,,,,,,,,,,,,,,,,,,,,,,,,,,,,,,,,,,,,,,,,,,,,,,,,,,,,,,,,,,,,,,,,,,,,,,,,,
1702544515,1702544515,26,0,4412.820313,4321.410156,4428.846191,4377.563965,4323.205078,4392.563965,4358.205078,4327.436035,4352.307617,4321.538574,4548.333496,4560.512695,4430,4516.538574,0,4,79,,,,0,4,4,4,4,4,4,4,4,4,4,4,4,4,4,100,,,,,,,,,,,,,,,,,,,,,,,,,,,,,,,,,,,,,,,,,,,,,,,,,,,,,,,,,,,,,,,,,,,,,,,,,,,,,,,,,,,,,,,,,,,,,,,,,,,,,,,,,,,,,,,,,,,,,,,,,,,,,,,,,,,,,,
1702544515,1702544515,27,0,4409.358887,4316.153809,4426.794922,4375.128418,4324.615234,4394.615234,4358.974121,4334.358887,4357.179688,4312.820313,4555.769043,4555,4425.769043,4523.974121,0,4,79,,,,0,4,4,4,4,4,4,4,4,4,4,4,4,4,4,100,,,,,,,,,,,,,,,,,,,,,,,,,,,,,,,,,,,,,,,,,,,,,,,,,,,,,,,,,,,,,,,,,,,,,,,,,,,,,,,,,,,,,,,,,,,,,,,,,,,,,,,,,,,,,,,,,,,,,,,,,,,,,,,,,,,,,,
1702544515,1702544515,28,0,4395,4295.769043,4414.102539,4361.538574,4322.436035,4369.102539,4350,4331.794922,4356.282227,4321.538574,4551.538574,4548.717773,4421.538574,4515.641113,0,4,79,,,,0,4,4,4,4,4,4,4,4,4,4,4,4,4,4,100,,,,,,,,,,,,,,,,,7,0,0.528304,0.326843,-0.644165,0.446228,0.965938,-0.201196,-0.08546,-17.704817,6.876558,82.096779,,,,,,,,,,,,,,,,,,,,,,,,,,,,,,,,,,,,,,,,,,,,,,,,,,,,,,,,,,,,,,,,,,,,,,,,,,,,,,,,,,,,,,,,,,,,,,,,,,,,,,,,,,
1702544515,1702544515,29,0,4397.307617,4294.871582,4423.205078,4373.846191,4331.794922,4369.102539,4360,4338.333496,4362.436035,4320.512695,4550,4562.05127,4416.794922,4502.307617,0,4,79,,,,0,4,4,4,4,4,4,4,4,4,4,4,4,4,4,100,,,,,,,,,,,,,,,,,,,,,,,,,,,,,,,,,,,,,,,,,,,,,,,,,,,,,,,,,,,,,,,,,,,,,,,,,,,,,,,,,,,,,,,,,,,,,,,,,,,,,,,,,,,,,,,,,,,,,,,,,,,,,,,,,,,,,,
1702544515,1702544515,30,0,4402.179688,4307.179688,4426.666504,4385.769043,4308.846191,4381.153809,4367.436035,4343.717773,4365.897461,4303.333496,4548.717773,4558.717773,4403.717773,4496.922852,0,4,79,,,,0,4,4,4,4,4,4,4,4,4,4,4,4,4,4,100,,,,,,,,,,,,,,,,,,,,,,,,,,,,,,,,,,,,,,,,,,,,,,,,,,,,,,,,,,,,,,,,,,,,,,,,,,,,,,,,,,,,,,,,,,,,,,,,,,,,,,,,,,,,,,,,,,,,,,,,,,,,,,,,,,,,,,
1702544515,1702544515,31,0,4391.153809,4293.205078,4408.461426,4371.538574,4276.794922,4370.256348,4356.153809,4337.692383,4354.230957,4285.897461,4539.230957,4537.307617,4384.871582,4490.256348,0,4,79,,,,0,4,4,4,4,4,4,4,4,4,4,4,4,4,4,100,,,,,,,,,,,,,,,,,,,,,,,,,,,,,,,,,,,,,,,,,,,,,,,,,,,,,,,,,,,,,,,,,,,,,,,,,,,,,,,,,,,,,,,,,,,,,,,,,,,,,,,,,,,,,,,,,,,,,,,,,,,,,,,,,,,,,,
1702544515,1702544515,32,0,4386.794922,4275.897461,4403.205078,4364.871582,4296.153809,4360.384766,4351.538574,4337.436035,4350.641113,4295.512695,4538.717773,4539.487305,4383.205078,4489.358887,0,4,79,,,,0,4,4,4,4,4,4,4,4,4,4,4,4,4,4,100,,,,,,,,,,,,,,,,,8,0,0.528889,0.325134,-0.644592,0.446167,0.959101,-0.205591,-0.075204,-17.617668,6.805569,82.12043,,,,,,,,,,,,,,,,,,,,,,,,,,,,,,,,,,,,,5.213588,1.406569,0.716404,0.563128,0.587165,13.765433,1.518449,0.967037,0.869504,0.757891,4.419473,1.398187,0.638934,0.405461,0.4559,9.820311,1.699722,0.319788,0.779031,0.518901,4.91083,1.004198,0.732703,1.066159,1.179613,5.532875,1.205237,0.490652,0.525151,0.323287,3.6826,1.456367,0.6144,0.302604,0.416468,4.56707,1.672778,0.909104,0.353985,0.395328,5.674918,1.879452,0.7125,0.574064,0.708,5.724345,2.41611,1.030613,1.489291,1.770124,8.440907,3.119792,1.991144,1.925491,0.984922,7.997095,2.753403,1.412015,0.458058,0.70854,7.899942,2.436552,1.11404,1.053187,1.329163,6.34206,2.69782,1.076543,0.803322,2.042881
1702544515,1702544515,33,0,4394.743652,4289.871582,4411.410156,4370,4314.743652,4361.538574,4356.153809,4342.307617,4357.179688,4314.230957,4549.487305,4552.563965,4397.307617,4495.384766,0,4,79,,,,0,4,4,4,4,4,4,4,4,4,4,4,4,4,4,100,,,,,,,,,,,,,,,,,,,,,,,,,,,,,,,,,,,,,,,,,,,,,,,,,,,,,,,,,,,,,,,,,,,,,,,,,,,,,,,,,,,,,,,,,,,,,,,,,,,,,,,,,,,,,,,,,,,,,,,,,,,,,,,,,,,,,,
1702544515,1702544515,34,0,4410.128418,4313.333496,4420.512695,4381.153809,4302.05127,4371.538574,4363.974121,4346.794922,4364.102539,4312.94873,4565,4558.974121,4412.563965,4503.461426,0,4,79,,,,0,4,4,4,4,4,4,4,4,4,4,4,4,4,4,100,,,,,,,,,,,,,,,,,,,,,,,,,,,,,,,,,,,,,,,,,,,,,,,,,,,,,,,,,,,,,,,,,,,,,,,,,,,,,,,,,,,,,,,,,,,,,,,,,,,,,,,,,,,,,,,,,,,,,,,,,,,,,,,,,,,,,,
1702544515,1702544515,35,0,4424.358887,4325.384766,4429.102539,4396.922852,4306.153809,4381.538574,4368.333496,4349.358887,4366.153809,4298.846191,4576.153809,4564.871582,4416.794922,4515.128418,0,4,79,,,,0,4,4,4,4,4,4,4,4,4,4,4,4,4,4,100,,,,,,,,,,,,,,,,,,,,,,,,,,,,,,,,,,,,,,,,,,,,,,,,,,,,,,,,,,,,,,,,,,,,,,,,,,,,,,,,,,,,,,,,,,,,,,,,,,,,,,,,,,,,,,,,,,,,,,,,,,,,,,,,,,,,,,
1702544515,1702544515,36,0,4413.974121,4321.025879,4418.461426,4390.641113,4303.333496,4360,4347.692383,4332.820313,4345.769043,4283.333496,4556.153809,4545.641113,4393.333496,4503.077148,0,4,79,,,,0,4,4,4,4,4,4,4,4,4,4,4,4,4,4,100,,,,,,,,,,,,,,,,,9,0,0.529162,0.324158,-0.644775,0.446289,0.966427,-0.221707,-0.073251,-17.672567,6.858346,82.208389,,,,,,,,,,,,,,,,,,,,,,,,,,,,,,,,,,,,,,,,,,,,,,,,,,,,,,,,,,,,,,,,,,,,,,,,,,,,,,,,,,,,,,,,,,,,,,,,,,,,,,,,,,
1702544515,1702544515,37,0,4401.666504,4321.794922,4402.692383,4382.563965,4278.974121,4341.922852,4332.692383,4316.538574,4328.717773,4275.769043,4533.589844,4521.282227,4374.743652,4484.615234,0,4,79,,,,0,4,4,4,4,4,4,4,4,4,4,4,4,4,4,100,,,,,,,,,,,,,,,,,,,,,,,,,,,,,,,,,,,,,,,,,,,,,,,,,,,,,,,,,,,,,,,,,,,,,,,,,,,,,,,,,,,,,,,,,,,,,,,,,,,,,,,,,,,,,,,,,,,,,,,,,,,,,,,,,,,,,,
1702544515,1702544515,38,0,4421.794922,4347.820313,4412.179688,4403.717773,4280.897461,4358.333496,4346.922852,4325.128418,4341.794922,4281.282227,4555.384766,4536.410156,4401.025879,4504.487305,0,4,79,,,,0,4,4,4,4,4,4,4,4,4,4,4,4,4,4,100,,,,,,,,,,,,,,,,,,,,,,,,,,,,,,,,,,,,,,,,,,,,,,,,,,,,,,,,,,,,,,,,,,,,,,,,,,,,,,,,,,,,,,,,,,,,,,,,,,,,,,,,,,,,,,,,,,,,,,,,,,,,,,,,,,,,,,
1702544515,1702544515,39,0,4444.615234,4376.794922,4419.487305,4420.641113,4289.871582,4355,4347.436035,4328.846191,4345.256348,4277.94873,4571.410156,4550.512695,4416.025879,4530.256348,0,4,79,,,,0,4,4,4,4,4,4,4,4,4,4,4,4,4,4,100,,,,,,,,,,,,,,,,,,,,,,,,,,,,,,,,,,,,,,,,,,,,,,,,,,,,,,,,,,,,,,,,,,,,,,,,,,,,,,,,,,,,,,,,,,,,,,,,,,,,,,,,,,,,,,,,,,,,,,,,,,,,,,,,,,,,,,
1702544515,1702544515,40,0,4455.897461,4403.333496,4417.307617,4426.794922,4291.025879,4340.384766,4340.128418,4325.641113,4338.717773,4270.512695,4562.692383,4545.641113,4397.94873,4538.589844,0,4,79,,,,0,4,4,4,4,4,4,4,4,4,4,4,4,4,4,100,,,,,,,,,,,,,,,,,10,0,0.529959,0.32196,-0.645264,0.446228,0.96838,-0.207545,-0.085948,-17.538645,6.972511,82.237549,,,,,,,,,,,,,,,,,,,,,,,,,,,,,,,,,,,,,,,,,,,,,,,,,,,,,,,,,,,,,,,,,,,,,,,,,,,,,,,,,,,,,,,,,,,,,,,,,,,,,,,,,,
1702544515,1702544515,41,0,4487.436035,4448.589844,4433.461426,4452.436035,4306.538574,4359.615234,4355.256348,4338.077148,4351.410156,4277.563965,4589.487305,4562.94873,4421.153809,4565,0,4,79,,,,0,4,4,4,4,4,4,4,4,4,4,4,4,4,4,100,,,,,,,,,,,,,,,,,,,,,,,,,,,,,,,,,,,,,,,,,,,,,,,,,,,,,,,,,,,,,,,,,,,,,,,,,,,,,,,,,,,,,,,,,,,,,,,,,,,,,,,,,,,,,,,,,,,,,,,,,,,,,,,,,,,,,,
1702544515,1702544515,42,0,4520,4486.794922,4450,4470.897461,4306.922852,4366.666504,4360,4341.153809,4350.641113,4267.94873,4597.05127,4577.436035,4442.436035,4593.461426,0,4,79,,,,0,4,4,4,4,4,4,4,4,4,4,4,4,4,4,100,,,,,,,,,,,,,,,,,,,,,,,,,,,,,,,,,,,,,,,,,,,,,,,,,,,,,,,,,,,,,,,,,,,,,,,,,,,,,,,,,,,,,,,,,,,,,,,,,,,,,,,,,,,,,,,,,,,,,,,,,,,,,,,,,,,,,,
1702544515,1702544515,43,0,4541.794922,4498.974121,4456.282227,4480.512695,4299.230957,4356.153809,4356.282227,4341.794922,4346.025879,4259.871582,4574.230957,4582.179688,4422.05127,4608.077148,0,4,79,,,,0,4,4,4,4,4,4,4,4,4,4,4,4,4,4,100,,,,,,,,,,,,,,,,,,,,,,,,,,,,,,,,,,,,,,,,,,,,,,,,,,,,,,,,,,,,,,,,,,,,,,,,,,,,,,,,,,,,,,,,,,,,,,,,,,,,,,,,,,,,,,,,,,,,,,,,,,,,,,,,,,,,,,
1702544515,1702544515,44,0,4583.077148,4514.230957,4470.769043,4502.307617,4310.897461,4369.358887,4373.205078,4360,4369.358887,4289.230957,4626.282227,4609.102539,4467.179688,4648.717773,0,4,79,,,,0,4,4,4,4,4,4,4,4,4,4,4,4,4,4,100,,,,,,,,,,,,,,,,,11,0,0.531534,0.319214,-0.646301,0.444824,0.956171,-0.230009,-0.081065,-17.384779,6.758593,82.163795,,,,,,,,,,,,,,,,,,,,,,,,,,,,,,,,,,,,,,,,,,,,,,,,,,,,,,,,,,,,,,,,,,,,,,,,,,,,,,,,,,,,,,,,,,,,,,,,,,,,,,,,,,
1702544515,1702544515,45,0,4618.589844,4514.615234,4481.538574,4501.794922,4305.641113,4375.769043,4381.153809,4369.230957,4382.820313,4305.769043,4701.282227,4630,4568.589844,4688.589844,0,4,79,,,,0,4,4,4,4,4,4,4,4,4,4,4,4,4,4,100,,,,,,,,,,,,,,,,,,,,,,,,,,,,,,,,,,,,,,,,,,,,,,,,,,,,,,,,,,,,,,,,,,,,,,,,,,,,,,,,,,,,,,,,,,,,,,,,,,,,,,,,,,,,,,,,,,,,,,,,,,,,,,,,,,,,,,
1702544515,1702544515,46,0,4642.820313,4490.384766,4493.589844,4493.717773,4296.153809,4376.410156,4383.333496,4376.538574,4388.461426,4304.743652,4723.077148,4645.641113,4631.153809,4711.922852,0,4,79,,,,0,4,4,4,4,4,4,4,4,4,4,4,4,4,4,100,,,,,,,,,,,,,,,,,,,,,,,,,,,,,,,,,,,,,,,,,,,,,,,,,,,,,,,,,,,,,,,,,,,,,,,,,,,,,,,,,,,,,,,,,,,,,,,,,,,,,,,,,,,,,,,,,,,,,,,,,,,,,,,,,,,,,,
1702544515,1702544515,47,0,4670.128418,4467.05127,4514.487305,4501.410156,4309.615234,4392.179688,4399.615234,4395.256348,4415.512695,4331.922852,4746.153809,4675.769043,4664.230957,4751.538574,0,4,79,,,,0,4,4,4,4,4,4,4,4,4,4,4,4,4,4,100,,,,,,,,,,,,,,,,,,,,,,,,,,,,,,,,,,,,,,,,,,,,,,,,,,,,,,,,,,,,,,,,,,,,,,,,,,,,,,,,,,,,,,,,,,,,,,,,,,,,,,,,,,,,,,,,,,,,,,,,,,,,,,,,,,,,,,
1702544515,1702544515,48,0,4687.563965,4440.128418,4523.077148,4498.717773,4314.230957,4405,4411.410156,4406.922852,4436.538574,4372.05127,4784.358887,4695.256348,4706.153809,4788.717773,0,4,79,,,,0,4,4,4,4,4,4,4,4,4,4,4,4,4,4,100,,,,,,,,,,,,,,,,,12,0,0.535355,0.314209,-0.648315,0.440857,0.955195,-0.279331,-0.048834,-17.512968,6.566067,82.247414,,,,,,,,,,,,,,,,,,,,,,,,,,,,,,,,,,,,,5.073284,1.115252,0.811511,0.555637,0.682048,14.362415,1.321552,1.096283,1.035747,0.885127,4.350107,1.135376,0.702733,0.493308,0.527186,8.787277,1.301313,0.364345,0.85741,0.527408,4.468069,0.790823,0.92587,1.18713,1.335718,5.391226,1.053202,0.509193,0.559168,0.388305,3.676273,1.242974,0.59266,0.356463,0.468844,4.657052,1.261951,0.92038,0.424067,0.451597,5.771029,1.464486,0.755735,0.660714,0.783707,4.993119,1.831109,1.147174,1.458892,1.968058,8.239704,2.395834,2.061157,1.750693,1.048659,8.203581,2.220903,1.445983,0.547939,0.782004,7.898457,1.946282,1.143535,1.209704,1.434143,6.342862,2.254956,1.223639,0.907671,2.123228
1702544515,1702544515,49,0,4706.025879,4413.205078,4531.153809,4495.128418,4318.974121,4417.94873,4422.94873,4423.846191,4449.487305,4394.358887,4821.538574,4710,4766.794922,4801.922852,0,4,79,,,,0,4,4,4,4,4,4,4,4,4,4,4,4,4,4,100,,,,,,,,,,,,,,,,,,,,,,,,,,,,,,,,,,,,,,,,,,,,,,,,,,,,,,,,,,,,,,,,,,,,,,,,,,,,,,,,,,,,,,,,,,,,,,,,,,,,,,,,,,,,,,,,,,,,,,,,,,,,,,,,,,,,,,
1702544515,1702544515,50,0,4724.358887,4391.794922,4546.410156,4495.512695,4330.769043,4431.153809,4436.153809,4447.94873,4470,4401.794922,4862.820313,4730.256348,4825.512695,4806.282227,0,4,79,,,,0,4,4,4,4,4,4,4,4,4,4,4,4,4,4,100,,,,,,,,,,,,,,,,,,,,,,,,,,,,,,,,,,,,,,,,,,,,,,,,,,,,,,,,,,,,,,,,,,,,,,,,,,,,,,,,,,,,,,,,,,,,,,,,,,,,,,,,,,,,,,,,,,,,,,,,,,,,,,,,,,,,,,
1702544515,1702544515,51,0,4713.717773,4353.846191,4543.077148,4471.922852,4314.871582,4421.153809,4428.846191,4445.384766,4473.205078,4404.102539,4885.897461,4728.461426,4835.512695,4793.717773,0,4,79,,,,0,4,4,4,4,4,4,4,4,4,4,4,4,4,4,100,,,,,,,,,,,,,,,,,,,,,,,,,,,,,,,,,,,,,,,,,,,,,,,,,,,,,,,,,,,,,,,,,,,,,,,,,,,,,,,,,,,,,,,,,,,,,,,,,,,,,,,,,,,,,,,,,,,,,,,,,,,,,,,,,,,,,,
1702544515,1702544515,52,0,4705.897461,4311.794922,4540,4454.487305,4305.897461,4416.794922,4426.410156,4445,4476.922852,4419.230957,4892.563965,4731.666504,4847.436035,4779.487305,0,4,79,,,,0,4,4,4,4,4,4,4,4,4,4,4,4,4,4,100,,,,,,,,,,,,,,,,,13,0,0.540384,0.307251,-0.652039,0.434082,0.979612,-0.262239,-0.054206,-17.495005,6.35946,82.372673,,,,,,,,,,,,,,,,,,,,,,,,,,,,,,,,,,,,,,,,,,,,,,,,,,,,,,,,,,,,,,,,,,,,,,,,,,,,,,,,,,,,,,,,,,,,,,,,,,,,,,,,,,
1702544515,1702544515,53,0,4727.436035,4285.256348,4558.589844,4463.333496,4327.436035,4441.153809,4451.666504,4479.230957,4510.256348,4447.692383,4918.077148,4766.410156,4906.282227,4793.205078,0,4,79,,,,0,4,4,4,4,4,4,4,4,4,4,4,4,4,4,100,,,,,,,,,,,,,,,,,,,,,,,,,,,,,,,,,,,,,,,,,,,,,,,,,,,,,,,,,,,,,,,,,,,,,,,,,,,,,,,,,,,,,,,,,,,,,,,,,,,,,,,,,,,,,,,,,,,,,,,,,,,,,,,,,,,,,,
1702544515,1702544515,54,0,4723.461426,4235.512695,4560.384766,4446.153809,4323.846191,4448.589844,4465.641113,4497.94873,4534.871582,4462.692383,4945.641113,4777.436035,4916.410156,4791.153809,0,4,79,,,,0,4,4,4,4,4,4,4,4,4,4,4,4,4,4,100,,,,,,,,,,,,,,,,,,,,,,,,,,,,,,,,,,,,,,,,,,,,,,,,,,,,,,,,,,,,,,,,,,,,,,,,,,,,,,,,,,,,,,,,,,,,,,,,,,,,,,,,,,,,,,,,,,,,,,,,,,,,,,,,,,,,,,
1702544515,1702544515,55,0,4696.794922,4172.820313,4547.820313,4416.153809,4308.077148,4436.538574,4457.820313,4486.410156,4527.436035,4472.563965,4951.282227,4762.179688,4887.05127,4762.05127,0,4,79,,,,0,4,4,4,4,4,4,4,4,4,4,4,4,4,4,100,,,,,,,,,,,,,,,,,,,,,,,,,,,,,,,,,,,,,,,,,,,,,,,,,,,,,,,,,,,,,,,,,,,,,,,,,,,,,,,,,,,,,,,,,,,,,,,,,,,,,,,,,,,,,,,,,,,,,,,,,,,,,,,,,,,,,,
1702544515,1702544515,56,0,4674.615234,4120,4537.05127,4398.589844,4307.05127,4427.563965,4445.641113,4477.436035,4512.307617,4464.358887,4917.307617,4748.205078,4873.333496,4727.692383,0,4,79,,,,0,4,4,4,4,4,4,4,4,4,4,4,4,4,4,100,,,,,,,,,,,,,,,,,14,0,0.545243,0.299744,-0.656982,0.42572,0.984984,-0.212428,-0.051276,-17.395504,6.173514,82.718742,,,,,,,,,,,,,,,,,,,,,,,,,,,,,,,,,,,,,,,,,,,,,,,,,,,,,,,,,,,,,,,,,,,,,,,,,,,,,,,,,,,,,,,,,,,,,,,,,,,,,,,,,,
1702544515,1702544515,57,0,4638.077148,4065.128174,4515.641113,4370.512695,4295.512695,4423.974121,4439.871582,4478.205078,4511.538574,4434.615234,4887.94873,4731.025879,4843.205078,4687.94873,0,4,79,,,,0,4,4,4,4,4,4,4,4,4,4,4,4,4,4,100,,,,,,,,,,,,,,,,,,,,,,,,,,,,,,,,,,,,,,,,,,,,,,,,,,,,,,,,,,,,,,,,,,,,,,,,,,,,,,,,,,,,,,,,,,,,,,,,,,,,,,,,,,,,,,,,,,,,,,,,,,,,,,,,,,,,,,
1702544515,1702544515,58,0,4607.692383,4027.179443,4504.230957,4346.410156,4277.94873,4423.717773,4444.230957,4482.05127,4515,4426.538574,4896.922852,4721.410156,4788.974121,4658.717773,0,4,79,,,,0,4,4,4,4,4,4,4,4,4,4,4,4,4,4,100,,,,,,,,,,,,,,,,,,,,,,,,,,,,,,,,,,,,,,,,,,,,,,,,,,,,,,,,,,,,,,,,,,,,,,,,,,,,,,,,,,,,,,,,,,,,,,,,,,,,,,,,,,,,,,,,,,,,,,,,,,,,,,,,,,,,,,
1702544515,1702544515,59,0,4590.641113,4002.692383,4497.436035,4334.615234,4270.256348,4405.384766,4432.563965,4475.256348,4502.436035,4427.436035,4869.358887,4707.307617,4728.974121,4622.563965,0,4,79,,,,0,4,4,4,4,4,4,4,4,4,4,4,4,4,4,100,,,,,,,,,,,,,,,,,,,,,,,,,,,,,,,,,,,,,,,,,,,,,,,,,,,,,,,,,,,,,,,,,,,,,,,,,,,,,,,,,,,,,,,,,,,,,,,,,,,,,,,,,,,,,,,,,,,,,,,,,,,,,,,,,,,,,,
1702544515,1702544515,60,0,4561.922852,3966.538574,4472.05127,4315.897461,4256.282227,4375.769043,4404.358887,4455.128418,4482.179688,4404.102539,4817.692383,4675.384766,4681.794922,4572.179688,0,4,79,,,,0,4,4,4,4,4,4,4,4,4,4,4,4,4,4,100,,,,,,,,,,,,,,,,,15,0,0.549345,0.292725,-0.662537,0.416626,0.990355,-0.179709,-0.060554,-17.305954,5.789496,82.913536,,,,,,,,,,,,,,,,,,,,,,,,,,,,,,,,,,,,,,,,,,,,,,,,,,,,,,,,,,,,,,,,,,,,,,,,,,,,,,,,,,,,,,,,,,,,,,,,,,,,,,,,,,
1702544515,1702544515,61,0,4553.461426,3960.512939,4471.153809,4322.307617,4253.205078,4390.641113,4416.025879,4461.153809,4488.846191,4394.871582,4845.512695,4676.153809,4667.307617,4564.487305,0,4,79,,,,0,4,4,4,4,4,4,4,4,4,4,4,4,4,4,100,,,,,,,,,,,,,,,,,,,,,,,,,,,,,,,,,,,,,,,,,,,,,,,,,,,,,,,,,,,,,,,,,,,,,,,,,,,,,,,,,,,,,,,,,,,,,,,,,,,,,,,,,,,,,,,,,,,,,,,,,,,,,,,,,,,,,,
1702544515,1702544515,62,0,4556.922852,3981.666748,4486.666504,4343.461426,4275.128418,4419.871582,4441.666504,4477.94873,4499.358887,4409.743652,4866.794922,4688.077148,4652.692383,4569.102539,0,4,79,,,,0,4,4,4,4,4,4,4,4,4,4,4,4,4,4,100,,,,,,,,,,,,,,,,,,,,,,,,,,,,,,,,,,,,,,,,,,,,,,,,,,,,,,,,,,,,,,,,,,,,,,,,,,,,,,,,,,,,,,,,,,,,,,,,,,,,,,,,,,,,,,,,,,,,,,,,,,,,,,,,,,,,,,
1702544515,1702544515,63,0,4511.025879,3953.846191,4451.153809,4314.871582,4267.94873,4385.512695,4405.897461,4448.205078,4467.05127,4383.205078,4787.563965,4638.077148,4593.717773,4503.205078,0,4,79,,,,0,4,4,4,4,4,4,4,4,4,4,4,4,4,4,100,,,,,,,,,,,,,,,,,,,,,,,,,,,,,,,,,,,,,,,,,,,,,,,,,,,,,,,,,,,,,,,,,,,,,,,,,,,,,,,,,,,,,,,,,,,,,,,,,,,,,,,,,,,,,,,,,,,,,,,,,,,,,,,,,,,,,,
1702544515,1702544515,64,0,4469.871582,3920,4415.897461,4283.333496,4242.563965,4347.94873,4373.974121,4421.538574,4437.94873,4340.769043,4740.641113,4593.077148,4552.692383,4444.615234,5385,4,79,,,,0,4,4,4,4,4,4,4,4,4,4,4,4,4,4,100,,,,,,,,,,,,,,,,,16,0,0.551613,0.28717,-0.668152,0.408447,0.988402,-0.155292,-0.068856,-17.308691,5.44388,83.205513,,,,,,,,,,,,,,,,,,,,,,,,,,,,,,,,,,,,,5.781117,1.040857,1.038665,0.581408,0.766613,15.392951,1.423473,1.269878,1.164715,1.032001,4.672971,1.031615,0.87039,0.624504,0.598935,8.060784,1.193256,0.547094,0.919482,0.590095,4.616888,0.822748,1.187707,1.292613,1.51416,5.769145,1.136602,0.577354,0.588139,0.470158,4.277419,1.311209,0.628829,0.453921,0.517179,5.280771,1.04335,0.96553,0.525007,0.500887,6.314481,1.201708,0.835271,0.776324,0.843569,4.765248,1.388512,1.3046,1.417771,2.127855,8.938663,1.851303,2.100522,1.650521,1.142603,9.191401,1.933762,1.668805,0.690899,0.865021,9.037332,1.733862,1.174175,1.385049,1.533157,7.437363,2.061955,1.464106,1.054246,2.117456
1702544515,1702544515,65,0,4474.358887,3926.153809,4426.282227,4296.153809,4244.102539,4363.333496,4390.641113,4434.743652,4444.487305,4342.179688,4765.128418,4601.666504,4543.205078,4446.410156,5526,4,79,,,,0,4,4,4,4,4,4,4,4,4,4,4,4,4,4,100,,,,,,,,,,,,,,,,,,,,,,,,,,,,,,,,,,,,,,,,,,,,,,,,,,,,,,,,,,,,,,,,,,,,,,,,,,,,,,,,,,,,,,,,,,,,,,,,,,,,,,,,,,,,,,,,,,,,,,,,,,,,,,,,,,,,,,
1702544515,1702544515,66,0,4456.538574,3910,4416.410156,4288.461426,4235.384766,4362.692383,4385.897461,4432.05127,4439.615234,4345,4746.153809,4590.128418,4501.794922,4420.256348,5432,4,79,,,,0,4,4,4,4,4,4,4,4,4,4,4,4,4,4,100,,,,,,,,,,,,,,,,,,,,,,,,,,,,,,,,,,,,,,,,,,,,,,,,,,,,,,,,,,,,,,,,,,,,,,,,,,,,,,,,,,,,,,,,,,,,,,,,,,,,,,,,,,,,,,,,,,,,,,,,,,,,,,,,,,,,,,
1702544515,1702544515,67,0,4432.563965,3888.333252,4398.717773,4265.384766,4213.589844,4341.153809,4369.871582,4423.205078,4427.563965,4331.410156,4712.692383,4566.922852,4463.974121,4383.846191,5432,4,79,,,,0,4,4,4,4,4,4,4,4,4,4,4,4,4,4,100,,,,,,,,,,,,,,,,,,,,,,,,,,,,,,,,,,,,,,,,,,,,,,,,,,,,,,,,,,,,,,,,,,,,,,,,,,,,,,,,,,,,,,,,,,,,,,,,,,,,,,,,,,,,,,,,,,,,,,,,,,,,,,,,,,,,,,
1702544515,1702544515,68,0,4435.897461,3897.05127,4404.487305,4272.307617,4218.461426,4338.717773,4376.153809,4436.282227,4435,4317.179688,4708.846191,4568.205078,4458.974121,4387.820313,5349,4,79,,,,0,4,4,4,4,4,4,4,4,4,4,4,4,4,4,100,,,,,,,,,,,,,,,,,17,0,0.552449,0.283813,-0.672913,0.401794,0.990355,-0.133805,-0.084483,-17.34449,5.216158,83.401627,,,,,,,,,,,,,,,,,,,,,,,,,,,,,,,,,,,,,,,,,,,,,,,,,,,,,,,,,,,,,,,,,,,,,,,,,,,,,,,,,,,,,,,,,,,,,,,,,,,,,,,,,,
1702544515,1702544515,69,0,4422.94873,3892.307617,4393.333496,4273.846191,4226.282227,4332.307617,4369.615234,4433.077148,4429.230957,4301.282227,4688.205078,4555.128418,4442.179688,4377.179688,5325,4,79,,,,0,4,4,4,4,4,4,4,4,4,4,4,4,4,4,100,,,,,,,,,,,,,,,,,,,,,,,,,,,,,,,,,,,,,,,,,,,,,,,,,,,,,,,,,,,,,,,,,,,,,,,,,,,,,,,,,,,,,,,,,,,,,,,,,,,,,,,,,,,,,,,,,,,,,,,,,,,,,,,,,,,,,,
1702544515,1702544515,70,0,4397.179688,3874.743652,4370,4261.025879,4210.384766,4315.512695,4356.153809,4413.974121,4407.307617,4300.512695,4674.615234,4532.563965,4406.666504,4340.512695,5248,4,79,,,,0,4,4,4,4,4,4,4,4,4,4,4,4,4,4,100,,,,,,,,,,,,,,,,,,,,,,,,,,,,,,,,,,,,,,,,,,,,,,,,,,,,,,,,,,,,,,,,,,,,,,,,,,,,,,,,,,,,,,,,,,,,,,,,,,,,,,,,,,,,,,,,,,,,,,,,,,,,,,,,,,,,,,
1702544515,1702544515,71,0,4393.077148,3875.641113,4369.102539,4261.922852,4204.743652,4319.102539,4366.025879,4416.410156,4408.077148,4310,4688.717773,4532.563965,4385.897461,4323.461426,5093,4,79,,,,0,4,4,4,4,4,4,4,4,4,4,4,4,4,4,100,,,,,,,,,,,,,,,,,,,,,,,,,,,,,,,,,,,,,,,,,,,,,,,,,,,,,,,,,,,,,,,,,,,,,,,,,,,,,,,,,,,,,,,,,,,,,,,,,,,,,,,,,,,,,,,,,,,,,,,,,,,,,,,,,,,,,,
1702544515,1702544515,72,0,4385.128418,3869.871826,4369.487305,4259.358887,4208.846191,4325.128418,4369.358887,4423.077148,4411.922852,4294.871582,4667.692383,4525.897461,4368.077148,4314.102539,5362,4,79,,,,0,4,4,4,4,4,4,4,4,4,4,4,4,4,4,100,,,,,,,,,,,,,,,,,18,0,0.552246,0.282837,-0.675049,0.39917,0.962031,-0.152851,-0.112807,-17.376707,5.061209,83.694801,,,,,,,,,,,,,,,,,,,,,,,,,,,,,,,,,,,,,,,,,,,,,,,,,,,,,,,,,,,,,,,,,,,,,,,,,,,,,,,,,,,,,,,,,,,,,,,,,,,,,,,,,,
1702544515,1702544515,73,0,4367.563965,3860.897461,4355.641113,4247.179688,4201.538574,4311.666504,4354.871582,4416.922852,4400.384766,4271.025879,4639.743652,4506.794922,4338.461426,4292.307617,5385,4,79,,,,0,4,4,4,4,4,4,4,4,4,4,4,4,4,4,100,,,,,,,,,,,,,,,,,,,,,,,,,,,,,,,,,,,,,,,,,,,,,,,,,,,,,,,,,,,,,,,,,,,,,,,,,,,,,,,,,,,,,,,,,,,,,,,,,,,,,,,,,,,,,,,,,,,,,,,,,,,,,,,,,,,,,,
1702544515,1702544515,74,0,4351.153809,3856.923096,4336.666504,4235,4188.589844,4292.436035,4341.922852,4403.205078,4390,4261.410156,4638.077148,4488.846191,4312.94873,4263.717773,6057,4,79,,,,0,4,4,4,4,4,4,4,4,4,4,4,4,4,4,100,,,,,,,,,,,,,,,,,,,,,,,,,,,,,,,,,,,,,,,,,,,,,,,,,,,,,,,,,,,,,,,,,,,,,,,,,,,,,,,,,,,,,,,,,,,,,,,,,,,,,,,,,,,,,,,,,,,,,,,,,,,,,,,,,,,,,,
1702544515,1702544515,75,0,4338.077148,3847.564209,4328.974121,4229.615234,4181.282227,4289.230957,4339.102539,4396.538574,4388.589844,4262.05127,4621.410156,4477.692383,4295.769043,4247.820313,6329,4,79,,,,0,4,4,4,4,4,4,4,4,4,4,4,4,4,4,100,,,,,,,,,,,,,,,,,,,,,,,,,,,,,,,,,,,,,,,,,,,,,,,,,,,,,,,,,,,,,,,,,,,,,,,,,,,,,,,,,,,,,,,,,,,,,,,,,,,,,,,,,,,,,,,,,,,,,,,,,,,,,,,,,,,,,,
1702544515,1702544515,76,0,4347.692383,3862.94873,4342.563965,4241.922852,4182.94873,4305.769043,4350.769043,4410.897461,4398.333496,4281.794922,4616.282227,4491.666504,4290.384766,4257.94873,6711,4,79,,,,0,4,4,4,4,4,4,4,4,4,4,4,4,4,4,100,,,,,,,,,,,,,,,,,19,0,0.551496,0.281433,-0.678467,0.395386,0.961543,-0.149432,-0.113783,-17.405703,4.671755,83.908653,,,,,,,,,,,,,,,,,,,,,,,,,,,,,,,,,,,,,,,,,,,,,,,,,,,,,,,,,,,,,,,,,,,,,,,,,,,,,,,,,,,,,,,,,,,,,,,,,,,,,,,,,,
1702544515,1702544515,77,0,4347.692383,3882.435791,4340,4248.717773,4184.358887,4304.358887,4348.589844,4412.179688,4392.436035,4280.641113,4623.846191,4492.94873,4274.487305,4253.077148,6985,4,79,,,,0,4,4,4,4,4,4,4,4,4,4,4,4,4,4,100,,,,,,,,,,,,,,,,,,,,,,,,,,,,,,,,,,,,,,,,,,,,,,,,,,,,,,,,,,,,,,,,,,,,,,,,,,,,,,,,,,,,,,,,,,,,,,,,,,,,,,,,,,,,,,,,,,,,,,,,,,,,,,,,,,,,,,
1702544515,1702544515,78,0,4320.384766,3867.820557,4311.794922,4230,4182.94873,4278.846191,4326.153809,4388.205078,4366.025879,4237.94873,4598.846191,4462.692383,4239.615234,4220.128418,6057,4,79,,,,0,4,4,4,4,4,4,4,4,4,4,4,4,4,4,100,,,,,,,,,,,,,,,,,,,,,,,,,,,,,,,,,,,,,,,,,,,,,,,,,,,,,,,,,,,,,,,,,,,,,,,,,,,,,,,,,,,,,,,,,,,,,,,,,,,,,,,,,,,,,,,,,,,,,,,,,,,,,,,,,,,,,,
1702544515,1702544515,79,0,4303.717773,3854.487061,4301.025879,4216.282227,4177.179688,4270.769043,4317.307617,4376.538574,4352.820313,4214.615234,4572.05127,4445.256348,4214.102539,4201.410156,6329,4,79,,,,0,4,4,4,4,4,4,4,4,4,4,4,4,4,4,100,,,,,,,,,,,,,,,,,,,,,,,,,,,,,,,,,,,,,,,,,,,,,,,,,,,,,,,,,,,,,,,,,,,,,,,,,,,,,,,,,,,,,,,,,,,,,,,,,,,,,,,,,,,,,,,,,,,,,,,,,,,,,,,,,,,,,,
1702544515,1702544515,80,0,4302.307617,3862.179443,4309.102539,4218.077148,4165.641113,4279.743652,4324.743652,4385.512695,4357.05127,4231.153809,4575.128418,4453.077148,4203.461426,4201.922852,6711,4,79,,,,0,4,4,4,4,4,4,4,4,4,4,4,4,4,4,100,1,25,1,1,1,1,3,3,1,1,3,3,1,1,1,1,20,0,0.550691,0.281311,-0.680481,0.393127,0.942498,-0.141619,-0.124039,-17.398466,4.40458,84.234451,,,,,,,,,,,,,,,,,,,,,,,,,,,,,,,,,,,,,10.458166,1.388725,1.437153,0.639546,0.823133,21.61095,2.03668,1.569258,1.237904,1.177431,6.857474,1.269849,1.171889,0.790701,0.664537,9.188539,1.524486,0.876493,0.976483,0.699179,6.03311,1.242908,1.519511,1.394672,1.67051,7.778126,1.624977,0.73783,0.630022,0.566812,6.493249,1.844132,0.732221,0.611627,0.559343,7.390746,1.173766,1.077812,0.660469,0.537035,8.606467,1.253355,0.953663,0.932066,0.882712,6.472497,1.261798,1.526948,1.42916,2.215497,13.985448,1.80322,2.200948,1.698791,1.251538,13.524803,2.212897,2.125492,0.894308,0.947056,17.680916,2.129332,1.313393,1.639585,1.602482,13.745538,2.393254,1.828092,1.251838,2.041131
1702544515,1702544515,81,0,4301.666504,3867.94873,4310.384766,4218.589844,4172.94873,4286.025879,4332.307617,4392.563965,4363.077148,4243.589844,4583.205078,4459.102539,4198.333496,4198.974121,6985,4,79,,,,0,4,4,4,4,4,4,4,4,4,4,4,4,4,4,100,,,,,,,,,,,,,,,,,,,,,,,,,,,,,,,,,,,,,,,,,,,,,,,,,,,,,,,,,,,,,,,,,,,,,,,,,,,,,,,,,,,,,,,,,,,,,,,,,,,,,,,,,,,,,,,,,,,,,,,,,,,,,,,,,,,,,,
1702544515,1702544515,82,0,4296.410156,3868.205078,4303.461426,4218.461426,4187.05127,4287.820313,4335.128418,4390.641113,4363.974121,4238.333496,4583.589844,4451.410156,4184.102539,4192.563965,6057,4,79,,,,0,4,4,4,4,4,4,4,4,4,4,4,4,4,4,100,,,,,,,,,,,,,,,,,,,,,,,,,,,,,,,,,,,,,,,,,,,,,,,,,,,,,,,,,,,,,,,,,,,,,,,,,,,,,,,,,,,,,,,,,,,,,,,,,,,,,,,,,,,,,,,,,,,,,,,,,,,,,,,,,,,,,,
1702544515,1702544515,83,0,4283.846191,3864.871826,4294.871582,4215.769043,4175.641113,4280.128418,4328.077148,4385.512695,4360.512695,4236.282227,4563.846191,4441.025879,4160.256348,4182.692383,6329,4,79,,,,0,4,4,4,4,4,4,4,4,4,4,4,4,4,4,100,,,,,,,,,,,,,,,,,,,,,,,,,,,,,,,,,,,,,,,,,,,,,,,,,,,,,,,,,,,,,,,,,,,,,,,,,,,,,,,,,,,,,,,,,,,,,,,,,,,,,,,,,,,,,,,,,,,,,,,,,,,,,,,,,,,,,,
1702544515,1702544515,84,0,4275.128418,3866.281982,4288.846191,4212.436035,4165.512695,4265.641113,4314.230957,4381.410156,4355.128418,4245.641113,4547.563965,4439.743652,4152.436035,4171.282227,6711,4,79,,,,0,4,4,4,4,4,4,4,4,4,4,4,4,4,4,100,,,,,,,,,,,,,,,,,21,0,0.550184,0.282715,-0.680908,0.39209,0.95666,-0.146502,-0.127457,-17.558619,3.847455,84.394341,,,,,,,,,,,,,,,,,,,,,,,,,,,,,,,,,,,,,,,,,,,,,,,,,,,,,,,,,,,,,,,,,,,,,,,,,,,,,,,,,,,,,,,,,,,,,,,,,,,,,,,,,,
1702544515,1702544515,85,0,4280.128418,3879.230713,4287.436035,4215.897461,4175,4267.563965,4313.717773,4386.666504,4355.384766,4250.512695,4569.743652,4447.820313,4149.871582,4175.897461,6985,4,79,,,,0,4,4,4,4,4,4,4,4,4,4,4,4,4,4,100,,,,,,,,,,,,,,,,,,,,,,,,,,,,,,,,,,,,,,,,,,,,,,,,,,,,,,,,,,,,,,,,,,,,,,,,,,,,,,,,,,,,,,,,,,,,,,,,,,,,,,,,,,,,,,,,,,,,,,,,,,,,,,,,,,,,,,
1702544515,1702544515,86,0,4283.333496,3879.230713,4285.897461,4219.743652,4173.205078,4277.820313,4321.922852,4388.717773,4357.563965,4237.692383,4584.487305,4446.410156,4134.743652,4183.589844,6057,4,79,,,,0,4,4,4,4,4,4,4,4,4,4,4,4,4,4,100,,,,,,,,,,,,,,,,,,,,,,,,,,,,,,,,,,,,,,,,,,,,,,,,,,,,,,,,,,,,,,,,,,,,,,,,,,,,,,,,,,,,,,,,,,,,,,,,,,,,,,,,,,,,,,,,,,,,,,,,,,,,,,,,,,,,,,
1702544515,1702544515,87,0,4278.589844,3870.897461,4279.743652,4219.743652,4166.794922,4272.820313,4318.205078,4385.128418,4355.128418,4232.94873,4565.512695,4438.846191,4140.512695,4176.666504,6329,4,79,,,,0,4,4,4,4,4,4,4,4,4,4,4,4,4,4,100,,,,,,,,,,,,,,,,,,,,,,,,,,,,,,,,,,,,,,,,,,,,,,,,,,,,,,,,,,,,,,,,,,,,,,,,,,,,,,,,,,,,,,,,,,,,,,,,,,,,,,,,,,,,,,,,,,,,,,,,,,,,,,,,,,,,,,
1702544515,1702544515,88,0,4270.897461,3874.743652,4267.820313,4216.794922,4170.641113,4262.692383,4309.102539,4382.436035,4347.820313,4240.256348,4544.102539,4434.102539,4148.333496,4157.179688,6711,4,79,,,,0,4,4,4,4,4,4,4,4,4,4,4,4,4,4,100,,,,,,,,,,,,,,,,,22,0,0.550036,0.285278,-0.679993,0.392029,0.963497,-0.161641,-0.13234,-17.769424,3.596043,84.521576,,,,,,,,,,,,,,,,,,,,,,,,,,,,,,,,,,,,,,,,,,,,,,,,,,,,,,,,,,,,,,,,,,,,,,,,,,,,,,,,,,,,,,,,,,,,,,,,,,,,,,,,,,
1702544515,1702544515,89,0,4258.461426,3876.794922,4257.436035,4215.769043,4165.769043,4258.974121,4306.666504,4374.358887,4335.512695,4232.05127,4533.974121,4424.871582,4113.589844,4139.102539,6985,4,79,,,,0,4,4,4,4,4,4,4,4,4,4,4,4,4,4,100,,,,,,,,,,,,,,,,,,,,,,,,,,,,,,,,,,,,,,,,,,,,,,,,,,,,,,,,,,,,,,,,,,,,,,,,,,,,,,,,,,,,,,,,,,,,,,,,,,,,,,,,,,,,,,,,,,,,,,,,,,,,,,,,,,,,,,
1702544515,1702544515,90,0,4263.461426,3885.897461,4265.256348,4228.205078,4167.692383,4267.692383,4314.487305,4376.538574,4341.666504,4234.230957,4548.589844,4432.563965,4107.307617,4140.384766,6057,4,79,,,,0,4,4,4,4,4,4,4,4,4,4,4,4,4,4,100,,,,,,,,,,,,,,,,,,,,,,,,,,,,,,,,,,,,,,,,,,,,,,,,,,,,,,,,,,,,,,,,,,,,,,,,,,,,,,,,,,,,,,,,,,,,,,,,,,,,,,,,,,,,,,,,,,,,,,,,,,,,,,,,,,,,,,
1702544515,1702544515,91,0,4267.94873,3896.538574,4265.641113,4235.256348,4175.128418,4264.230957,4310.897461,4382.563965,4345,4240.641113,4568.333496,4438.589844,4129.487305,4142.94873,6329,4,79,,,,0,4,4,4,4,4,4,4,4,4,4,4,4,4,4,100,,,,,,,,,,,,,,,,,,,,,,,,,,,,,,,,,,,,,,,,,,,,,,,,,,,,,,,,,,,,,,,,,,,,,,,,,,,,,,,,,,,,,,,,,,,,,,,,,,,,,,,,,,,,,,,,,,,,,,,,,,,,,,,,,,,,,,
1702544515,1702544515,92,0,4246.025879,3879.358887,4240.256348,4216.282227,4153.974121,4240.128418,4288.205078,4366.666504,4320.384766,4216.282227,4536.282227,4413.974121,4093.589844,4125.128418,6711,4,79,,,,0,4,4,4,4,4,4,4,4,4,4,4,4,4,4,100,,,,,,,,,,,,,,,,,23,0,0.549892,0.287903,-0.67865,0.392639,0.989867,-0.160176,-0.126969,-17.942482,3.603105,84.81942,,,,,,,,,,,,,,,,,,,,,,,,,,,,,,,,,,,,,,,,,,,,,,,,,,,,,,,,,,,,,,,,,,,,,,,,,,,,,,,,,,,,,,,,,,,,,,,,,,,,,,,,,,
1702544515,1702544515,93,0,4233.846191,3862.94873,4230.641113,4209.615234,4136.922852,4234.102539,4280.512695,4354.871582,4309.230957,4202.94873,4495.897461,4402.179688,4049.230713,4110.128418,6985,4,79,,,,0,4,4,4,4,4,4,4,4,4,4,4,4,4,4,100,,,,,,,,,,,,,,,,,,,,,,,,,,,,,,,,,,,,,,,,,,,,,,,,,,,,,,,,,,,,,,,,,,,,,,,,,,,,,,,,,,,,,,,,,,,,,,,,,,,,,,,,,,,,,,,,,,,,,,,,,,,,,,,,,,,,,,
1702544515,1702544515,94,0,4250.641113,3888.974365,4245,4233.077148,4160.256348,4246.538574,4295,4368.589844,4325.384766,4231.538574,4522.307617,4421.794922,4069.615479,4122.94873,6057,4,79,,,,0,4,4,4,4,4,4,4,4,4,4,4,4,4,4,100,,,,,,,,,,,,,,,,,,,,,,,,,,,,,,,,,,,,,,,,,,,,,,,,,,,,,,,,,,,,,,,,,,,,,,,,,,,,,,,,,,,,,,,,,,,,,,,,,,,,,,,,,,,,,,,,,,,,,,,,,,,,,,,,,,,,,,
1702544515,1702544515,95,0,4253.974121,3905.256348,4239.487305,4236.922852,4173.589844,4242.692383,4299.615234,4374.871582,4329.871582,4239.102539,4553.077148,4425.641113,4087.307617,4129.743652,6329,4,79,,,,0,4,4,4,4,4,4,4,4,4,4,4,4,4,4,100,,,,,,,,,,,,,,,,,,,,,,,,,,,,,,,,,,,,,,,,,,,,,,,,,,,,,,,,,,,,,,,,,,,,,,,,,,,,,,,,,,,,,,,,,,,,,,,,,,,,,,,,,,,,,,,,,,,,,,,,,,,,,,,,,,,,,,
1702544515,1702544515,96,0,4230.512695,3873.333252,4217.563965,4211.922852,4158.077148,4231.410156,4291.794922,4363.846191,4319.230957,4211.538574,4536.410156,4405.256348,4056.666748,4106.538574,6711,4,79,,,,0,4,4,4,4,4,4,4,4,4,4,4,4,4,4,100,,,,,,,,,,,,,,,,,24,0,0.549739,0.290466,-0.677185,0.393494,0.966915,-0.167501,-0.130875,-18.0149,3.526128,85.004143,,,,,,,,,,,,,,,,,,,,,,,,,,,,,,,,,,,,,21.536594,2.233698,1.963985,0.730816,0.846014,38.861404,3.103075,2.081917,1.251637,1.298211,11.076591,1.905283,1.567983,0.967581,0.719257,13.472718,2.242631,1.301466,1.040632,0.835525,8.794182,2.028472,1.871362,1.507064,1.754421,11.177108,2.510374,0.994352,0.697536,0.679877,10.240052,2.835372,0.8813,0.820141,0.602464,10.985092,1.706312,1.244333,0.817464,0.563336,12.91328,1.686422,1.078977,1.122685,0.902137,11.457681,1.563027,1.783962,1.535479,2.215279,25.700413,2.481044,2.402592,1.924391,1.380299,22.074984,3.187797,2.736926,1.146589,1.020401,41.145367,3.422841,1.645018,2.02213,1.646319,28.501987,3.373466,2.283657,1.511178,1.941249
1702544515,1702544515,97,0,4214.743652,3858.076904,4209.871582,4197.05127,4147.820313,4228.717773,4285.128418,4357.692383,4312.05127,4200.128418,4512.94873,4395.641113,4031.410156,4083.461426,6985,4,79,,,,0,4,4,4,4,4,4,4,4,4,4,4,4,4,4,100,,,,,,,,,,,,,,,,,,,,,,,,,,,,,,,,,,,,,,,,,,,,,,,,,,,,,,,,,,,,,,,,,,,,,,,,,,,,,,,,,,,,,,,,,,,,,,,,,,,,,,,,,,,,,,,,,,,,,,,,,,,,,,,,,,,,,,
1702544515,1702544515,98,0,4214.358887,3882.564209,4203.846191,4201.666504,4138.974121,4219.487305,4276.538574,4350.256348,4297.94873,4198.974121,4501.410156,4392.179688,4024.871826,4077.94873,6057,4,79,,,,0,4,4,4,4,4,4,4,4,4,4,4,4,4,4,100,,,,,,,,,,,,,,,,,,,,,,,,,,,,,,,,,,,,,,,,,,,,,,,,,,,,,,,,,,,,,,,,,,,,,,,,,,,,,,,,,,,,,,,,,,,,,,,,,,,,,,,,,,,,,,,,,,,,,,,,,,,,,,,,,,,,,,
1702544515,1702544515,99,0,4223.077148,3909.358887,4198.077148,4220.128418,4139.230957,4210.897461,4273.077148,4346.025879,4294.358887,4204.102539,4503.846191,4391.794922,4028.718018,4087.179443,6329,4,79,,,,0,4,4,4,4,4,4,4,4,4,4,4,4,4,4,100,,,,,,,,,,,,,,,,,,,,,,,,,,,,,,,,,,,,,,,,,,,,,,,,,,,,,,,,,,,,,,,,,,,,,,,,,,,,,,,,,,,,,,,,,,,,,,,,,,,,,,,,,,,,,,,,,,,,,,,,,,,,,,,,,,,,,,
1702544515,1702544515,100,0,4234.487305,3917.179443,4205,4232.179688,4157.436035,4215.769043,4279.871582,4353.846191,4307.94873,4225.384766,4513.717773,4400.897461,4037.435791,4098.717773,6711,4,79,,,,0,4,4,4,4,4,4,4,4,4,4,4,4,4,4,100,,,,,,,,,,,,,,,,,25,0,0.549423,0.292786,-0.675659,0.394836,0.962031,-0.186058,-0.13527,-17.930077,3.506849,85.153725,,,,,,,,,,,,,,,,,,,,,,,,,,,,,,,,,,,,,,,,,,,,,,,,,,,,,,,,,,,,,,,,,,,,,,,,,,,,,,,,,,,,,,,,,,,,,,,,,,,,,,,,,,
1702544515,1702544515,101,0,4231.538574,3915.384521,4206.410156,4225.769043,4158.333496,4218.333496,4280.897461,4358.974121,4308.077148,4228.333496,4500.512695,4405.897461,4028.461426,4090.512939,6985,4,79,,,,0,4,4,4,4,4,4,4,4,4,4,4,4,4,4,100,,,,,,,,,,,,,,,,,,,,,,,,,,,,,,,,,,,,,,,,,,,,,,,,,,,,,,,,,,,,,,,,,,,,,,,,,,,,,,,,,,,,,,,,,,,,,,,,,,,,,,,,,,,,,,,,,,,,,,,,,,,,,,,,,,,,,,
1702544515,1702544515,102,0,4218.461426,3904.358887,4193.717773,4216.794922,4144.358887,4209.743652,4270.384766,4352.436035,4295.897461,4206.538574,4479.230957,4396.282227,4012.94873,4071.281982,6057,4,79,,,,0,4,4,4,4,4,4,4,4,4,4,4,4,4,4,100,,,,,,,,,,,,,,,,,,,,,,,,,,,,,,,,,,,,,,,,,,,,,,,,,,,,,,,,,,,,,,,,,,,,,,,,,,,,,,,,,,,,,,,,,,,,,,,,,,,,,,,,,,,,,,,,,,,,,,,,,,,,,,,,,,,,,,
1702544515,1702544515,103,0,4211.794922,3893.205078,4181.922852,4216.538574,4146.410156,4203.205078,4259.871582,4338.846191,4283.589844,4192.307617,4483.974121,4378.717773,4003.718018,4066.153809,6329,4,79,,,,0,4,4,4,4,4,4,4,4,4,4,4,4,4,4,100,,,,,,,,,,,,,,,,,,,,,,,,,,,,,,,,,,,,,,,,,,,,,,,,,,,,,,,,,,,,,,,,,,,,,,,,,,,,,,,,,,,,,,,,,,,,,,,,,,,,,,,,,,,,,,,,,,,,,,,,,,,,,,,,,,,,,,
1702544515,1702544515,104,0,4218.333496,3906.025635,4185,4228.333496,4155.128418,4212.94873,4270.641113,4339.871582,4287.820313,4207.692383,4503.717773,4380.384766,4005.128174,4080.769287,6711,4,79,,,,0,4,4,4,4,4,4,4,4,4,4,4,4,4,4,100,,,,,,,,,,,,,,,,,26,0,0.549236,0.293579,-0.67511,0.395447,0.96838,-0.167501,-0.129899,-18.053736,3.42283,85.321686,,,,,,,,,,,,,,,,,,,,,,,,,,,,,,,,,,,,,,,,,,,,,,,,,,,,,,,,,,,,,,,,,,,,,,,,,,,,,,,,,,,,,,,,,,,,,,,,,,,,,,,,,,
1702544515,1702544515,105,0,4215.897461,3910.769287,4182.179688,4234.871582,4153.717773,4215.769043,4278.589844,4346.922852,4294.615234,4217.05127,4497.05127,4385.512695,4005.512939,4081.538574,6985,4,79,,,,0,4,4,4,4,4,4,4,4,4,4,4,4,4,4,100,,,,,,,,,,,,,,,,,,,,,,,,,,,,,,,,,,,,,,,,,,,,,,,,,,,,,,,,,,,,,,,,,,,,,,,,,,,,,,,,,,,,,,,,,,,,,,,,,,,,,,,,,,,,,,,,,,,,,,,,,,,,,,,,,,,,,,
1702544515,1702544515,106,0,4203.846191,3897.564209,4169.230957,4226.153809,4148.846191,4208.717773,4268.333496,4342.179688,4283.461426,4206.922852,4475.769043,4373.589844,4003.718018,4062.179443,6057,4,79,,,,0,4,4,4,4,4,4,4,4,4,4,4,4,4,4,100,,,,,,,,,,,,,,,,,,,,,,,,,,,,,,,,,,,,,,,,,,,,,,,,,,,,,,,,,,,,,,,,,,,,,,,,,,,,,,,,,,,,,,,,,,,,,,,,,,,,,,,,,,,,,,,,,,,,,,,,,,,,,,,,,,,,,,
1702544515,1702544515,107,0,4196.666504,3889.871826,4167.307617,4218.974121,4144.230957,4212.179688,4269.743652,4339.615234,4275.512695,4205.256348,4473.333496,4370.897461,3997.692383,4055.128174,6329,4,79,,,,0,4,4,4,4,4,4,4,4,4,4,4,4,4,4,100,,,,,,,,,,,,,,,,,,,,,,,,,,,,,,,,,,,,,,,,,,,,,,,,,,,,,,,,,,,,,,,,,,,,,,,,,,,,,,,,,,,,,,,,,,,,,,,,,,,,,,,,,,,,,,,,,,,,,,,,,,,,,,,,,,,,,,
1702544515,1702544515,108,0,4183.461426,3883.718018,4160,4212.820313,4137.692383,4201.282227,4269.102539,4335.769043,4272.563965,4199.358887,4466.153809,4365.897461,3979.871826,4047.692383,6711,4,79,,,,0,4,4,4,4,4,4,4,4,4,4,4,4,4,4,100,,,,,,,,,,,,,,,,,27,0,0.549073,0.294922,-0.674011,0.396545,0.97424,-0.170431,-0.119155,-17.965029,3.380547,85.322853,,,,,,,,,,,,,,,,,,,,,,,,,,,,,,,,,,,,,,,,,,,,,,,,,,,,,,,,,,,,,,,,,,,,,,,,,,,,,,,,,,,,,,,,,,,,,,,,,,,,,,,,,,
1702544516,1702544516,109,0,4171.922852,3878.718018,4144.230957,4207.820313,4133.333496,4183.333496,4255.769043,4325,4260.769043,4187.692383,4450.641113,4347.179688,3972.307617,4032.692383,6985,4,79,,,,0,4,4,4,4,4,4,4,4,4,4,4,4,4,4,100,,,,,,,,,,,,,,,,,,,,,,,,,,,,,,,,,,,,,,,,,,,,,,,,,,,,,,,,,,,,,,,,,,,,,,,,,,,,,,,,,,,,,,,,,,,,,,,,,,,,,,,,,,,,,,,,,,,,,,,,,,,,,,,,,,,,,,
1702544516,1702544516,110,0,4191.025879,3897.179443,4158.333496,4229.487305,4144.743652,4204.487305,4271.538574,4338.974121,4273.205078,4207.692383,4468.333496,4362.563965,3993.205078,4049.230713,6057,4,79,,,,0,4,4,4,4,4,4,4,4,4,4,4,4,4,4,100,,,,,,,,,,,,,,,,,,,,,,,,,,,,,,,,,,,,,,,,,,,,,,,,,,,,,,,,,,,,,,,,,,,,,,,,,,,,,,,,,,,,,,,,,,,,,,,,,,,,,,,,,,,,,,,,,,,,,,,,,,,,,,,,,,,,,,
1702544516,1702544516,111,0,4211.025879,3930.256348,4181.410156,4249.615234,4161.282227,4227.563965,4293.077148,4365.128418,4301.153809,4237.563965,4495,4394.358887,4012.820557,4074.230713,6329,4,79,,,,0,4,4,4,4,4,4,4,4,4,4,4,4,4,4,100,,,,,,,,,,,,,,,,,,,,,,,,,,,,,,,,,,,,,,,,,,,,,,,,,,,,,,,,,,,,,,,,,,,,,,,,,,,,,,,,,,,,,,,,,,,,,,,,,,,,,,,,,,,,,,,,,,,,,,,,,,,,,,,,,,,,,,
1702544516,1702544516,112,0,4188.589844,3929.102539,4162.05127,4226.025879,4153.333496,4207.692383,4273.974121,4350,4285.512695,4225.256348,4475.256348,4374.871582,3999.871826,4052.94873,6711,4,79,,,,0,4,4,4,4,4,4,4,4,4,4,4,4,4,4,100,,,,,,,,,,,,,,,,,28,0,0.548641,0.295837,-0.673279,0.397705,0.943963,-0.183616,-0.113783,-18.068525,3.242493,85.340569,,,,,,,,,,,,,,,,,,,,,,,,,,,,,,,,,,,,,40.2388,3.354158,2.489602,0.849081,0.84396,68.999992,4.40699,2.812868,1.21341,1.372117,17.735205,2.748132,1.946779,1.11638,0.762572,21.033152,3.110502,1.724414,1.110304,0.971233,12.219983,2.961414,2.160073,1.620207,1.73217,15.926852,3.541394,1.291482,0.785381,0.811633,15.513179,4.01551,1.028711,1.038182,0.658661,16.34384,2.486835,1.402267,0.964771,0.590814,19.907305,2.357061,1.158354,1.318846,0.907436,20.297861,2.179517,2.002242,1.726893,2.133271,46.382153,3.704838,2.647262,2.271721,1.555612,35.194942,4.562207,3.304687,1.408418,1.083729,84.352013,5.454998,2.167114,2.511312,1.682598,52.896378,4.713789,2.716895,1.820901,1.861077
1702544516,1702544516,113,0,4162.436035,3905.128174,4136.538574,4207.94873,4132.563965,4190.769043,4253.717773,4323.717773,4261.794922,4207.692383,4454.230957,4344.743652,3982.820557,4026.794922,6985,4,79,,,,0,4,4,4,4,4,4,4,4,4,4,4,4,4,4,100,,,,,,,,,,,,,,,,,,,,,,,,,,,,,,,,,,,,,,,,,,,,,,,,,,,,,,,,,,,,,,,,,,,,,,,,,,,,,,,,,,,,,,,,,,,,,,,,,,,,,,,,,,,,,,,,,,,,,,,,,,,,,,,,,,,,,,
1702544516,1702544516,114,0,4176.922852,3911.410156,4145.384766,4230.256348,4140,4203.717773,4264.230957,4334.230957,4274.615234,4214.487305,4459.487305,4359.615234,3990.384521,4042.94873,6057,4,79,,,,0,4,4,4,4,4,4,4,4,4,4,4,4,4,4,100,,,,,,,,,,,,,,,,,,,,,,,,,,,,,,,,,,,,,,,,,,,,,,,,,,,,,,,,,,,,,,,,,,,,,,,,,,,,,,,,,,,,,,,,,,,,,,,,,,,,,,,,,,,,,,,,,,,,,,,,,,,,,,,,,,,,,,
1702544516,1702544516,115,0,4199.102539,3949.487061,4159.487305,4249.743652,4160.256348,4219.743652,4280.512695,4348.974121,4286.025879,4223.461426,4458.974121,4380.641113,4006.025635,4065.641113,6329,4,79,,,,0,4,4,4,4,4,4,4,4,4,4,4,4,4,4,100,,,,,,,,,,,,,,,,,,,,,,,,,,,,,,,,,,,,,,,,,,,,,,,,,,,,,,,,,,,,,,,,,,,,,,,,,,,,,,,,,,,,,,,,,,,,,,,,,,,,,,,,,,,,,,,,,,,,,,,,,,,,,,,,,,,,,,
1702544516,1702544516,116,0,4195.384766,3967.564209,4153.333496,4241.666504,4149.102539,4220.512695,4279.358887,4341.410156,4275.384766,4221.410156,4461.410156,4374.102539,4015.641113,4063.974365,6711,4,79,,,,0,4,4,4,4,4,4,4,4,4,4,4,4,4,4,100,,,,,,,,,,,,,,,,,29,0,0.548385,0.296692,-0.672424,0.398865,0.966427,-0.199731,-0.118178,-18.078341,3.151577,85.273178,,,,,,,,,,,,,,,,,,,,,,,,,,,,,,,,,,,,,,,,,,,,,,,,,,,,,,,,,,,,,,,,,,,,,,,,,,,,,,,,,,,,,,,,,,,,,,,,,,,,,,,,,,
1702544516,1702544516,117,0,4179.358887,3955.769287,4136.153809,4228.333496,4133.461426,4209.102539,4265.256348,4332.05127,4265,4203.205078,4452.820313,4357.179688,4000.512939,4042.564209,6985,4,79,,,,0,4,4,4,4,4,4,4,4,4,4,4,4,4,4,100,,,,,,,,,,,,,,,,,,,,,,,,,,,,,,,,,,,,,,,,,,,,,,,,,,,,,,,,,,,,,,,,,,,,,,,,,,,,,,,,,,,,,,,,,,,,,,,,,,,,,,,,,,,,,,,,,,,,,,,,,,,,,,,,,,,,,,
1702544516,1702544516,118,0,4179.487305,3963.846191,4130.256348,4237.179688,4153.077148,4206.025879,4263.589844,4334.743652,4267.563965,4204.615234,4434.615234,4353.333496,3987.435791,4037.820557,6057,4,79,,,,0,4,4,4,4,4,4,4,4,4,4,4,4,4,4,100,,,,,,,,,,,,,,,,,,,,,,,,,,,,,,,,,,,,,,,,,,,,,,,,,,,,,,,,,,,,,,,,,,,,,,,,,,,,,,,,,,,,,,,,,,,,,,,,,,,,,,,,,,,,,,,,,,,,,,,,,,,,,,,,,,,,,,
1702544516,1702544516,119,0,4196.282227,4000.128174,4139.487305,4263.461426,4177.820313,4218.077148,4279.871582,4340.769043,4276.922852,4235.897461,4451.410156,4368.205078,4013.461426,4066.153809,6329,4,79,,,,0,4,4,4,4,4,4,4,4,4,4,4,4,4,4,100,,,,,,,,,,,,,,,,,,,,,,,,,,,,,,,,,,,,,,,,,,,,,,,,,,,,,,,,,,,,,,,,,,,,,,,,,,,,,,,,,,,,,,,,,,,,,,,,,,,,,,,,,,,,,,,,,,,,,,,,,,,,,,,,,,,,,,
1702544516,1702544516,120,0,4204.102539,4023.846191,4140.128418,4273.846191,4171.153809,4225.256348,4286.282227,4345.769043,4281.922852,4245.897461,4462.307617,4377.436035,4036.025635,4086.794922,6711,4,79,,,,0,4,4,4,4,4,4,4,4,4,4,4,4,4,4,100,,,,,,,,,,,,,,,,,30,0,0.548445,0.296814,-0.671814,0.399719,0.968868,-0.170431,-0.112807,-18.003839,3.153086,85.212524,,,,,,,,,,,,,,,,,,,,,,,,,,,,,,,,,,,,,,,,,,,,,,,,,,,,,,,,,,,,,,,,,,,,,,,,,,,,,,,,,,,,,,,,,,,,,,,,,,,,,,,,,,
1702544516,1702544516,121,0,4190,4016.025635,4124.358887,4263.974121,4157.179688,4218.717773,4275.512695,4345.512695,4277.563965,4226.025879,4425.384766,4363.974121,4019.102539,4070.384521,6985,4,79,,,,0,4,4,4,4,4,4,4,4,4,4,4,4,4,4,100,,,,,,,,,,,,,,,,,,,,,,,,,,,,,,,,,,,,,,,,,,,,,,,,,,,,,,,,,,,,,,,,,,,,,,,,,,,,,,,,,,,,,,,,,,,,,,,,,,,,,,,,,,,,,,,,,,,,,,,,,,,,,,,,,,,,,,
1702544516,1702544516,122,0,4179.743652,4004.487061,4117.820313,4260,4159.358887,4212.692383,4269.487305,4339.358887,4272.820313,4225,4416.794922,4353.974121,4011.923096,4055.128174,6057,4,79,,,,0,4,4,4,4,4,4,4,4,4,4,4,4,4,4,100,,,,,,,,,,,,,,,,,,,,,,,,,,,,,,,,,,,,,,,,,,,,,,,,,,,,,,,,,,,,,,,,,,,,,,,,,,,,,,,,,,,,,,,,,,,,,,,,,,,,,,,,,,,,,,,,,,,,,,,,,,,,,,,,,,,,,,
1702544516,1702544516,123,0,4192.692383,4016.794922,4127.307617,4267.436035,4167.436035,4221.153809,4279.230957,4341.025879,4274.102539,4243.461426,4448.846191,4365.897461,4031.025635,4073.205078,6329,4,79,,,,0,4,4,4,4,4,4,4,4,4,4,4,4,4,4,100,,,,,,,,,,,,,,,,,,,,,,,,,,,,,,,,,,,,,,,,,,,,,,,,,,,,,,,,,,,,,,,,,,,,,,,,,,,,,,,,,,,,,,,,,,,,,,,,,,,,,,,,,,,,,,,,,,,,,,,,,,,,,,,,,,,,,,
1702544516,1702544516,124,0,4207.05127,4038.718018,4132.94873,4281.794922,4178.589844,4235.897461,4291.666504,4351.666504,4283.589844,4251.410156,4446.410156,4379.102539,4037.564209,4097.307617,6711,4,79,,,,0,4,4,4,4,4,4,4,4,4,4,4,4,4,4,100,,,,,,,,,,,,,,,,,31,0,0.548579,0.29657,-0.671631,0.400024,0.975217,-0.179221,-0.11183,-17.920122,3.22111,85.224609,,,,,,,,,,,,,,,,,,,,,,,,,,,,,,,,,,,,,,,,,,,,,,,,,,,,,,,,,,,,,,,,,,,,,,,,,,,,,,,,,,,,,,,,,,,,,,,,,,,,,,,,,,
1702544516,1702544516,125,0,4205.512695,4045.897461,4126.025879,4295.256348,4186.794922,4232.436035,4288.974121,4353.717773,4285.897461,4245.897461,4428.205078,4370.128418,4036.923096,4096.153809,6985,4,79,,,,0,4,4,4,4,4,4,4,4,4,4,4,4,4,4,100,,,,,,,,,,,,,,,,,,,,,,,,,,,,,,,,,,,,,,,,,,,,,,,,,,,,,,,,,,,,,,,,,,,,,,,,,,,,,,,,,,,,,,,,,,,,,,,,,,,,,,,,,,,,,,,,,,,,,,,,,,,,,,,,,,,,,,
1702544516,1702544516,126,0,4200.897461,4046.281982,4116.153809,4293.974121,4182.94873,4217.692383,4276.153809,4342.692383,4272.436035,4240.384766,4431.282227,4355.128418,4046.538574,4083.461426,6057,4,79,,,,0,4,4,4,4,4,4,4,4,4,4,4,4,4,4,100,,,,,,,,,,,,,,,,,,,,,,,,,,,,,,,,,,,,,,,,,,,,,,,,,,,,,,,,,,,,,,,,,,,,,,,,,,,,,,,,,,,,,,,,,,,,,,,,,,,,,,,,,,,,,,,,,,,,,,,,,,,,,,,,,,,,,,
1702544516,1702544516,127,0,4197.179688,4044.743652,4112.436035,4283.717773,4174.102539,4211.538574,4268.333496,4334.102539,4263.974121,4249.358887,4429.615234,4353.717773,4051.025635,4078.333252,79,4,79,,,,0,4,4,4,4,4,4,4,4,4,4,4,4,4,4,100,,,,,,,,,,,,,,,,,,,,,,,,,,,,,,,,,,,,,,,,,,,,,,,,,,,,,,,,,,,,,,,,,,,,,,,,,,,,,,,,,,,,,,,,,,,,,,,,,,,,,,,,,,,,,,,,,,,,,,,,,,,,,,,,,,,,,,
1702544516,1702544516,0,0,4190.897461,4035.897461,4106.922852,4278.589844,4172.820313,4207.692383,4267.05127,4330.769043,4266.025879,4251.538574,4411.666504,4353.333496,4041.794922,4067.94873,5414,4,79,,,,0,4,4,4,4,4,4,4,4,4,4,4,4,4,4,100,,,,,,,,,,,,,,,,,0,0,0.548679,0.296082,-0.671692,0.400146,0.972775,-0.173361,-0.116713,-17.728109,3.099,85.485481,,,,,,,,,,,,,,,,,,,,,,,,,,,,,,,,,,,,,63.010872,4.332479,2.851603,0.972485,0.834783,108.54377,5.588386,3.6531,1.142136,1.38818,25.075384,3.465213,2.176008,1.195318,0.79769,30.215506,3.795279,2.039752,1.170153,1.077563,15.605203,3.702854,2.306832,1.704892,1.606579,20.801315,4.32786,1.531276,0.867774,0.95702,20.727007,4.959036,1.116119,1.205457,0.735214,21.716829,3.222262,1.466699,1.060754,0.63084,27.690287,2.994385,1.145469,1.47212,0.906342,31.789454,2.849303,2.096978,1.951747,1.998389,71.727493,4.99988,2.822123,2.614996,1.810715,49.854229,5.776153,3.602726,1.61751,1.140836,144.211197,7.651273,2.757155,2.999675,1.730899,84.095978,5.876463,2.980569,2.127818,1.815143
1702544516,1702544516,1,0,4177.563965,4031.025635,4087.94873,4270.897461,4170.641113,4201.538574,4261.025879,4319.615234,4254.487305,4236.153809,4390.769043,4332.179688,4022.435791,4049.743652,5527,4,79,,,,0,4,4,4,4,4,4,4,4,4,4,4,4,4,4,100,,,,,,,,,,,,,,,,,,,,,,,,,,,,,,,,,,,,,,,,,,,,,,,,,,,,,,,,,,,,,,,,,,,,,,,,,,,,,,,,,,,,,,,,,,,,,,,,,,,,,,,,,,,,,,,,,,,,,,,,,,,,,,,,,,,,,,
1702544516,1702544516,2,0,4163.846191,4033.974365,4065,4260.128418,4163.974121,4199.615234,4252.692383,4305.769043,4234.487305,4226.282227,4378.205078,4304.487305,4011.153809,4040.897461,5457,4,79,,,,0,4,4,4,4,4,4,4,4,4,4,4,4,4,4,100,,,,,,,,,,,,,,,,,,,,,,,,,,,,,,,,,,,,,,,,,,,,,,,,,,,,,,,,,,,,,,,,,,,,,,,,,,,,,,,,,,,,,,,,,,,,,,,,,,,,,,,,,,,,,,,,,,,,,,,,,,,,,,,,,,,,,,
1702544516,1702544516,3,0,4165,4042.435791,4059.487061,4263.717773,4169.615234,4201.153809,4253.717773,4307.563965,4237.307617,4232.05127,4377.436035,4304.358887,4027.179443,4044.487061,5417,4,79,,,,0,4,4,4,4,4,4,4,4,4,4,4,4,4,4,100,,,,,,,,,,,,,,,,,,,,,,,,,,,,,,,,,,,,,,,,,,,,,,,,,,,,,,,,,,,,,,,,,,,,,,,,,,,,,,,,,,,,,,,,,,,,,,,,,,,,,,,,,,,,,,,,,,,,,,,,,,,,,,,,,,,,,,
1702544516,1702544516,4,0,4171.922852,4050.769287,4062.820557,4267.94873,4167.307617,4202.307617,4255.256348,4312.692383,4246.538574,4233.974121,4374.743652,4310.897461,4040.256348,4050.512939,5364,4,79,,,,0,4,4,4,4,4,4,4,4,4,4,4,4,4,4,100,,,,,,,,,,,,,,,,,1,0,0.548764,0.295593,-0.671692,0.400391,0.963497,-0.18557,-0.112807,-17.638632,3.155766,85.653595,,,,,,,,,,,,,,,,,,,,,,,,,,,,,,,,,,,,,,,,,,,,,,,,,,,,,,,,,,,,,,,,,,,,,,,,,,,,,,,,,,,,,,,,,,,,,,,,,,,,,,,,,,
1702544516,1702544516,5,0,4161.282227,4047.179443,4053.205078,4258.717773,4148.974121,4196.153809,4243.974121,4301.153809,4230.128418,4217.179688,4352.692383,4296.922852,4013.846191,4045.512939,5320,4,79,,,,0,4,4,4,4,4,4,4,4,4,4,4,4,4,4,100,,,,,,,,,,,,,,,,,,,,,,,,,,,,,,,,,,,,,,,,,,,,,,,,,,,,,,,,,,,,,,,,,,,,,,,,,,,,,,,,,,,,,,,,,,,,,,,,,,,,,,,,,,,,,,,,,,,,,,,,,,,,,,,,,,,,,,
1702544516,1702544516,6,0,4161.666504,4050.256348,4051.153809,4267.307617,4153.461426,4199.871582,4245.256348,4298.974121,4226.666504,4213.717773,4348.846191,4298.077148,4011.410156,4051.794922,5253,4,79,,,,0,4,4,4,4,4,4,4,4,4,4,4,4,4,4,100,,,,,,,,,,,,,,,,,,,,,,,,,,,,,,,,,,,,,,,,,,,,,,,,,,,,,,,,,,,,,,,,,,,,,,,,,,,,,,,,,,,,,,,,,,,,,,,,,,,,,,,,,,,,,,,,,,,,,,,,,,,,,,,,,,,,,,
1702544516,1702544516,7,0,4180.128418,4068.718018,4061.923096,4284.358887,4176.538574,4215,4261.025879,4310.128418,4245.769043,4233.333496,4377.179688,4318.205078,4052.05127,4076.666748,5083,4,79,,,,0,4,4,4,4,4,4,4,4,4,4,4,4,4,4,100,,,,,,,,,,,,,,,,,,,,,,,,,,,,,,,,,,,,,,,,,,,,,,,,,,,,,,,,,,,,,,,,,,,,,,,,,,,,,,,,,,,,,,,,,,,,,,,,,,,,,,,,,,,,,,,,,,,,,,,,,,,,,,,,,,,,,,
1702544516,1702544516,8,0,4173.205078,4065.256348,4054.487061,4268.974121,4174.487305,4202.820313,4254.230957,4298.974121,4234.487305,4232.563965,4376.410156,4307.436035,4047.94873,4074.487061,5350,4,79,,,,0,4,4,4,4,4,4,4,4,4,4,4,4,4,4,100,,,,,,,,,,,,,,,,,2,0,0.548869,0.295288,-0.671631,0.400574,0.975705,-0.184593,-0.118667,-17.508102,3.173523,85.571571,,,,,,,,,,,,,,,,,,,,,,,,,,,,,,,,,,,,,,,,,,,,,,,,,,,,,,,,,,,,,,,,,,,,,,,,,,,,,,,,,,,,,,,,,,,,,,,,,,,,,,,,,,
1702544516,1702544516,9,0,4155.512695,4046.410156,4043.589844,4250.769043,4164.102539,4184.358887,4241.282227,4283.974121,4213.461426,4218.333496,4341.153809,4288.846191,4018.333252,4054.358887,5367,4,79,,,,0,4,4,4,4,4,4,4,4,4,4,4,4,4,4,100,,,,,,,,,,,,,,,,,,,,,,,,,,,,,,,,,,,,,,,,,,,,,,,,,,,,,,,,,,,,,,,,,,,,,,,,,,,,,,,,,,,,,,,,,,,,,,,,,,,,,,,,,,,,,,,,,,,,,,,,,,,,,,,,,,,,,,
1702544516,1702544516,10,0,4165,4051.410156,4053.846191,4265.256348,4172.05127,4195.512695,4246.538574,4290.769043,4222.820313,4226.922852,4339.358887,4301.538574,4040.256348,4068.333252,6082,4,79,,,,0,4,4,4,4,4,4,4,4,4,4,4,4,4,4,100,,,,,,,,,,,,,,,,,,,,,,,,,,,,,,,,,,,,,,,,,,,,,,,,,,,,,,,,,,,,,,,,,,,,,,,,,,,,,,,,,,,,,,,,,,,,,,,,,,,,,,,,,,,,,,,,,,,,,,,,,,,,,,,,,,,,,,
1702544516,1702544516,11,0,4183.846191,4066.025635,4070.384521,4281.025879,4173.717773,4200.897461,4250.641113,4295.897461,4229.358887,4235.641113,4373.461426,4315.641113,4071.666748,4095.769287,6347,4,79,,,,0,4,4,4,4,4,4,4,4,4,4,4,4,4,4,100,,,,,,,,,,,,,,,,,,,,,,,,,,,,,,,,,,,,,,,,,,,,,,,,,,,,,,,,,,,,,,,,,,,,,,,,,,,,,,,,,,,,,,,,,,,,,,,,,,,,,,,,,,,,,,,,,,,,,,,,,,,,,,,,,,,,,,
1702544516,1702544516,12,0,4188.333496,4070,4075.512939,4279.615234,4173.333496,4190.897461,4249.871582,4292.563965,4223.461426,4229.230957,4376.538574,4318.589844,4062.564209,4097.692383,6768,4,79,,,,0,4,4,4,4,4,4,4,4,4,4,4,4,4,4,100,,,,,,,,,,,,,,,,,3,0,0.549174,0.294556,-0.671631,0.400696,0.967403,-0.176291,-0.115248,-17.440626,3.172837,85.597748,,,,,,,,,,,,,,,,,,,,,,,,,,,,,,,,,,,,,,,,,,,,,,,,,,,,,,,,,,,,,,,,,,,,,,,,,,,,,,,,,,,,,,,,,,,,,,,,,,,,,,,,,,
1702544516,1702544516,13,0,4184.615234,4080.641113,4071.025635,4279.871582,4183.077148,4195.128418,4254.615234,4295.897461,4230.769043,4237.692383,4356.153809,4320.512695,4052.94873,4095,6995,4,79,,,,0,4,4,4,4,4,4,4,4,4,4,4,4,4,4,100,,,,,,,,,,,,,,,,,,,,,,,,,,,,,,,,,,,,,,,,,,,,,,,,,,,,,,,,,,,,,,,,,,,,,,,,,,,,,,,,,,,,,,,,,,,,,,,,,,,,,,,,,,,,,,,,,,,,,,,,,,,,,,,,,,,,,,
1702544516,1702544516,14,0,4187.692383,4101.153809,4069.102539,4283.846191,4186.538574,4206.666504,4263.077148,4298.205078,4238.333496,4248.589844,4372.179688,4320,4071.794922,4116.282227,6082,4,79,,,,0,4,4,4,4,4,4,4,4,4,4,4,4,4,4,100,,,,,,,,,,,,,,,,,,,,,,,,,,,,,,,,,,,,,,,,,,,,,,,,,,,,,,,,,,,,,,,,,,,,,,,,,,,,,,,,,,,,,,,,,,,,,,,,,,,,,,,,,,,,,,,,,,,,,,,,,,,,,,,,,,,,,,
1702544516,1702544516,15,0,4194.743652,4103.333496,4071.410156,4283.717773,4181.025879,4202.94873,4260.128418,4294.615234,4231.410156,4245.256348,4390.897461,4318.974121,4073.974365,4127.179688,6347,4,79,,,,0,4,4,4,4,4,4,4,4,4,4,4,4,4,4,100,,,,,,,,,,,,,,,,,,,,,,,,,,,,,,,,,,,,,,,,,,,,,,,,,,,,,,,,,,,,,,,,,,,,,,,,,,,,,,,,,,,,,,,,,,,,,,,,,,,,,,,,,,,,,,,,,,,,,,,,,,,,,,,,,,,,,,
1702544516,1702544516,16,0,4191.153809,4086.794922,4067.564209,4279.615234,4177.820313,4188.589844,4247.692383,4293.974121,4228.974121,4244.615234,4371.922852,4315.897461,4052.564209,4111.282227,0,4,79,,,,0,4,4,4,4,4,4,4,4,4,4,4,4,4,4,100,1,25,1,1,1,1,3,1,1,1,3,3,1,1,1,1,4,0,0.549367,0.293945,-0.671631,0.400879,0.96545,-0.175314,-0.093761,-17.429895,3.138887,85.621307,,,,,,,,,,,,,,,,,,,,,,,,,,,,,,,,,,,,,83.547806,4.777068,2.925508,1.07091,0.838247,145.88588,6.284263,4.374447,1.065459,1.357445,30.872194,3.752494,2.167565,1.17879,0.830313,38.033108,4.030879,2.174026,1.204699,1.138611,17.168074,3.955223,2.256051,1.724908,1.417212,24.229488,4.530859,1.623475,0.909991,1.101427,24.492931,5.270045,1.102011,1.26887,0.829625,26.010975,3.600339,1.383386,1.072327,0.688736,34.520573,3.308663,1.029837,1.535457,0.907543,42.585621,3.261009,2.017409,2.145079,1.852016,95.911072,5.820956,2.818896,2.824276,2.152217,61.619923,6.292569,3.492198,1.713084,1.197964,203.825775,9.253436,3.213042,3.336668,1.801537,111.592674,6.333233,2.966642,2.350736,1.79239
1702544516,1702544516,17,0,4178.974121,4094.615479,4054.615479,4275.384766,4180.641113,4181.538574,4242.94873,4295.128418,4233.461426,4237.94873,4352.563965,4310.384766,4055.641113,4107.179688,0,4,79,,,,0,4,4,4,4,4,4,4,4,4,4,4,4,4,4,100,,,,,,,,,,,,,,,,,,,,,,,,,,,,,,,,,,,,,,,,,,,,,,,,,,,,,,,,,,,,,,,,,,,,,,,,,,,,,,,,,,,,,,,,,,,,,,,,,,,,,,,,,,,,,,,,,,,,,,,,,,,,,,,,,,,,,,
1702544516,1702544516,18,0,4179.743652,4129.358887,4050.384521,4275,4180.128418,4195.641113,4250,4289.230957,4231.410156,4232.05127,4348.333496,4306.922852,4075.641113,4123.205078,0,4,79,,,,0,4,4,4,4,4,4,4,4,4,4,4,4,4,4,100,,,,,,,,,,,,,,,,,,,,,,,,,,,,,,,,,,,,,,,,,,,,,,,,,,,,,,,,,,,,,,,,,,,,,,,,,,,,,,,,,,,,,,,,,,,,,,,,,,,,,,,,,,,,,,,,,,,,,,,,,,,,,,,,,,,,,,
1702544516,1702544516,19,0,4179.487305,4137.692383,4051.025635,4269.358887,4178.846191,4201.538574,4246.153809,4276.153809,4218.846191,4236.410156,4334.871582,4295.897461,4064.102539,4121.410156,0,4,79,,,,0,4,4,4,4,4,4,4,4,4,4,4,4,4,4,100,,,,,,,,,,,,,,,,,,,,,,,,,,,,,,,,,,,,,,,,,,,,,,,,,,,,,,,,,,,,,,,,,,,,,,,,,,,,,,,,,,,,,,,,,,,,,,,,,,,,,,,,,,,,,,,,,,,,,,,,,,,,,,,,,,,,,,
1702544516,1702544516,20,0,4182.05127,4140.384766,4060.769287,4277.436035,4191.794922,4199.615234,4246.538574,4283.589844,4220.769043,4238.589844,4348.717773,4295.256348,4057.05127,4119.743652,0,4,79,,,,0,4,4,4,4,4,4,4,4,4,4,4,4,4,4,100,,,,,,,,,,,,,,,,,5,0,0.549817,0.293579,-0.671387,0.40094,0.95666,-0.185081,-0.107923,-17.453573,3.108331,85.642509,,,,,,,,,,,,,,,,,,,,,,,,,,,,,,,,,,,,,,,,,,,,,,,,,,,,,,,,,,,,,,,,,,,,,,,,,,,,,,,,,,,,,,,,,,,,,,,,,,,,,,,,,,
1702544516,1702544516,21,0,4192.563965,4167.05127,4070.512939,4296.794922,4208.974121,4208.589844,4256.922852,4296.794922,4232.436035,4239.743652,4377.179688,4316.282227,4079.615479,4137.436035,0,4,79,,,,0,4,4,4,4,4,4,4,4,4,4,4,4,4,4,100,,,,,,,,,,,,,,,,,,,,,,,,,,,,,,,,,,,,,,,,,,,,,,,,,,,,,,,,,,,,,,,,,,,,,,,,,,,,,,,,,,,,,,,,,,,,,,,,,,,,,,,,,,,,,,,,,,,,,,,,,,,,,,,,,,,,,,
1702544516,1702544516,22,0,4184.230957,4170.769043,4055.512939,4281.922852,4198.717773,4204.487305,4250,4283.717773,4225.512695,4252.436035,4356.153809,4311.538574,4072.820557,4137.692383,0,4,79,,,,0,4,4,4,4,4,4,4,4,4,4,4,4,4,4,100,,,,,,,,,,,,,,,,,,,,,,,,,,,,,,,,,,,,,,,,,,,,,,,,,,,,,,,,,,,,,,,,,,,,,,,,,,,,,,,,,,,,,,,,,,,,,,,,,,,,,,,,,,,,,,,,,,,,,,,,,,,,,,,,,,,,,,
1702544516,1702544516,23,0,4184.487305,4173.333496,4059.487061,4273.205078,4195.769043,4207.820313,4257.179688,4288.205078,4228.974121,4269.230957,4348.205078,4294.358887,4072.820557,4147.05127,0,4,79,,,,0,4,4,4,4,4,4,4,4,4,4,4,4,4,4,100,,,,,,,,,,,,,,,,,,,,,,,,,,,,,,,,,,,,,,,,,,,,,,,,,,,,,,,,,,,,,,,,,,,,,,,,,,,,,,,,,,,,,,,,,,,,,,,,,,,,,,,,,,,,,,,,,,,,,,,,,,,,,,,,,,,,,,
1702544516,1702544516,24,0,4207.94873,4207.179688,4086.794922,4306.794922,4222.05127,4226.538574,4279.487305,4313.461426,4247.563965,4267.436035,4379.615234,4301.922852,4106.794922,4179.102539,0,4,79,,,,0,4,4,4,4,4,4,4,4,4,4,4,4,4,4,100,,,,,,,,,,,,,,,,,6,0,0.550065,0.29303,-0.671387,0.401001,0.979612,-0.187523,-0.098645,-17.29155,3.097498,85.644928,,,,,,,,,,,,,,,,,,,,,,,,,,,,,,,,,,,,,,,,,,,,,,,,,,,,,,,,,,,,,,,,,,,,,,,,,,,,,,,,,,,,,,,,,,,,,,,,,,,,,,,,,,
1702544516,1702544516,25,0,4196.794922,4211.538574,4069.230713,4305.769043,4214.358887,4211.282227,4258.846191,4294.615234,4231.153809,4240.384766,4356.410156,4285.897461,4098.589844,4167.94873,0,4,79,,,,0,4,4,4,4,4,4,4,4,4,4,4,4,4,4,100,,,,,,,,,,,,,,,,,,,,,,,,,,,,,,,,,,,,,,,,,,,,,,,,,,,,,,,,,,,,,,,,,,,,,,,,,,,,,,,,,,,,,,,,,,,,,,,,,,,,,,,,,,,,,,,,,,,,,,,,,,,,,,,,,,,,,,
1702544516,1702544516,26,0,4168.077148,4192.436035,4039.743652,4271.666504,4190.897461,4185.256348,4229.230957,4264.871582,4205.128418,4228.077148,4314.102539,4254.615234,4074.487061,4143.717773,0,4,79,,,,0,4,4,4,4,4,4,4,4,4,4,4,4,4,4,100,,,,,,,,,,,,,,,,,,,,,,,,,,,,,,,,,,,,,,,,,,,,,,,,,,,,,,,,,,,,,,,,,,,,,,,,,,,,,,,,,,,,,,,,,,,,,,,,,,,,,,,,,,,,,,,,,,,,,,,,,,,,,,,,,,,,,,
1702544516,1702544516,27,0,4184.871582,4212.820313,4061.153809,4281.025879,4208.077148,4198.846191,4246.025879,4275.641113,4220.512695,4253.589844,4343.717773,4266.410156,4102.436035,4165.256348,0,4,79,,,,0,4,4,4,4,4,4,4,4,4,4,4,4,4,4,100,,,,,,,,,,,,,,,,,,,,,,,,,,,,,,,,,,,,,,,,,,,,,,,,,,,,,,,,,,,,,,,,,,,,,,,,,,,,,,,,,,,,,,,,,,,,,,,,,,,,,,,,,,,,,,,,,,,,,,,,,,,,,,,,,,,,,,
1702544516,1702544516,28,0,4209.743652,4241.153809,4080.641113,4299.871582,4222.436035,4212.692383,4261.538574,4285.641113,4236.025879,4267.436035,4375.128418,4290.256348,4128.846191,4187.307617,0,4,79,,,,0,4,4,4,4,4,4,4,4,4,4,4,4,4,4,100,,,,,,,,,,,,,,,,,7,0,0.550506,0.29248,-0.671265,0.401001,0.974728,-0.176291,-0.091808,-17.129061,3.021082,85.547096,,,,,,,,,,,,,,,,,,,,,,,,,,,,,,,,,,,,,,,,,,,,,,,,,,,,,,,,,,,,,,,,,,,,,,,,,,,,,,,,,,,,,,,,,,,,,,,,,,,,,,,,,,
1702544516,1702544516,29,0,4211.794922,4254.230957,4076.538574,4298.205078,4215,4210.641113,4257.05127,4282.05127,4227.94873,4264.615234,4371.410156,4295.512695,4127.94873,4196.410156,0,4,79,,,,0,4,4,4,4,4,4,4,4,4,4,4,4,4,4,100,,,,,,,,,,,,,,,,,,,,,,,,,,,,,,,,,,,,,,,,,,,,,,,,,,,,,,,,,,,,,,,,,,,,,,,,,,,,,,,,,,,,,,,,,,,,,,,,,,,,,,,,,,,,,,,,,,,,,,,,,,,,,,,,,,,,,,
1702544516,1702544516,30,0,4235.897461,4296.666504,4097.563965,4320.128418,4228.077148,4225.897461,4272.179688,4295.256348,4235.641113,4287.820313,4395.769043,4312.436035,4169.230957,4233.717773,0,4,79,,,,0,4,4,4,4,4,4,4,4,4,4,4,4,4,4,100,,,,,,,,,,,,,,,,,,,,,,,,,,,,,,,,,,,,,,,,,,,,,,,,,,,,,,,,,,,,,,,,,,,,,,,,,,,,,,,,,,,,,,,,,,,,,,,,,,,,,,,,,,,,,,,,,,,,,,,,,,,,,,,,,,,,,,
1702544516,1702544516,31,0,4267.436035,4349.358887,4111.410156,4343.461426,4240.512695,4232.563965,4279.615234,4300,4249.358887,4305.128418,4422.692383,4327.436035,4227.307617,4270,0,4,79,,,,0,4,4,4,4,4,4,4,4,4,4,4,4,4,4,100,,,,,,,,,,,,,,,,,,,,,,,,,,,,,,,,,,,,,,,,,,,,,,,,,,,,,,,,,,,,,,,,,,,,,,,,,,,,,,,,,,,,,,,,,,,,,,,,,,,,,,,,,,,,,,,,,,,,,,,,,,,,,,,,,,,,,,
1702544516,1702544516,32,0,4285.384766,4388.717773,4102.05127,4346.666504,4230.769043,4223.589844,4265.897461,4290.256348,4244.487305,4290.512695,4426.922852,4327.94873,4258.589844,4296.025879,0,4,79,,,,0,4,4,4,4,4,4,4,4,4,4,4,4,4,4,100,,,,,,,,,,,,,,,,,8,0,0.550745,0.292114,-0.671265,0.40094,0.958125,-0.193383,-0.110853,-17.149488,3.168974,85.542389,,,,,,,,,,,,,,,,,,,,,,,,,,,,,,,,,,,,,95.921509,4.531554,2.692694,1.121962,0.869084,170.282471,6.303242,4.746973,1.018073,1.31206,33.842995,3.506614,1.921469,1.071447,0.865353,41.678417,3.746035,2.10925,1.207101,1.15748,16.838905,3.635379,2.012634,1.655511,1.22086,25.231836,4.075879,1.52603,0.888302,1.223514,25.368557,4.821379,0.978409,1.209314,0.929765,27.387589,3.474733,1.159209,0.993309,0.759637,38.009537,3.17457,0.842475,1.485094,0.91745,49.727749,3.241622,1.775944,2.245195,1.728966,111.506683,5.844797,2.596325,2.821802,2.538402,67.383301,5.892973,2.994073,1.664983,1.260414,249.299698,9.686374,3.354558,3.40026,1.890836,130.343231,5.883501,2.683928,2.42288,1.778156
1702544516,1702544516,33,0,4323.461426,4449.615234,4120.897461,4376.282227,4242.820313,4229.743652,4271.282227,4299.743652,4251.025879,4292.05127,4452.179688,4349.230957,4320.384766,4355.128418,0,4,79,,,,0,4,4,4,4,4,4,4,4,4,4,4,4,4,4,100,,,,,,,,,,,,,,,,,,,,,,,,,,,,,,,,,,,,,,,,,,,,,,,,,,,,,,,,,,,,,,,,,,,,,,,,,,,,,,,,,,,,,,,,,,,,,,,,,,,,,,,,,,,,,,,,,,,,,,,,,,,,,,,,,,,,,,
1702544516,1702544516,34,0,4365.897461,4512.692383,4145.897461,4413.846191,4268.846191,4239.743652,4284.487305,4315.128418,4265,4314.102539,4487.179688,4374.487305,4394.102539,4415.384766,0,4,79,,,,0,4,4,4,4,4,4,4,4,4,4,4,4,4,4,100,,,,,,,,,,,,,,,,,,,,,,,,,,,,,,,,,,,,,,,,,,,,,,,,,,,,,,,,,,,,,,,,,,,,,,,,,,,,,,,,,,,,,,,,,,,,,,,,,,,,,,,,,,,,,,,,,,,,,,,,,,,,,,,,,,,,,,
1702544516,1702544516,35,0,4382.179688,4543.717773,4143.333496,4416.538574,4266.282227,4230,4272.05127,4306.922852,4253.846191,4311.922852,4486.282227,4376.410156,4424.871582,4438.717773,0,4,79,,,,0,4,4,4,4,4,4,4,4,4,4,4,4,4,4,100,,,,,,,,,,,,,,,,,,,,,,,,,,,,,,,,,,,,,,,,,,,,,,,,,,,,,,,,,,,,,,,,,,,,,,,,,,,,,,,,,,,,,,,,,,,,,,,,,,,,,,,,,,,,,,,,,,,,,,,,,,,,,,,,,,,,,,
1702544516,1702544516,36,0,4401.282227,4571.153809,4147.820313,4419.230957,4256.410156,4227.179688,4265.641113,4295.512695,4245.897461,4304.487305,4495,4379.743652,4462.94873,4467.563965,0,4,79,,,,0,4,4,4,4,4,4,4,4,4,4,4,4,4,4,100,,,,,,,,,,,,,,,,,9,0,0.551125,0.291565,-0.671265,0.400818,0.963497,-0.193383,-0.101575,-17.067873,3.118743,85.638153,,,,,,,,,,,,,,,,,,,,,,,,,,,,,,,,,,,,,,,,,,,,,,,,,,,,,,,,,,,,,,,,,,,,,,,,,,,,,,,,,,,,,,,,,,,,,,,,,,,,,,,,,,
1702544516,1702544516,37,0,4430.384766,4603.461426,4166.538574,4437.820313,4267.05127,4241.794922,4277.94873,4301.282227,4257.563965,4322.563965,4541.538574,4392.820313,4515.769043,4507.94873,0,4,79,,,,0,4,4,4,4,4,4,4,4,4,4,4,4,4,4,100,,,,,,,,,,,,,,,,,,,,,,,,,,,,,,,,,,,,,,,,,,,,,,,,,,,,,,,,,,,,,,,,,,,,,,,,,,,,,,,,,,,,,,,,,,,,,,,,,,,,,,,,,,,,,,,,,,,,,,,,,,,,,,,,,,,,,,
1702544516,1702544516,38,0,4436.153809,4599.615234,4171.538574,4436.025879,4282.436035,4240.641113,4272.307617,4299.871582,4255.769043,4334.358887,4546.025879,4396.538574,4525.128418,4510.256348,0,4,79,,,,0,4,4,4,4,4,4,4,4,4,4,4,4,4,4,100,,,,,,,,,,,,,,,,,,,,,,,,,,,,,,,,,,,,,,,,,,,,,,,,,,,,,,,,,,,,,,,,,,,,,,,,,,,,,,,,,,,,,,,,,,,,,,,,,,,,,,,,,,,,,,,,,,,,,,,,,,,,,,,,,,,,,,
1702544516,1702544516,39,0,4432.94873,4576.666504,4176.794922,4422.692383,4282.692383,4238.589844,4267.692383,4293.205078,4253.846191,4324.102539,4527.05127,4401.410156,4540.128418,4503.846191,0,4,79,,,,0,4,4,4,4,4,4,4,4,4,4,4,4,4,4,100,,,,,,,,,,,,,,,,,,,,,,,,,,,,,,,,,,,,,,,,,,,,,,,,,,,,,,,,,,,,,,,,,,,,,,,,,,,,,,,,,,,,,,,,,,,,,,,,,,,,,,,,,,,,,,,,,,,,,,,,,,,,,,,,,,,,,,
1702544516,1702544516,40,0,4433.333496,4574.358887,4187.179688,4416.794922,4266.410156,4248.974121,4279.743652,4300.256348,4265,4329.230957,4554.871582,4406.666504,4588.461426,4527.307617,0,4,79,,,,0,4,4,4,4,4,4,4,4,4,4,4,4,4,4,100,,,,,,,,,,,,,,,,,10,0,0.551283,0.291321,-0.671387,0.400574,0.973752,-0.178733,-0.08839,-17.094419,3.090202,85.707672,,,,,,,,,,,,,,,,,,,,,,,,,,,,,,,,,,,,,,,,,,,,,,,,,,,,,,,,,,,,,,,,,,,,,,,,,,,,,,,,,,,,,,,,,,,,,,,,,,,,,,,,,,
1702544516,1702544516,41,0,4422.436035,4568.589844,4183.974121,4409.743652,4265.128418,4251.282227,4283.077148,4304.743652,4264.487305,4355.512695,4579.743652,4397.436035,4596.666504,4536.538574,0,4,79,,,,0,4,4,4,4,4,4,4,4,4,4,4,4,4,4,100,,,,,,,,,,,,,,,,,,,,,,,,,,,,,,,,,,,,,,,,,,,,,,,,,,,,,,,,,,,,,,,,,,,,,,,,,,,,,,,,,,,,,,,,,,,,,,,,,,,,,,,,,,,,,,,,,,,,,,,,,,,,,,,,,,,,,,
1702544516,1702544516,42,0,4415.641113,4543.333496,4185.769043,4408.205078,4293.333496,4257.307617,4288.461426,4308.589844,4269.487305,4371.922852,4570.641113,4404.230957,4573.589844,4519.871582,0,4,79,,,,0,4,4,4,4,4,4,4,4,4,4,4,4,4,4,100,,,,,,,,,,,,,,,,,,,,,,,,,,,,,,,,,,,,,,,,,,,,,,,,,,,,,,,,,,,,,,,,,,,,,,,,,,,,,,,,,,,,,,,,,,,,,,,,,,,,,,,,,,,,,,,,,,,,,,,,,,,,,,,,,,,,,,
1702544516,1702544516,43,0,4404.615234,4501.282227,4190.512695,4396.794922,4302.563965,4268.846191,4299.871582,4317.05127,4285.384766,4367.179688,4557.563965,4415.256348,4557.179688,4497.307617,0,4,79,,,,0,4,4,4,4,4,4,4,4,4,4,4,4,4,4,100,,,,,,,,,,,,,,,,,,,,,,,,,,,,,,,,,,,,,,,,,,,,,,,,,,,,,,,,,,,,,,,,,,,,,,,,,,,,,,,,,,,,,,,,,,,,,,,,,,,,,,,,,,,,,,,,,,,,,,,,,,,,,,,,,,,,,,
1702544516,1702544516,44,0,4366.538574,4447.563965,4174.230957,4356.282227,4276.922852,4256.666504,4288.461426,4311.282227,4280.256348,4361.282227,4530,4387.563965,4518.077148,4462.179688,0,4,79,,,,0,4,4,4,4,4,4,4,4,4,4,4,4,4,4,100,,,,,,,,,,,,,,,,,11,0,0.551776,0.291199,-0.671326,0.400085,0.969845,-0.189965,-0.102552,-17.06831,3.147848,85.770233,,,,,,,,,,,,,,,,,,,,,,,,,,,,,,,,,,,,,,,,,,,,,,,,,,,,,,,,,,,,,,,,,,,,,,,,,,,,,,,,,,,,,,,,,,,,,,,,,,,,,,,,,,
1702544516,1702544516,45,0,4340.128418,4418.974121,4159.487305,4333.077148,4270.128418,4244.743652,4276.282227,4302.563965,4267.307617,4365,4508.974121,4363.205078,4478.974121,4430.384766,0,4,79,,,,0,4,4,4,4,4,4,4,4,4,4,4,4,4,4,100,,,,,,,,,,,,,,,,,,,,,,,,,,,,,,,,,,,,,,,,,,,,,,,,,,,,,,,,,,,,,,,,,,,,,,,,,,,,,,,,,,,,,,,,,,,,,,,,,,,,,,,,,,,,,,,,,,,,,,,,,,,,,,,,,,,,,,
1702544516,1702544516,46,0,4342.179688,4425.384766,4171.025879,4344.230957,4289.743652,4262.820313,4292.563965,4311.282227,4276.794922,4367.692383,4526.153809,4384.230957,4471.794922,4426.410156,0,4,79,,,,0,4,4,4,4,4,4,4,4,4,4,4,4,4,4,100,,,,,,,,,,,,,,,,,,,,,,,,,,,,,,,,,,,,,,,,,,,,,,,,,,,,,,,,,,,,,,,,,,,,,,,,,,,,,,,,,,,,,,,,,,,,,,,,,,,,,,,,,,,,,,,,,,,,,,,,,,,,,,,,,,,,,,
1702544516,1702544516,47,0,4325.512695,4422.436035,4172.307617,4332.820313,4286.922852,4269.615234,4299.487305,4312.94873,4284.358887,4356.410156,4507.05127,4387.563965,4453.589844,4417.563965,0,4,79,,,,0,4,4,4,4,4,4,4,4,4,4,4,4,4,4,100,,,,,,,,,,,,,,,,,,,,,,,,,,,,,,,,,,,,,,,,,,,,,,,,,,,,,,,,,,,,,,,,,,,,,,,,,,,,,,,,,,,,,,,,,,,,,,,,,,,,,,,,,,,,,,,,,,,,,,,,,,,,,,,,,,,,,,
1702544516,1702544516,48,0,4293.589844,4404.358887,4153.589844,4303.589844,4277.179688,4264.102539,4289.871582,4302.307617,4274.487305,4335.641113,4467.94873,4354.230957,4421.666504,4390.384766,0,4,79,,,,0,4,4,4,4,4,4,4,4,4,4,4,4,4,4,100,,,,,,,,,,,,,,,,,12,0,0.552331,0.290955,-0.671448,0.399292,0.971798,-0.174338,-0.106458,-16.928146,3.14973,85.74321,,,,,,,,,,,,,,,,,,,,,,,,,,,,,,,,,,,,,95.393242,3.779193,2.249015,1.117066,0.927961,171.137268,5.742342,4.642898,1.031402,1.284391,32.595211,2.881535,1.526509,0.907627,0.902746,39.95327,3.084762,1.888828,1.181157,1.15032,14.400487,2.883566,1.636255,1.504877,1.063666,23.560093,3.147416,1.268896,0.804032,1.30021,23.538431,3.78919,0.7802,1.053666,1.015118,26.115715,2.915795,0.871913,0.848963,0.828537,37.538769,2.67839,0.650539,1.331002,0.935817,51.027676,2.854846,1.448336,2.221874,1.642128,113.653786,5.180719,2.224726,2.603851,2.889389,65.171127,4.805217,2.27894,1.490754,1.325857,261.031769,9.037493,3.117825,3.157747,1.98472,130.873108,4.803599,2.242993,2.320769,1.765163
1702544516,1702544516,49,0,4289.743652,4411.538574,4153.717773,4309.871582,4297.94873,4280.256348,4296.410156,4309.615234,4275.769043,4336.282227,4484.358887,4352.436035,4402.307617,4377.820313,0,4,79,,,,0,4,4,4,4,4,4,4,4,4,4,4,4,4,4,100,,,,,,,,,,,,,,,,,,,,,,,,,,,,,,,,,,,,,,,,,,,,,,,,,,,,,,,,,,,,,,,,,,,,,,,,,,,,,,,,,,,,,,,,,,,,,,,,,,,,,,,,,,,,,,,,,,,,,,,,,,,,,,,,,,,,,,
1702544516,1702544516,50,0,4300.128418,4439.871582,4170.769043,4330.256348,4316.922852,4298.461426,4311.794922,4328.461426,4293.461426,4361.794922,4497.179688,4379.743652,4389.358887,4383.205078,0,4,79,,,,0,4,4,4,4,4,4,4,4,4,4,4,4,4,4,100,,,,,,,,,,,,,,,,,,,,,,,,,,,,,,,,,,,,,,,,,,,,,,,,,,,,,,,,,,,,,,,,,,,,,,,,,,,,,,,,,,,,,,,,,,,,,,,,,,,,,,,,,,,,,,,,,,,,,,,,,,,,,,,,,,,,,,
1702544516,1702544516,51,0,4291.922852,4448.589844,4172.05127,4316.538574,4301.025879,4292.179688,4309.743652,4326.922852,4298.461426,4372.563965,4468.333496,4379.615234,4377.436035,4377.436035,0,4,79,,,,0,4,4,4,4,4,4,4,4,4,4,4,4,4,4,100,,,,,,,,,,,,,,,,,,,,,,,,,,,,,,,,,,,,,,,,,,,,,,,,,,,,,,,,,,,,,,,,,,,,,,,,,,,,,,,,,,,,,,,,,,,,,,,,,,,,,,,,,,,,,,,,,,,,,,,,,,,,,,,,,,,,,,
1702544516,1702544516,52,0,4279.230957,4440.128418,4168.205078,4301.794922,4293.717773,4290.641113,4305,4318.205078,4290.128418,4356.794922,4454.230957,4369.230957,4371.282227,4363.333496,0,4,79,,,,0,4,4,4,4,4,4,4,4,4,4,4,4,4,4,100,,,,,,,,,,,,,,,,,13,0,0.552947,0.290955,-0.671448,0.398438,0.982542,-0.184593,-0.1089,-17.001999,3.151424,85.75222,,,,,,,,,,,,,,,,,,,,,,,,,,,,,,,,,,,,,,,,,,,,,,,,,,,,,,,,,,,,,,,,,,,,,,,,,,,,,,,,,,,,,,,,,,,,,,,,,,,,,,,,,,
1702544516,1702544516,53,0,4279.487305,4442.436035,4180.256348,4316.282227,4320.384766,4308.717773,4309.230957,4322.820313,4292.436035,4354.230957,4471.025879,4380.384766,4365,4365,0,4,79,,,,0,4,4,4,4,4,4,4,4,4,4,4,4,4,4,100,,,,,,,,,,,,,,,,,,,,,,,,,,,,,,,,,,,,,,,,,,,,,,,,,,,,,,,,,,,,,,,,,,,,,,,,,,,,,,,,,,,,,,,,,,,,,,,,,,,,,,,,,,,,,,,,,,,,,,,,,,,,,,,,,,,,,,
1702544516,1702544516,54,0,4282.436035,4450.897461,4189.743652,4320.512695,4334.102539,4315.897461,4311.025879,4324.615234,4296.666504,4367.179688,4478.077148,4388.205078,4353.333496,4367.179688,0,4,79,,,,0,4,4,4,4,4,4,4,4,4,4,4,4,4,4,100,,,,,,,,,,,,,,,,,,,,,,,,,,,,,,,,,,,,,,,,,,,,,,,,,,,,,,,,,,,,,,,,,,,,,,,,,,,,,,,,,,,,,,,,,,,,,,,,,,,,,,,,,,,,,,,,,,,,,,,,,,,,,,,,,,,,,,
1702544516,1702544516,55,0,4280.128418,4447.436035,4188.974121,4306.794922,4323.205078,4313.205078,4319.102539,4326.282227,4297.563965,4366.794922,4463.333496,4386.153809,4347.94873,4357.94873,0,4,79,,,,0,4,4,4,4,4,4,4,4,4,4,4,4,4,4,100,,,,,,,,,,,,,,,,,,,,,,,,,,,,,,,,,,,,,,,,,,,,,,,,,,,,,,,,,,,,,,,,,,,,,,,,,,,,,,,,,,,,,,,,,,,,,,,,,,,,,,,,,,,,,,,,,,,,,,,,,,,,,,,,,,,,,,
1702544516,1702544516,56,0,4270.769043,4434.230957,4183.846191,4298.846191,4317.436035,4311.153809,4325.384766,4331.922852,4299.102539,4357.179688,4450.384766,4384.487305,4337.94873,4354.615234,0,4,79,,,,0,4,4,4,4,4,4,4,4,4,4,4,4,4,4,100,,,,,,,,,,,,,,,,,14,0,0.553048,0.290894,-0.671753,0.397827,0.97424,-0.176291,-0.10304,-17.018465,2.969615,85.710335,,,,,,,,,,,,,,,,,,,,,,,,,,,,,,,,,,,,,,,,,,,,,,,,,,,,,,,,,,,,,,,,,,,,,,,,,,,,,,,,,,,,,,,,,,,,,,,,,,,,,,,,,,
1702544516,1702544516,57,0,4263.461426,4426.922852,4177.436035,4294.615234,4317.820313,4306.538574,4314.615234,4327.94873,4292.692383,4350.384766,4448.205078,4377.05127,4326.153809,4357.05127,0,4,79,,,,0,4,4,4,4,4,4,4,4,4,4,4,4,4,4,100,,,,,,,,,,,,,,,,,,,,,,,,,,,,,,,,,,,,,,,,,,,,,,,,,,,,,,,,,,,,,,,,,,,,,,,,,,,,,,,,,,,,,,,,,,,,,,,,,,,,,,,,,,,,,,,,,,,,,,,,,,,,,,,,,,,,,,
1702544516,1702544516,58,0,4263.333496,4434.487305,4180.256348,4289.743652,4319.358887,4301.538574,4308.205078,4319.487305,4284.230957,4358.589844,4448.333496,4373.589844,4330.128418,4353.717773,0,4,79,,,,0,4,4,4,4,4,4,4,4,4,4,4,4,4,4,100,,,,,,,,,,,,,,,,,,,,,,,,,,,,,,,,,,,,,,,,,,,,,,,,,,,,,,,,,,,,,,,,,,,,,,,,,,,,,,,,,,,,,,,,,,,,,,,,,,,,,,,,,,,,,,,,,,,,,,,,,,,,,,,,,,,,,,
1702544516,1702544516,59,0,4261.282227,4443.974121,4185.897461,4287.436035,4325.384766,4301.410156,4314.102539,4320.769043,4286.666504,4370.256348,4453.846191,4380.897461,4337.05127,4356.922852,0,4,79,,,,0,4,4,4,4,4,4,4,4,4,4,4,4,4,4,100,,,,,,,,,,,,,,,,,,,,,,,,,,,,,,,,,,,,,,,,,,,,,,,,,,,,,,,,,,,,,,,,,,,,,,,,,,,,,,,,,,,,,,,,,,,,,,,,,,,,,,,,,,,,,,,,,,,,,,,,,,,,,,,,,,,,,,
1702544516,1702544516,60,0,4249.358887,4428.589844,4177.94873,4274.743652,4319.358887,4296.153809,4304.487305,4317.436035,4281.666504,4352.05127,4445.641113,4372.307617,4318.589844,4353.461426,0,4,79,,,,0,4,4,4,4,4,4,4,4,4,4,4,4,4,4,100,,,,,,,,,,,,,,,,,15,0,0.553,0.290955,-0.671875,0.397644,0.959101,-0.167989,-0.107923,-16.983286,2.93932,85.755966,,,,,,,,,,,,,,,,,,,,,,,,,,,,,,,,,,,,,,,,,,,,,,,,,,,,,,,,,,,,,,,,,,,,,,,,,,,,,,,,,,,,,,,,,,,,,,,,,,,,,,,,,,
1702544516,1702544516,61,0,4237.820313,4411.666504,4165.384766,4261.025879,4308.077148,4285.128418,4283.846191,4303.077148,4268.717773,4328.589844,4419.871582,4346.025879,4298.717773,4335.384766,0,4,79,,,,0,4,4,4,4,4,4,4,4,4,4,4,4,4,4,100,,,,,,,,,,,,,,,,,,,,,,,,,,,,,,,,,,,,,,,,,,,,,,,,,,,,,,,,,,,,,,,,,,,,,,,,,,,,,,,,,,,,,,,,,,,,,,,,,,,,,,,,,,,,,,,,,,,,,,,,,,,,,,,,,,,,,,
1702544516,1702544516,62,0,4232.94873,4423.717773,4167.179688,4263.717773,4311.025879,4279.487305,4276.410156,4295.641113,4267.820313,4335.641113,4417.820313,4332.820313,4305.641113,4335.897461,0,4,79,,,,0,4,4,4,4,4,4,4,4,4,4,4,4,4,4,100,,,,,,,,,,,,,,,,,,,,,,,,,,,,,,,,,,,,,,,,,,,,,,,,,,,,,,,,,,,,,,,,,,,,,,,,,,,,,,,,,,,,,,,,,,,,,,,,,,,,,,,,,,,,,,,,,,,,,,,,,,,,,,,,,,,,,,
1702544516,1702544516,63,0,4230.769043,4431.282227,4171.410156,4263.974121,4310.769043,4276.666504,4274.230957,4295.512695,4271.025879,4347.563965,4428.589844,4332.307617,4312.94873,4347.94873,0,4,79,,,,0,4,4,4,4,4,4,4,4,4,4,4,4,4,4,100,,,,,,,,,,,,,,,,,,,,,,,,,,,,,,,,,,,,,,,,,,,,,,,,,,,,,,,,,,,,,,,,,,,,,,,,,,,,,,,,,,,,,,,,,,,,,,,,,,,,,,,,,,,,,,,,,,,,,,,,,,,,,,,,,,,,,,
1702544516,1702544516,64,0,4230.769043,4421.410156,4166.282227,4258.717773,4302.94873,4277.05127,4272.94873,4293.717773,4265.128418,4336.153809,4415.128418,4328.974121,4310.897461,4346.794922,5465,4,79,,,,0,4,4,4,4,4,4,4,4,4,4,4,4,4,4,100,,,,,,,,,,,,,,,,,16,0,0.553011,0.291382,-0.671753,0.397522,0.957148,-0.175314,-0.112807,-17.151623,2.928721,85.697037,,,,,,,,,,,,,,,,,,,,,,,,,,,,,,,,,,,,,81.90493,2.851652,1.749943,1.058907,0.999935,148.637787,5.053165,4.114285,1.110127,1.287616,28.121403,2.155095,1.122746,0.734242,0.937481,32.918079,2.314779,1.600246,1.131325,1.139859,10.889266,1.983417,1.221235,1.305976,0.967421,19.822784,2.079151,0.961302,0.681786,1.315134,19.383116,2.534293,0.581697,0.860309,1.064708,22.12466,2.127842,0.628214,0.684388,0.87673,32.950115,1.997686,0.522379,1.112666,0.954302,45.833473,2.249391,1.142898,2.089551,1.582362,100.639755,4.103469,1.851475,2.233376,3.124436,56.065525,3.456009,1.586339,1.248137,1.380443,235.394714,7.750817,2.585777,2.674706,2.06355,114.286682,3.5872,1.820461,2.068737,1.75053
1702544516,1702544516,65,0,4226.410156,4417.307617,4161.282227,4257.692383,4309.615234,4277.436035,4273.717773,4290,4260.128418,4325.512695,4408.589844,4324.487305,4311.410156,4342.05127,5574,4,79,,,,0,4,4,4,4,4,4,4,4,4,4,4,4,4,4,100,,,,,,,,,,,,,,,,,,,,,,,,,,,,,,,,,,,,,,,,,,,,,,,,,,,,,,,,,,,,,,,,,,,,,,,,,,,,,,,,,,,,,,,,,,,,,,,,,,,,,,,,,,,,,,,,,,,,,,,,,,,,,,,,,,,,,,
1702544516,1702544516,66,0,4224.487305,4420,4164.871582,4260.897461,4325.512695,4278.077148,4277.436035,4292.179688,4266.025879,4327.563965,4420.384766,4331.410156,4307.94873,4346.025879,5502,4,79,,,,0,4,4,4,4,4,4,4,4,4,4,4,4,4,4,100,,,,,,,,,,,,,,,,,,,,,,,,,,,,,,,,,,,,,,,,,,,,,,,,,,,,,,,,,,,,,,,,,,,,,,,,,,,,,,,,,,,,,,,,,,,,,,,,,,,,,,,,,,,,,,,,,,,,,,,,,,,,,,,,,,,,,,
1702544516,1702544516,67,0,4228.589844,4425.256348,4173.846191,4261.410156,4332.307617,4287.563965,4285.897461,4298.974121,4272.563965,4325.256348,4413.974121,4342.436035,4307.563965,4346.794922,5425,4,79,,,,0,4,4,4,4,4,4,4,4,4,4,4,4,4,4,100,,,,,,,,,,,,,,,,,,,,,,,,,,,,,,,,,,,,,,,,,,,,,,,,,,,,,,,,,,,,,,,,,,,,,,,,,,,,,,,,,,,,,,,,,,,,,,,,,,,,,,,,,,,,,,,,,,,,,,,,,,,,,,,,,,,,,,
1702544516,1702544516,68,0,4226.153809,4431.410156,4172.820313,4257.436035,4327.179688,4296.410156,4288.974121,4297.05127,4268.717773,4328.077148,4407.05127,4337.05127,4317.820313,4346.666504,5392,4,79,,,,0,4,4,4,4,4,4,4,4,4,4,4,4,4,4,100,,,,,,,,,,,,,,,,,17,0,0.553132,0.291931,-0.671631,0.397156,0.972775,-0.179709,-0.11476,-17.18646,2.902516,85.744003,,,,,,,,,,,,,,,,,,,,,,,,,,,,,,,,,,,,,,,,,,,,,,,,,,,,,,,,,,,,,,,,,,,,,,,,,,,,,,,,,,,,,,,,,,,,,,,,,,,,,,,,,,
1702544516,1702544516,69,0,4209.358887,4421.282227,4157.05127,4247.563965,4314.230957,4285.897461,4278.974121,4278.974121,4253.461426,4332.436035,4405.256348,4313.717773,4310.128418,4342.94873,5360,4,79,,,,0,4,4,4,4,4,4,4,4,4,4,4,4,4,4,100,,,,,,,,,,,,,,,,,,,,,,,,,,,,,,,,,,,,,,,,,,,,,,,,,,,,,,,,,,,,,,,,,,,,,,,,,,,,,,,,,,,,,,,,,,,,,,,,,,,,,,,,,,,,,,,,,,,,,,,,,,,,,,,,,,,,,,
1702544516,1702544516,70,0,4198.717773,4411.410156,4150.769043,4240.897461,4313.974121,4273.974121,4271.538574,4264.230957,4241.538574,4314.615234,4392.05127,4304.230957,4289.230957,4334.230957,5290,4,79,,,,0,4,4,4,4,4,4,4,4,4,4,4,4,4,4,100,,,,,,,,,,,,,,,,,,,,,,,,,,,,,,,,,,,,,,,,,,,,,,,,,,,,,,,,,,,,,,,,,,,,,,,,,,,,,,,,,,,,,,,,,,,,,,,,,,,,,,,,,,,,,,,,,,,,,,,,,,,,,,,,,,,,,,
1702544516,1702544516,71,0,4212.05127,4420.897461,4165.512695,4248.077148,4328.846191,4287.05127,4278.333496,4275,4251.922852,4299.871582,4388.974121,4324.871582,4296.538574,4346.282227,5126,4,79,,,,0,4,4,4,4,4,4,4,4,4,4,4,4,4,4,100,,,,,,,,,,,,,,,,,,,,,,,,,,,,,,,,,,,,,,,,,,,,,,,,,,,,,,,,,,,,,,,,,,,,,,,,,,,,,,,,,,,,,,,,,,,,,,,,,,,,,,,,,,,,,,,,,,,,,,,,,,,,,,,,,,,,,,
1702544516,1702544516,72,0,4220.897461,4421.025879,4173.461426,4249.487305,4325.897461,4292.692383,4279.487305,4284.358887,4261.922852,4310.641113,4395.641113,4333.846191,4311.666504,4358.461426,5389,4,79,,,,0,4,4,4,4,4,4,4,4,4,4,4,4,4,4,100,,,,,,,,,,,,,,,,,18,0,0.553466,0.292358,-0.671387,0.39679,0.96252,-0.174338,-0.114272,-17.284481,3.012264,85.802933,,,,,,,,,,,,,,,,,,,,,,,,,,,,,,,,,,,,,,,,,,,,,,,,,,,,,,,,,,,,,,,,,,,,,,,,,,,,,,,,,,,,,,,,,,,,,,,,,,,,,,,,,,
1702544516,1702544516,73,0,4215.641113,4414.102539,4176.410156,4247.692383,4321.153809,4282.436035,4277.436035,4280.384766,4261.410156,4328.846191,4400.897461,4333.589844,4309.102539,4354.871582,5394,4,79,,,,0,4,4,4,4,4,4,4,4,4,4,4,4,4,4,100,,,,,,,,,,,,,,,,,,,,,,,,,,,,,,,,,,,,,,,,,,,,,,,,,,,,,,,,,,,,,,,,,,,,,,,,,,,,,,,,,,,,,,,,,,,,,,,,,,,,,,,,,,,,,,,,,,,,,,,,,,,,,,,,,,,,,,
1702544516,1702544516,74,0,4216.666504,4417.05127,4184.743652,4250.512695,4334.358887,4283.461426,4279.615234,4279.871582,4257.307617,4329.871582,4398.846191,4345.256348,4304.743652,4358.333496,6087,4,79,,,,0,4,4,4,4,4,4,4,4,4,4,4,4,4,4,100,,,,,,,,,,,,,,,,,,,,,,,,,,,,,,,,,,,,,,,,,,,,,,,,,,,,,,,,,,,,,,,,,,,,,,,,,,,,,,,,,,,,,,,,,,,,,,,,,,,,,,,,,,,,,,,,,,,,,,,,,,,,,,,,,,,,,,
1702544516,1702544516,75,0,4215.897461,4412.563965,4176.153809,4242.820313,4330.897461,4279.615234,4265.128418,4270.128418,4239.871582,4303.205078,4380.769043,4336.410156,4294.230957,4357.820313,6337,4,79,,,,0,4,4,4,4,4,4,4,4,4,4,4,4,4,4,100,,,,,,,,,,,,,,,,,,,,,,,,,,,,,,,,,,,,,,,,,,,,,,,,,,,,,,,,,,,,,,,,,,,,,,,,,,,,,,,,,,,,,,,,,,,,,,,,,,,,,,,,,,,,,,,,,,,,,,,,,,,,,,,,,,,,,,
1702544516,1702544516,76,0,4213.589844,4412.563965,4170.512695,4241.410156,4319.487305,4271.794922,4258.717773,4256.794922,4231.410156,4286.410156,4385.128418,4325,4287.307617,4358.333496,6760,4,79,,,,0,4,4,4,4,4,4,4,4,4,4,4,4,4,4,100,,,,,,,,,,,,,,,,,19,0,0.553648,0.292542,-0.671265,0.396606,0.95666,-0.169454,-0.104993,-17.389366,2.977705,85.83931,,,,,,,,,,,,,,,,,,,,,,,,,,,,,,,,,,,,,,,,,,,,,,,,,,,,,,,,,,,,,,,,,,,,,,,,,,,,,,,,,,,,,,,,,,,,,,,,,,,,,,,,,,
1702544516,1702544516,77,0,4225.384766,4426.538574,4190.256348,4262.692383,4331.794922,4283.717773,4278.077148,4266.153809,4250.641113,4312.436035,4413.846191,4347.436035,4298.589844,4377.436035,7042,4,79,,,,0,4,4,4,4,4,4,4,4,4,4,4,4,4,4,100,,,,,,,,,,,,,,,,,,,,,,,,,,,,,,,,,,,,,,,,,,,,,,,,,,,,,,,,,,,,,,,,,,,,,,,,,,,,,,,,,,,,,,,,,,,,,,,,,,,,,,,,,,,,,,,,,,,,,,,,,,,,,,,,,,,,,,
1702544516,1702544516,78,0,4223.589844,4417.307617,4190.128418,4268.077148,4336.153809,4286.410156,4276.794922,4267.94873,4249.102539,4318.461426,4396.922852,4350.384766,4287.179688,4373.717773,6087,4,79,,,,0,4,4,4,4,4,4,4,4,4,4,4,4,4,4,100,,,,,,,,,,,,,,,,,,,,,,,,,,,,,,,,,,,,,,,,,,,,,,,,,,,,,,,,,,,,,,,,,,,,,,,,,,,,,,,,,,,,,,,,,,,,,,,,,,,,,,,,,,,,,,,,,,,,,,,,,,,,,,,,,,,,,,
1702544516,1702544516,79,0,4210.897461,4407.436035,4176.153809,4254.358887,4331.666504,4276.794922,4260.128418,4255.769043,4230.256348,4291.794922,4377.05127,4330.256348,4271.922852,4351.794922,6337,4,79,,,,0,4,4,4,4,4,4,4,4,4,4,4,4,4,4,100,,,,,,,,,,,,,,,,,,,,,,,,,,,,,,,,,,,,,,,,,,,,,,,,,,,,,,,,,,,,,,,,,,,,,,,,,,,,,,,,,,,,,,,,,,,,,,,,,,,,,,,,,,,,,,,,,,,,,,,,,,,,,,,,,,,,,,
1702544516,1702544516,80,0,4229.102539,4437.692383,4199.358887,4267.179688,4351.794922,4297.820313,4280.897461,4271.666504,4248.589844,4305.128418,4413.717773,4351.922852,4303.461426,4377.692383,6760,4,79,,,,0,4,4,4,4,4,4,4,4,4,4,4,4,4,4,100,1,25,1,1,1,1,1,1,1,1,3,1,1,1,1,1,20,0,0.554058,0.292847,-0.671082,0.396118,0.961055,-0.162618,-0.099133,-17.367096,2.979934,85.988708,,,,,,,,,,,,,,,,,,,,,,,,,,,,,,,,,,,,,61.408421,2.111984,1.333532,0.961243,1.06328,114.371742,5.00151,3.360284,1.235166,1.314089,21.251482,1.59841,0.825917,0.59214,0.962369,24.149132,1.716482,1.334111,1.062829,1.144973,7.132189,1.223504,0.852271,1.10691,0.932046,14.923325,1.20752,0.722841,0.559146,1.265947,14.253123,1.445836,0.457623,0.69053,1.067079,16.819998,1.365642,0.508733,0.543816,0.890989,25.612255,1.346395,0.494901,0.881744,0.961279,35.72221,1.654679,0.95395,1.884989,1.528948,77.192474,2.975995,1.620024,1.818055,3.202064,42.616421,2.283575,1.100399,1.012128,1.407648,183.474213,6.330625,1.951435,2.08873,2.108996,87.211494,2.753467,1.557888,1.736879,1.73119
1702544516,1702544516,81,0,4233.717773,4439.743652,4206.922852,4270.128418,4356.666504,4309.102539,4292.820313,4281.153809,4260.769043,4322.05127,4409.743652,4362.307617,4311.538574,4392.820313,7042,4,79,,,,0,4,4,4,4,4,4,4,4,4,4,4,4,4,4,100,,,,,,,,,,,,,,,,,,,,,,,,,,,,,,,,,,,,,,,,,,,,,,,,,,,,,,,,,,,,,,,,,,,,,,,,,,,,,,,,,,,,,,,,,,,,,,,,,,,,,,,,,,,,,,,,,,,,,,,,,,,,,,,,,,,,,,
1702544516,1702544516,82,0,4205.641113,4412.179688,4176.922852,4240.128418,4331.922852,4280.384766,4262.94873,4256.153809,4236.538574,4299.743652,4367.820313,4329.487305,4283.077148,4357.820313,6087,4,79,,,,0,4,4,4,4,4,4,4,4,4,4,4,4,4,4,100,,,,,,,,,,,,,,,,,,,,,,,,,,,,,,,,,,,,,,,,,,,,,,,,,,,,,,,,,,,,,,,,,,,,,,,,,,,,,,,,,,,,,,,,,,,,,,,,,,,,,,,,,,,,,,,,,,,,,,,,,,,,,,,,,,,,,,
1702544516,1702544516,83,0,4216.282227,4429.487305,4193.205078,4250.897461,4346.922852,4283.974121,4270.128418,4261.153809,4245.641113,4306.153809,4402.05127,4347.94873,4306.794922,4375.256348,6337,4,79,,,,0,4,4,4,4,4,4,4,4,4,4,4,4,4,4,100,,,,,,,,,,,,,,,,,,,,,,,,,,,,,,,,,,,,,,,,,,,,,,,,,,,,,,,,,,,,,,,,,,,,,,,,,,,,,,,,,,,,,,,,,,,,,,,,,,,,,,,,,,,,,,,,,,,,,,,,,,,,,,,,,,,,,,
1702544516,1702544516,84,0,4241.153809,4443.205078,4223.461426,4276.666504,4372.563965,4311.666504,4299.358887,4290,4273.589844,4327.820313,4434.871582,4386.794922,4326.666504,4416.410156,6760,4,79,,,,0,4,4,4,4,4,4,4,4,4,4,4,4,4,4,100,,,,,,,,,,,,,,,,,21,0,0.554757,0.292908,-0.670837,0.395508,0.982542,-0.163594,-0.093761,-17.447054,2.915274,85.973175,,,,,,,,,,,,,,,,,,,,,,,,,,,,,,,,,,,,,,,,,,,,,,,,,,,,,,,,,,,,,,,,,,,,,,,,,,,,,,,,,,,,,,,,,,,,,,,,,,,,,,,,,,
1702544516,1702544516,85,0,4220.512695,4419.871582,4197.563965,4255.128418,4350.256348,4294.358887,4276.282227,4274.871582,4255,4305.641113,4388.333496,4357.94873,4283.974121,4388.333496,7042,4,79,,,,0,4,4,4,4,4,4,4,4,4,4,4,4,4,4,100,,,,,,,,,,,,,,,,,,,,,,,,,,,,,,,,,,,,,,,,,,,,,,,,,,,,,,,,,,,,,,,,,,,,,,,,,,,,,,,,,,,,,,,,,,,,,,,,,,,,,,,,,,,,,,,,,,,,,,,,,,,,,,,,,,,,,,
1702544516,1702544516,86,0,4208.461426,4433.333496,4179.615234,4248.589844,4338.205078,4274.871582,4252.820313,4250.897461,4238.333496,4288.333496,4362.179688,4334.358887,4270.641113,4365.256348,6087,4,79,,,,0,4,4,4,4,4,4,4,4,4,4,4,4,4,4,100,,,,,,,,,,,,,,,,,,,,,,,,,,,,,,,,,,,,,,,,,,,,,,,,,,,,,,,,,,,,,,,,,,,,,,,,,,,,,,,,,,,,,,,,,,,,,,,,,,,,,,,,,,,,,,,,,,,,,,,,,,,,,,,,,,,,,,
1702544516,1702544516,87,0,4237.820313,4481.282227,4206.922852,4282.179688,4363.589844,4297.179688,4273.717773,4262.94873,4257.179688,4311.666504,4392.692383,4367.436035,4304.615234,4402.05127,6337,4,79,,,,0,4,4,4,4,4,4,4,4,4,4,4,4,4,4,100,,,,,,,,,,,,,,,,,,,,,,,,,,,,,,,,,,,,,,,,,,,,,,,,,,,,,,,,,,,,,,,,,,,,,,,,,,,,,,,,,,,,,,,,,,,,,,,,,,,,,,,,,,,,,,,,,,,,,,,,,,,,,,,,,,,,,,
1702544516,1702544516,88,0,4249.487305,4495.128418,4212.94873,4292.179688,4377.05127,4313.461426,4286.538574,4270.641113,4259.102539,4319.102539,4404.487305,4380.384766,4300.128418,4420.897461,6760,4,79,,,,0,4,4,4,4,4,4,4,4,4,4,4,4,4,4,100,,,,,,,,,,,,,,,,,22,0,0.555347,0.292786,-0.670654,0.395081,0.969357,-0.171408,-0.102552,-17.285681,3.00708,86.109192,,,,,,,,,,,,,,,,,,,,,,,,,,,,,,,,,,,,,,,,,,,,,,,,,,,,,,,,,,,,,,,,,,,,,,,,,,,,,,,,,,,,,,,,,,,,,,,,,,,,,,,,,,
1702544516,1702544516,89,0,4233.205078,4479.358887,4197.307617,4278.461426,4372.563965,4305.769043,4274.358887,4258.846191,4247.179688,4299.102539,4386.666504,4361.538574,4272.94873,4402.307617,7042,4,79,,,,0,4,4,4,4,4,4,4,4,4,4,4,4,4,4,100,,,,,,,,,,,,,,,,,,,,,,,,,,,,,,,,,,,,,,,,,,,,,,,,,,,,,,,,,,,,,,,,,,,,,,,,,,,,,,,,,,,,,,,,,,,,,,,,,,,,,,,,,,,,,,,,,,,,,,,,,,,,,,,,,,,,,,
1702544516,1702544516,90,0,4227.179688,4464.743652,4197.94873,4270,4367.179688,4296.538574,4267.179688,4251.666504,4246.794922,4295.769043,4381.538574,4360,4275.769043,4392.436035,6087,4,79,,,,0,4,4,4,4,4,4,4,4,4,4,4,4,4,4,100,,,,,,,,,,,,,,,,,,,,,,,,,,,,,,,,,,,,,,,,,,,,,,,,,,,,,,,,,,,,,,,,,,,,,,,,,,,,,,,,,,,,,,,,,,,,,,,,,,,,,,,,,,,,,,,,,,,,,,,,,,,,,,,,,,,,,,
1702544516,1702544516,91,0,4230.769043,4459.358887,4199.102539,4256.538574,4356.410156,4282.436035,4260.384766,4248.333496,4237.436035,4302.94873,4387.94873,4367.05127,4284.871582,4395.128418,6337,4,79,,,,0,4,4,4,4,4,4,4,4,4,4,4,4,4,4,100,,,,,,,,,,,,,,,,,,,,,,,,,,,,,,,,,,,,,,,,,,,,,,,,,,,,,,,,,,,,,,,,,,,,,,,,,,,,,,,,,,,,,,,,,,,,,,,,,,,,,,,,,,,,,,,,,,,,,,,,,,,,,,,,,,,,,,
1702544516,1702544516,92,0,4231.794922,4463.846191,4195.256348,4252.820313,4354.230957,4277.94873,4256.538574,4244.358887,4230.897461,4296.538574,4383.589844,4365.384766,4277.94873,4398.205078,6760,4,79,,,,0,4,4,4,4,4,4,4,4,4,4,4,4,4,4,100,,,,,,,,,,,,,,,,,23,0,0.555625,0.292786,-0.670532,0.394897,0.986449,-0.172384,-0.102063,-17.307114,3.039705,86.114937,,,,,,,,,,,,,,,,,,,,,,,,,,,,,,,,,,,,,,,,,,,,,,,,,,,,,,,,,,,,,,,,,,,,,,,,,,,,,,,,,,,,,,,,,,,,,,,,,,,,,,,,,,
1702544516,1702544516,93,0,4231.922852,4457.94873,4198.846191,4262.05127,4362.563965,4291.282227,4260.897461,4248.205078,4244.230957,4288.077148,4374.487305,4368.205078,4273.333496,4397.94873,7042,4,79,,,,0,4,4,4,4,4,4,4,4,4,4,4,4,4,4,100,,,,,,,,,,,,,,,,,,,,,,,,,,,,,,,,,,,,,,,,,,,,,,,,,,,,,,,,,,,,,,,,,,,,,,,,,,,,,,,,,,,,,,,,,,,,,,,,,,,,,,,,,,,,,,,,,,,,,,,,,,,,,,,,,,,,,,
1702544516,1702544516,94,0,4234.615234,4453.205078,4206.538574,4262.820313,4361.922852,4294.102539,4263.205078,4257.05127,4251.153809,4293.846191,4387.05127,4379.230957,4293.974121,4405.256348,6087,4,79,,,,0,4,4,4,4,4,4,4,4,4,4,4,4,4,4,100,,,,,,,,,,,,,,,,,,,,,,,,,,,,,,,,,,,,,,,,,,,,,,,,,,,,,,,,,,,,,,,,,,,,,,,,,,,,,,,,,,,,,,,,,,,,,,,,,,,,,,,,,,,,,,,,,,,,,,,,,,,,,,,,,,,,,,
1702544516,1702544516,95,0,4251.282227,4474.871582,4221.538574,4273.846191,4371.025879,4298.717773,4276.794922,4265.897461,4254.102539,4310.769043,4419.487305,4400.384766,4329.230957,4429.487305,6337,4,79,,,,0,4,4,4,4,4,4,4,4,4,4,4,4,4,4,100,,,,,,,,,,,,,,,,,,,,,,,,,,,,,,,,,,,,,,,,,,,,,,,,,,,,,,,,,,,,,,,,,,,,,,,,,,,,,,,,,,,,,,,,,,,,,,,,,,,,,,,,,,,,,,,,,,,,,,,,,,,,,,,,,,,,,,
1702544516,1702544516,96,0,4264.615234,4490.512695,4225.256348,4290.256348,4382.05127,4309.102539,4289.230957,4261.922852,4257.05127,4313.717773,4418.589844,4406.153809,4329.871582,4438.589844,6760,4,79,,,,0,4,4,4,4,4,4,4,4,4,4,4,4,4,4,100,,,,,,,,,,,,,,,,,24,0,0.555878,0.29303,-0.670288,0.394775,0.982053,-0.167989,-0.098157,-17.293068,3.035735,86.186775,,,,,,,,,,,,,,,,,,,,,,,,,,,,,,,,,,,,,44.335896,1.844434,1.067464,0.839437,1.099084,85.436562,6.396812,2.617014,1.358214,1.342036,15.115997,1.371933,0.685278,0.497759,0.971933,17.537733,1.506915,1.147479,0.979257,1.170435,4.290706,0.787043,0.58592,0.947994,0.944937,10.361849,0.731069,0.632508,0.467607,1.165523,9.523182,0.779178,0.450906,0.578505,1.024906,11.574269,0.831693,0.534149,0.450783,0.869044,17.750338,0.883986,0.559729,0.680214,0.948566,24.048746,1.275977,0.921288,1.650172,1.465325,52.798458,2.135101,1.592346,1.454892,3.131855,30.325012,1.580852,0.884082,0.837884,1.399264,132.642792,5.396649,1.436759,1.557572,2.106384,64.719582,2.679836,1.515696,1.408082,1.696892
1702544516,1702544516,97,0,4252.179688,4476.282227,4207.436035,4279.230957,4378.589844,4303.205078,4279.871582,4247.94873,4241.410156,4291.666504,4390,4387.436035,4300.128418,4421.153809,7042,4,79,,,,0,4,4,4,4,4,4,4,4,4,4,4,4,4,4,100,,,,,,,,,,,,,,,,,,,,,,,,,,,,,,,,,,,,,,,,,,,,,,,,,,,,,,,,,,,,,,,,,,,,,,,,,,,,,,,,,,,,,,,,,,,,,,,,,,,,,,,,,,,,,,,,,,,,,,,,,,,,,,,,,,,,,,
1702544516,1702544516,98,0,4243.333496,4470.641113,4204.615234,4269.487305,4382.307617,4301.666504,4277.436035,4248.077148,4233.589844,4285.256348,4392.563965,4388.077148,4296.666504,4419.743652,6087,4,79,,,,0,4,4,4,4,4,4,4,4,4,4,4,4,4,4,100,,,,,,,,,,,,,,,,,,,,,,,,,,,,,,,,,,,,,,,,,,,,,,,,,,,,,,,,,,,,,,,,,,,,,,,,,,,,,,,,,,,,,,,,,,,,,,,,,,,,,,,,,,,,,,,,,,,,,,,,,,,,,,,,,,,,,,
1702544516,1702544516,99,0,4249.615234,4477.820313,4213.717773,4277.563965,4383.974121,4303.077148,4282.179688,4252.820313,4246.025879,4308.846191,4394.487305,4396.282227,4307.307617,4426.666504,6337,4,79,,,,0,4,4,4,4,4,4,4,4,4,4,4,4,4,4,100,,,,,,,,,,,,,,,,,,,,,,,,,,,,,,,,,,,,,,,,,,,,,,,,,,,,,,,,,,,,,,,,,,,,,,,,,,,,,,,,,,,,,,,,,,,,,,,,,,,,,,,,,,,,,,,,,,,,,,,,,,,,,,,,,,,,,,
1702544516,1702544516,100,0,4238.461426,4459.487305,4202.563965,4271.410156,4366.922852,4287.94873,4263.077148,4243.461426,4246.153809,4303.717773,4354.487305,4378.589844,4293.333496,4409.743652,6760,4,79,,,,0,4,4,4,4,4,4,4,4,4,4,4,4,4,4,100,,,,,,,,,,,,,,,,,25,0,0.555877,0.293335,-0.670227,0.394653,0.963497,-0.166036,-0.1089,-17.230429,3.065495,86.251434,,,,,,,,,,,,,,,,,,,,,,,,,,,,,,,,,,,,,,,,,,,,,,,,,,,,,,,,,,,,,,,,,,,,,,,,,,,,,,,,,,,,,,,,,,,,,,,,,,,,,,,,,,
1702544516,1702544516,101,0,4222.307617,4434.615234,4178.461426,4248.717773,4356.153809,4281.666504,4241.282227,4236.153809,4232.820313,4272.820313,4328.333496,4364.615234,4289.871582,4398.077148,7042,4,79,,,,0,4,4,4,4,4,4,4,4,4,4,4,4,4,4,100,,,,,,,,,,,,,,,,,,,,,,,,,,,,,,,,,,,,,,,,,,,,,,,,,,,,,,,,,,,,,,,,,,,,,,,,,,,,,,,,,,,,,,,,,,,,,,,,,,,,,,,,,,,,,,,,,,,,,,,,,,,,,,,,,,,,,,
1702544516,1702544516,102,0,4236.794922,4447.05127,4167.820313,4248.461426,4369.871582,4296.282227,4251.153809,4241.538574,4235,4279.743652,4351.282227,4376.410156,4313.077148,4414.615234,6087,4,79,,,,0,4,4,4,4,4,4,4,4,4,4,4,4,4,4,100,,,,,,,,,,,,,,,,,,,,,,,,,,,,,,,,,,,,,,,,,,,,,,,,,,,,,,,,,,,,,,,,,,,,,,,,,,,,,,,,,,,,,,,,,,,,,,,,,,,,,,,,,,,,,,,,,,,,,,,,,,,,,,,,,,,,,,
1702544516,1702544516,103,0,4251.153809,4464.743652,4167.563965,4261.282227,4374.487305,4299.230957,4259.743652,4241.153809,4244.102539,4306.794922,4366.410156,4382.179688,4317.692383,4425.256348,6337,4,79,,,,0,4,4,4,4,4,4,4,4,4,4,4,4,4,4,100,,,,,,,,,,,,,,,,,,,,,,,,,,,,,,,,,,,,,,,,,,,,,,,,,,,,,,,,,,,,,,,,,,,,,,,,,,,,,,,,,,,,,,,,,,,,,,,,,,,,,,,,,,,,,,,,,,,,,,,,,,,,,,,,,,,,,,
1702544516,1702544516,104,0,4233.589844,4448.589844,4157.820313,4253.461426,4363.846191,4287.692383,4246.282227,4227.692383,4234.487305,4299.358887,4346.794922,4370.128418,4295.641113,4410.512695,6760,4,79,,,,0,4,4,4,4,4,4,4,4,4,4,4,4,4,4,100,,,,,,,,,,,,,,,,,26,0,0.55597,0.293823,-0.670044,0.39447,0.97717,-0.160176,-0.11476,-17.174053,3.058945,86.159622,,,,,,,,,,,,,,,,,,,,,,,,,,,,,,,,,,,,,,,,,,,,,,,,,,,,,,,,,,,,,,,,,,,,,,,,,,,,,,,,,,,,,,,,,,,,,,,,,,,,,,,,,,
1702544516,1702544516,105,0,4230.512695,4438.717773,4160,4249.615234,4367.436035,4294.102539,4248.717773,4229.615234,4232.692383,4289.102539,4347.436035,4378.974121,4302.179688,4413.846191,7042,4,79,,,,0,4,4,4,4,4,4,4,4,4,4,4,4,4,4,100,,,,,,,,,,,,,,,,,,,,,,,,,,,,,,,,,,,,,,,,,,,,,,,,,,,,,,,,,,,,,,,,,,,,,,,,,,,,,,,,,,,,,,,,,,,,,,,,,,,,,,,,,,,,,,,,,,,,,,,,,,,,,,,,,,,,,,
1702544516,1702544516,106,0,4249.358887,4449.487305,4178.077148,4263.077148,4374.230957,4302.436035,4264.743652,4241.922852,4247.94873,4301.282227,4366.410156,4393.333496,4330.256348,4434.358887,6087,4,79,,,,0,4,4,4,4,4,4,4,4,4,4,4,4,4,4,100,,,,,,,,,,,,,,,,,,,,,,,,,,,,,,,,,,,,,,,,,,,,,,,,,,,,,,,,,,,,,,,,,,,,,,,,,,,,,,,,,,,,,,,,,,,,,,,,,,,,,,,,,,,,,,,,,,,,,,,,,,,,,,,,,,,,,,
1702544516,1702544516,107,0,4251.153809,4452.436035,4182.563965,4265.256348,4372.692383,4298.589844,4263.974121,4234.871582,4246.666504,4305.641113,4364.230957,4384.487305,4331.153809,4434.358887,6337,4,79,,,,0,4,4,4,4,4,4,4,4,4,4,4,4,4,4,100,,,,,,,,,,,,,,,,,,,,,,,,,,,,,,,,,,,,,,,,,,,,,,,,,,,,,,,,,,,,,,,,,,,,,,,,,,,,,,,,,,,,,,,,,,,,,,,,,,,,,,,,,,,,,,,,,,,,,,,,,,,,,,,,,,,,,,
1702544516,1702544516,108,0,4241.410156,4451.025879,4177.307617,4255.256348,4375.641113,4298.974121,4257.563965,4225.256348,4237.820313,4295.512695,4351.538574,4379.102539,4320,4421.666504,6760,4,79,,,,0,4,4,4,4,4,4,4,4,4,4,4,4,4,4,100,,,,,,,,,,,,,,,,,27,0,0.555957,0.294067,-0.669983,0.394409,0.969845,-0.176779,-0.10304,-17.089981,3.303051,86.22699,,,,,,,,,,,,,,,,,,,,,,,,,,,,,,,,,,,,,,,,,,,,,,,,,,,,,,,,,,,,,,,,,,,,,,,,,,,,,,,,,,,,,,,,,,,,,,,,,,,,,,,,,,
1702544517,1702544517,109,0,4247.436035,4463.333496,4190.897461,4262.179688,4384.615234,4310.897461,4263.333496,4237.563965,4245.897461,4295,4361.666504,4394.615234,4331.410156,4424.743652,7042,4,79,,,,0,4,4,4,4,4,4,4,4,4,4,4,4,4,4,100,,,,,,,,,,,,,,,,,,,,,,,,,,,,,,,,,,,,,,,,,,,,,,,,,,,,,,,,,,,,,,,,,,,,,,,,,,,,,,,,,,,,,,,,,,,,,,,,,,,,,,,,,,,,,,,,,,,,,,,,,,,,,,,,,,,,,,
1702544517,1702544517,110,0,4257.563965,4484.871582,4204.358887,4279.743652,4390.512695,4320.769043,4266.153809,4249.487305,4251.410156,4308.461426,4378.205078,4404.615234,4348.077148,4441.410156,6087,4,79,,,,0,4,4,4,4,4,4,4,4,4,4,4,4,4,4,100,,,,,,,,,,,,,,,,,,,,,,,,,,,,,,,,,,,,,,,,,,,,,,,,,,,,,,,,,,,,,,,,,,,,,,,,,,,,,,,,,,,,,,,,,,,,,,,,,,,,,,,,,,,,,,,,,,,,,,,,,,,,,,,,,,,,,,
1702544517,1702544517,111,0,4254.615234,4491.794922,4196.666504,4268.974121,4388.974121,4317.563965,4261.538574,4242.179688,4245.897461,4312.436035,4380,4397.692383,4346.794922,4445.512695,6337,4,79,,,,0,4,4,4,4,4,4,4,4,4,4,4,4,4,4,100,,,,,,,,,,,,,,,,,,,,,,,,,,,,,,,,,,,,,,,,,,,,,,,,,,,,,,,,,,,,,,,,,,,,,,,,,,,,,,,,,,,,,,,,,,,,,,,,,,,,,,,,,,,,,,,,,,,,,,,,,,,,,,,,,,,,,,
1702544517,1702544517,112,0,4254.230957,4482.179688,4206.410156,4257.179688,4392.436035,4327.179688,4278.461426,4254.743652,4261.794922,4319.102539,4390.897461,4412.307617,4350.256348,4439.615234,6760,4,79,,,,0,4,4,4,4,4,4,4,4,4,4,4,4,4,4,100,,,,,,,,,,,,,,,,,28,0,0.555986,0.294495,-0.669556,0.394775,0.955683,-0.157246,-0.093273,-17.047649,3.156079,86.220963,,,,,,,,,,,,,,,,,,,,,,,,,,,,,,,,,,,,,37.171932,2.078822,0.943072,0.710308,1.098041,75.086929,9.436711,2.064755,1.421886,1.348089,10.762655,1.444853,0.674751,0.445538,0.966794,15.530385,1.73303,1.056802,0.882888,1.203879,2.739294,0.679699,0.427399,0.842662,0.988171,6.959742,0.649115,0.682077,0.416004,1.03933,6.096342,0.56783,0.553565,0.524255,0.95489,7.446003,0.579357,0.665106,0.409909,0.820374,11.076138,0.644125,0.675204,0.53461,0.915598,13.88907,1.182294,1.011182,1.427096,1.393451,35.001244,1.695633,1.731985,1.198854,2.968703,21.910112,1.371476,0.884733,0.749691,1.362457,105.017517,5.197682,1.182808,1.190773,2.05267,56.267075,3.343888,1.644024,1.144475,1.634875
1702544517,1702544517,113,0,4265.384766,4494.615234,4223.077148,4279.230957,4406.794922,4345.256348,4300,4280.769043,4285,4337.563965,4399.743652,4435.897461,4368.589844,4446.025879,7042,4,79,,,,0,4,4,4,4,4,4,4,4,4,4,4,4,4,4,100,,,,,,,,,,,,,,,,,,,,,,,,,,,,,,,,,,,,,,,,,,,,,,,,,,,,,,,,,,,,,,,,,,,,,,,,,,,,,,,,,,,,,,,,,,,,,,,,,,,,,,,,,,,,,,,,,,,,,,,,,,,,,,,,,,,,,,
1702544517,1702544517,114,0,4272.05127,4529.615234,4215.384766,4297.820313,4406.666504,4336.410156,4286.666504,4266.153809,4270,4334.487305,4378.589844,4426.282227,4371.025879,4455.512695,6087,4,79,,,,0,4,4,4,4,4,4,4,4,4,4,4,4,4,4,100,,,,,,,,,,,,,,,,,,,,,,,,,,,,,,,,,,,,,,,,,,,,,,,,,,,,,,,,,,,,,,,,,,,,,,,,,,,,,,,,,,,,,,,,,,,,,,,,,,,,,,,,,,,,,,,,,,,,,,,,,,,,,,,,,,,,,,
1702544517,1702544517,115,0,4274.871582,4559.487305,4216.794922,4298.717773,4402.05127,4329.230957,4275.128418,4245.641113,4248.846191,4312.563965,4367.179688,4417.692383,4356.666504,4459.743652,6337,4,79,,,,0,4,4,4,4,4,4,4,4,4,4,4,4,4,4,100,,,,,,,,,,,,,,,,,,,,,,,,,,,,,,,,,,,,,,,,,,,,,,,,,,,,,,,,,,,,,,,,,,,,,,,,,,,,,,,,,,,,,,,,,,,,,,,,,,,,,,,,,,,,,,,,,,,,,,,,,,,,,,,,,,,,,,
1702544517,1702544517,116,0,4283.846191,4580.384766,4235.128418,4310.897461,4416.025879,4345.512695,4292.94873,4255.256348,4253.846191,4300,4377.563965,4432.563965,4336.153809,4468.077148,6760,4,79,,,,0,4,4,4,4,4,4,4,4,4,4,4,4,4,4,100,,,,,,,,,,,,,,,,,29,0,0.556197,0.294495,-0.669128,0.395203,0.968868,-0.159687,-0.107435,-17.142883,3.107138,86.082199,,,,,,,,,,,,,,,,,,,,,,,,,,,,,,,,,,,,,,,,,,,,,,,,,,,,,,,,,,,,,,,,,,,,,,,,,,,,,,,,,,,,,,,,,,,,,,,,,,,,,,,,,,
1702544517,1702544517,117,0,4289.230957,4590.384766,4234.487305,4320.384766,4420.641113,4349.102539,4292.820313,4253.717773,4253.589844,4297.05127,4367.820313,4431.282227,4323.589844,4472.05127,7042,4,79,,,,0,4,4,4,4,4,4,4,4,4,4,4,4,4,4,100,,,,,,,,,,,,,,,,,,,,,,,,,,,,,,,,,,,,,,,,,,,,,,,,,,,,,,,,,,,,,,,,,,,,,,,,,,,,,,,,,,,,,,,,,,,,,,,,,,,,,,,,,,,,,,,,,,,,,,,,,,,,,,,,,,,,,,
1702544517,1702544517,118,0,4288.205078,4589.102539,4228.333496,4311.282227,4415,4339.743652,4278.333496,4243.974121,4248.205078,4303.846191,4359.102539,4420.384766,4342.05127,4476.538574,6087,4,79,,,,0,4,4,4,4,4,4,4,4,4,4,4,4,4,4,100,,,,,,,,,,,,,,,,,,,,,,,,,,,,,,,,,,,,,,,,,,,,,,,,,,,,,,,,,,,,,,,,,,,,,,,,,,,,,,,,,,,,,,,,,,,,,,,,,,,,,,,,,,,,,,,,,,,,,,,,,,,,,,,,,,,,,,
1702544517,1702544517,119,0,4290,4589.871582,4239.615234,4312.179688,4423.846191,4346.794922,4286.794922,4262.05127,4265,4322.307617,4381.666504,4426.282227,4366.922852,4490,6337,4,79,,,,0,4,4,4,4,4,4,4,4,4,4,4,4,4,4,100,,,,,,,,,,,,,,,,,,,,,,,,,,,,,,,,,,,,,,,,,,,,,,,,,,,,,,,,,,,,,,,,,,,,,,,,,,,,,,,,,,,,,,,,,,,,,,,,,,,,,,,,,,,,,,,,,,,,,,,,,,,,,,,,,,,,,,
1702544517,1702544517,120,0,4280.384766,4576.153809,4234.743652,4310.897461,4420,4345.641113,4285.256348,4266.538574,4271.538574,4316.410156,4382.94873,4412.820313,4351.794922,4478.589844,6760,4,79,,,,0,4,4,4,4,4,4,4,4,4,4,4,4,4,4,100,,,,,,,,,,,,,,,,,30,0,0.556556,0.294067,-0.668945,0.395325,0.968868,-0.170919,-0.099622,-17.078596,3.029757,86.057312,,,,,,,,,,,,,,,,,,,,,,,,,,,,,,,,,,,,,,,,,,,,,,,,,,,,,,,,,,,,,,,,,,,,,,,,,,,,,,,,,,,,,,,,,,,,,,,,,,,,,,,,,,
1702544517,1702544517,121,0,4271.666504,4558.846191,4223.077148,4298.077148,4402.820313,4334.102539,4267.692383,4244.743652,4256.153809,4296.922852,4365.384766,4390.256348,4331.922852,4460.384766,7042,4,79,,,,0,4,4,4,4,4,4,4,4,4,4,4,4,4,4,100,,,,,,,,,,,,,,,,,,,,,,,,,,,,,,,,,,,,,,,,,,,,,,,,,,,,,,,,,,,,,,,,,,,,,,,,,,,,,,,,,,,,,,,,,,,,,,,,,,,,,,,,,,,,,,,,,,,,,,,,,,,,,,,,,,,,,,
1702544517,1702544517,122,0,4285,4569.358887,4235.641113,4303.333496,4414.102539,4341.922852,4275.384766,4245.641113,4260.897461,4305.641113,4378.077148,4402.179688,4353.461426,4477.820313,6087,4,79,,,,0,4,4,4,4,4,4,4,4,4,4,4,4,4,4,100,,,,,,,,,,,,,,,,,,,,,,,,,,,,,,,,,,,,,,,,,,,,,,,,,,,,,,,,,,,,,,,,,,,,,,,,,,,,,,,,,,,,,,,,,,,,,,,,,,,,,,,,,,,,,,,,,,,,,,,,,,,,,,,,,,,,,,
1702544517,1702544517,123,0,4286.410156,4568.589844,4239.743652,4306.025879,4421.538574,4345.128418,4283.589844,4255.256348,4269.615234,4316.538574,4386.410156,4410.641113,4363.077148,4485.641113,6337,4,79,,,,0,4,4,4,4,4,4,4,4,4,4,4,4,4,4,100,,,,,,,,,,,,,,,,,,,,,,,,,,,,,,,,,,,,,,,,,,,,,,,,,,,,,,,,,,,,,,,,,,,,,,,,,,,,,,,,,,,,,,,,,,,,,,,,,,,,,,,,,,,,,,,,,,,,,,,,,,,,,,,,,,,,,,
1702544517,1702544517,124,0,4273.461426,4547.820313,4231.153809,4296.666504,4412.820313,4340.384766,4276.794922,4251.666504,4262.307617,4311.922852,4372.307617,4401.666504,4350,4470,6760,4,79,,,,0,4,4,4,4,4,4,4,4,4,4,4,4,4,4,100,,,,,,,,,,,,,,,,,31,0,0.556967,0.293396,-0.669006,0.395142,0.966915,-0.171896,-0.093273,-16.970736,3.010115,86.084915,,,,,,,,,,,,,,,,,,,,,,,,,,,,,,,,,,,,,,,,,,,,,,,,,,,,,,,,,,,,,,,,,,,,,,,,,,,,,,,,,,,,,,,,,,,,,,,,,,,,,,,,,,
1702544517,1702544517,125,0,4297.05127,4565.256348,4256.025879,4318.589844,4434.743652,4362.820313,4297.820313,4265.384766,4274.871582,4328.461426,4390.128418,4430.256348,4376.922852,4495.512695,7042,4,79,,,,0,4,4,4,4,4,4,4,4,4,4,4,4,4,4,100,,,,,,,,,,,,,,,,,,,,,,,,,,,,,,,,,,,,,,,,,,,,,,,,,,,,,,,,,,,,,,,,,,,,,,,,,,,,,,,,,,,,,,,,,,,,,,,,,,,,,,,,,,,,,,,,,,,,,,,,,,,,,,,,,,,,,,
1702544517,1702544517,126,0,4317.820313,4583.974121,4278.974121,4337.179688,4450.256348,4378.205078,4317.94873,4279.230957,4287.436035,4342.692383,4412.05127,4459.102539,4400.769043,4520.641113,6087,4,79,,,,0,4,4,4,4,4,4,4,4,4,4,4,4,4,4,100,,,,,,,,,,,,,,,,,,,,,,,,,,,,,,,,,,,,,,,,,,,,,,,,,,,,,,,,,,,,,,,,,,,,,,,,,,,,,,,,,,,,,,,,,,,,,,,,,,,,,,,,,,,,,,,,,,,,,,,,,,,,,,,,,,,,,,
1702544517,1702544517,127,0,4286.282227,4546.025879,4247.436035,4304.743652,4418.846191,4344.743652,4290.256348,4258.205078,4258.974121,4305.897461,4380,4429.358887,4361.410156,4487.436035,79,4,79,,,,0,4,4,4,4,4,4,4,4,4,4,4,4,4,4,100,,,,,,,,,,,,,,,,,,,,,,,,,,,,,,,,,,,,,,,,,,,,,,,,,,,,,,,,,,,,,,,,,,,,,,,,,,,,,,,,,,,,,,,,,,,,,,,,,,,,,,,,,,,,,,,,,,,,,,,,,,,,,,,,,,,,,,
1702544517,1702544517,0,0,4263.974121,4513.205078,4222.179688,4283.717773,4394.358887,4318.717773,4264.743652,4238.333496,4234.358887,4277.94873,4345.897461,4403.846191,4329.102539,4462.307617,5462,4,79,,,,0,4,4,4,4,4,4,4,4,4,4,4,4,4,4,100,,,,,,,,,,,,,,,,,0,0,0.557008,0.292786,-0.669312,0.39502,0.970822,-0.171896,-0.111342,-16.923662,2.859103,86.193092,,,,,,,,,,,,,,,,,,,,,,,,,,,,,,,,,,,,,40.891018,2.602751,0.896279,0.584928,1.063233,84.967239,13.516836,1.777404,1.399539,1.323509,8.89904,1.656612,0.721324,0.417792,0.954402,17.84477,2.262629,1.05105,0.773844,1.224715,2.168821,0.779069,0.349668,0.775893,1.040991,4.991708,0.817868,0.796971,0.395896,0.917838,4.144073,0.679963,0.71472,0.502906,0.882271,4.811277,0.537752,0.818624,0.410385,0.761031,6.516647,0.57045,0.7818,0.449209,0.868502,6.927275,1.287642,1.133183,1.23513,1.331033,26.98221,1.598409,1.925593,1.048358,2.787988,18.151649,1.465246,0.982641,0.734944,1.318574,107.564232,5.585163,1.184651,1.009081,1.959622,63.388901,4.363289,1.811495,0.964277,1.545087
1702544517,1702544517,1,0,4286.282227,4533.589844,4246.025879,4314.743652,4418.205078,4343.589844,4285.897461,4257.307617,4263.717773,4309.358887,4374.358887,4432.820313,4367.692383,4486.025879,5576,4,79,,,,0,4,4,4,4,4,4,4,4,4,4,4,4,4,4,100,,,,,,,,,,,,,,,,,,,,,,,,,,,,,,,,,,,,,,,,,,,,,,,,,,,,,,,,,,,,,,,,,,,,,,,,,,,,,,,,,,,,,,,,,,,,,,,,,,,,,,,,,,,,,,,,,,,,,,,,,,,,,,,,,,,,,,
1702544517,1702544517,2,0,4289.102539,4543.205078,4258.974121,4326.153809,4432.436035,4357.307617,4298.077148,4270.512695,4286.922852,4331.025879,4397.436035,4447.94873,4387.820313,4498.461426,5495,4,79,,,,0,4,4,4,4,4,4,4,4,4,4,4,4,4,4,100,,,,,,,,,,,,,,,,,,,,,,,,,,,,,,,,,,,,,,,,,,,,,,,,,,,,,,,,,,,,,,,,,,,,,,,,,,,,,,,,,,,,,,,,,,,,,,,,,,,,,,,,,,,,,,,,,,,,,,,,,,,,,,,,,,,,,,
1702544517,1702544517,3,0,4273.205078,4524.743652,4243.846191,4307.179688,4414.358887,4342.436035,4281.025879,4254.102539,4268.461426,4318.333496,4378.846191,4433.205078,4355.897461,4485.769043,5399,4,79,,,,0,4,4,4,4,4,4,4,4,4,4,4,4,4,4,100,,,,,,,,,,,,,,,,,,,,,,,,,,,,,,,,,,,,,,,,,,,,,,,,,,,,,,,,,,,,,,,,,,,,,,,,,,,,,,,,,,,,,,,,,,,,,,,,,,,,,,,,,,,,,,,,,,,,,,,,,,,,,,,,,,,,,,
1702544517,1702544517,4,0,4279.487305,4521.410156,4242.436035,4301.538574,4409.358887,4338.333496,4272.436035,4242.307617,4260.897461,4314.871582,4373.717773,4434.358887,4355,4487.179688,5384,4,79,,,,0,4,4,4,4,4,4,4,4,4,4,4,4,4,4,100,,,,,,,,,,,,,,,,,1,0,0.556939,0.292664,-0.669495,0.394897,0.960566,-0.172873,-0.109877,-16.914629,3.023193,86.407112,,,,,,,,,,,,,,,,,,,,,,,,,,,,,,,,,,,,,,,,,,,,,,,,,,,,,,,,,,,,,,,,,,,,,,,,,,,,,,,,,,,,,,,,,,,,,,,,,,,,,,,,,,
1702544517,1702544517,5,0,4283.717773,4521.794922,4245.641113,4299.487305,4411.025879,4333.846191,4264.871582,4238.205078,4266.025879,4316.538574,4378.461426,4434.615234,4381.410156,4492.307617,5342,4,79,,,,0,4,4,4,4,4,4,4,4,4,4,4,4,4,4,100,,,,,,,,,,,,,,,,,,,,,,,,,,,,,,,,,,,,,,,,,,,,,,,,,,,,,,,,,,,,,,,,,,,,,,,,,,,,,,,,,,,,,,,,,,,,,,,,,,,,,,,,,,,,,,,,,,,,,,,,,,,,,,,,,,,,,,
1702544517,1702544517,6,0,4276.538574,4508.333496,4239.487305,4293.717773,4402.05127,4324.102539,4254.230957,4228.717773,4251.922852,4303.974121,4368.461426,4424.102539,4381.794922,4482.94873,5278,4,79,,,,0,4,4,4,4,4,4,4,4,4,4,4,4,4,4,100,,,,,,,,,,,,,,,,,,,,,,,,,,,,,,,,,,,,,,,,,,,,,,,,,,,,,,,,,,,,,,,,,,,,,,,,,,,,,,,,,,,,,,,,,,,,,,,,,,,,,,,,,,,,,,,,,,,,,,,,,,,,,,,,,,,,,,
1702544517,1702544517,7,0,4292.820313,4521.410156,4253.846191,4307.692383,4408.974121,4336.410156,4266.922852,4234.102539,4250.128418,4303.077148,4382.179688,4442.05127,4389.358887,4494.487305,5131,4,79,,,,0,4,4,4,4,4,4,4,4,4,4,4,4,4,4,100,,,,,,,,,,,,,,,,,,,,,,,,,,,,,,,,,,,,,,,,,,,,,,,,,,,,,,,,,,,,,,,,,,,,,,,,,,,,,,,,,,,,,,,,,,,,,,,,,,,,,,,,,,,,,,,,,,,,,,,,,,,,,,,,,,,,,,
1702544517,1702544517,8,0,4319.102539,4556.153809,4278.846191,4323.974121,4427.436035,4348.846191,4282.820313,4249.871582,4275,4324.230957,4413.974121,4470.128418,4425,4531.538574,5390,4,79,,,,0,4,4,4,4,4,4,4,4,4,4,4,4,4,4,100,,,,,,,,,,,,,,,,,2,0,0.557117,0.292908,-0.669312,0.394775,0.966427,-0.159687,-0.100598,-16.939833,3.054207,86.249733,,,,,,,,,,,,,,,,,,,,,,,,,,,,,,,,,,,,,,,,,,,,,,,,,,,,,,,,,,,,,,,,,,,,,,,,,,,,,,,,,,,,,,,,,,,,,,,,,,,,,,,,,,
1702544517,1702544517,9,0,4337.94873,4580.256348,4290,4326.794922,4428.717773,4343.205078,4281.666504,4252.94873,4284.102539,4343.461426,4426.153809,4480.128418,4458.589844,4563.333496,5384,4,79,,,,0,4,4,4,4,4,4,4,4,4,4,4,4,4,4,100,,,,,,,,,,,,,,,,,,,,,,,,,,,,,,,,,,,,,,,,,,,,,,,,,,,,,,,,,,,,,,,,,,,,,,,,,,,,,,,,,,,,,,,,,,,,,,,,,,,,,,,,,,,,,,,,,,,,,,,,,,,,,,,,,,,,,,
1702544517,1702544517,10,0,4365.769043,4608.717773,4300.512695,4338.589844,4423.077148,4344.487305,4283.846191,4249.230957,4271.922852,4337.307617,4437.05127,4495,4497.307617,4588.333496,6063,4,79,,,,0,4,4,4,4,4,4,4,4,4,4,4,4,4,4,100,,,,,,,,,,,,,,,,,,,,,,,,,,,,,,,,,,,,,,,,,,,,,,,,,,,,,,,,,,,,,,,,,,,,,,,,,,,,,,,,,,,,,,,,,,,,,,,,,,,,,,,,,,,,,,,,,,,,,,,,,,,,,,,,,,,,,,
1702544517,1702544517,11,0,4384.358887,4639.615234,4307.692383,4345.897461,4416.922852,4339.230957,4279.871582,4241.153809,4259.871582,4312.05127,4447.307617,4505,4542.179688,4611.666504,6300,4,79,,,,0,4,4,4,4,4,4,4,4,4,4,4,4,4,4,100,,,,,,,,,,,,,,,,,,,,,,,,,,,,,,,,,,,,,,,,,,,,,,,,,,,,,,,,,,,,,,,,,,,,,,,,,,,,,,,,,,,,,,,,,,,,,,,,,,,,,,,,,,,,,,,,,,,,,,,,,,,,,,,,,,,,,,
1702544517,1702544517,12,0,4395.512695,4671.153809,4312.307617,4351.922852,4413.589844,4330.384766,4270.512695,4236.922852,4262.307617,4313.974121,4461.410156,4507.692383,4584.487305,4642.94873,6750,4,79,,,,0,4,4,4,4,4,4,4,4,4,4,4,4,4,4,100,,,,,,,,,,,,,,,,,3,0,0.557126,0.29303,-0.66925,0.394775,0.966915,-0.167989,-0.09132,-16.812517,3.115453,86.208092,,,,,,,,,,,,,,,,,,,,,,,,,,,,,,,,,,,,,,,,,,,,,,,,,,,,,,,,,,,,,,,,,,,,,,,,,,,,,,,,,,,,,,,,,,,,,,,,,,,,,,,,,,
1702544517,1702544517,13,0,4428.717773,4714.871582,4330.384766,4383.205078,4425.128418,4342.05127,4280.256348,4250.769043,4279.615234,4338.846191,4493.077148,4528.846191,4638.717773,4687.307617,7027,4,79,,,,0,4,4,4,4,4,4,4,4,4,4,4,4,4,4,100,,,,,,,,,,,,,,,,,,,,,,,,,,,,,,,,,,,,,,,,,,,,,,,,,,,,,,,,,,,,,,,,,,,,,,,,,,,,,,,,,,,,,,,,,,,,,,,,,,,,,,,,,,,,,,,,,,,,,,,,,,,,,,,,,,,,,,
1702544517,1702544517,14,0,4458.461426,4740.897461,4348.717773,4399.102539,4430.769043,4349.615234,4292.05127,4260.256348,4286.282227,4348.589844,4513.717773,4550.384766,4691.410156,4723.461426,6063,4,79,,,,0,4,4,4,4,4,4,4,4,4,4,4,4,4,4,100,,,,,,,,,,,,,,,,,,,,,,,,,,,,,,,,,,,,,,,,,,,,,,,,,,,,,,,,,,,,,,,,,,,,,,,,,,,,,,,,,,,,,,,,,,,,,,,,,,,,,,,,,,,,,,,,,,,,,,,,,,,,,,,,,,,,,,
1702544517,1702544517,15,0,4470.128418,4747.307617,4358.589844,4387.436035,4427.05127,4346.922852,4291.538574,4258.333496,4283.589844,4348.846191,4519.743652,4555.256348,4719.487305,4745.897461,6300,4,79,,,,0,4,4,4,4,4,4,4,4,4,4,4,4,4,4,100,,,,,,,,,,,,,,,,,,,,,,,,,,,,,,,,,,,,,,,,,,,,,,,,,,,,,,,,,,,,,,,,,,,,,,,,,,,,,,,,,,,,,,,,,,,,,,,,,,,,,,,,,,,,,,,,,,,,,,,,,,,,,,,,,,,,,,
1702544517,1702544517,16,0,4486.666504,4772.563965,4369.358887,4400,4429.871582,4351.025879,4292.436035,4263.333496,4290.512695,4347.05127,4526.410156,4564.487305,4732.563965,4765.128418,0,4,79,,,,0,4,4,4,4,4,4,4,4,4,4,4,4,4,4,100,1,25,1,1,1,1,1,1,1,1,3,1,1,1,1,1,4,0,0.557532,0.293152,-0.668823,0.394836,0.966427,-0.164083,-0.106458,-16.697931,3.087241,86.137283,,,,,,,,,,,,,,,,,,,,,,,,,,,,,,,,,,,,,50.056217,3.083771,0.871709,0.476779,1.008701,105.752388,17.356653,1.740584,1.315609,1.278447,8.421531,1.847224,0.7618,0.402317,0.943556,21.897604,2.851804,1.129488,0.663606,1.217526,2.09606,0.935215,0.3204,0.730037,1.083542,4.13391,1.068381,0.890064,0.396091,0.825329,3.267585,0.947147,0.877432,0.491428,0.830894,3.380411,0.595101,0.921471,0.440295,0.707384,3.913037,0.575769,0.840037,0.420495,0.818209,3.250143,1.427827,1.196708,1.085213,1.300401,26.274305,1.720327,2.049934,0.971791,2.646409,17.178257,1.612365,1.081424,0.766092,1.291003,129.969009,6.175876,1.335673,0.972937,1.848415,78.367142,5.208006,1.896014,0.854866,1.446272
1702544517,1702544517,17,0,4501.410156,4802.179688,4379.487305,4428.333496,4432.820313,4355.512695,4295.128418,4268.846191,4298.846191,4345,4535.384766,4583.846191,4738.846191,4775,0,4,79,,,,0,4,4,4,4,4,4,4,4,4,4,4,4,4,4,100,,,,,,,,,,,,,,,,,,,,,,,,,,,,,,,,,,,,,,,,,,,,,,,,,,,,,,,,,,,,,,,,,,,,,,,,,,,,,,,,,,,,,,,,,,,,,,,,,,,,,,,,,,,,,,,,,,,,,,,,,,,,,,,,,,,,,,
1702544517,1702544517,18,0,4491.282227,4785.641113,4377.307617,4416.282227,4425.641113,4348.717773,4291.410156,4261.282227,4292.94873,4343.846191,4537.820313,4582.307617,4719.743652,4765.256348,0,4,79,,,,0,4,4,4,4,4,4,4,4,4,4,4,4,4,4,100,,,,,,,,,,,,,,,,,,,,,,,,,,,,,,,,,,,,,,,,,,,,,,,,,,,,,,,,,,,,,,,,,,,,,,,,,,,,,,,,,,,,,,,,,,,,,,,,,,,,,,,,,,,,,,,,,,,,,,,,,,,,,,,,,,,,,,
1702544517,1702544517,19,0,4482.436035,4758.589844,4387.179688,4411.794922,4429.743652,4355,4298.846191,4266.153809,4297.179688,4349.230957,4542.05127,4582.05127,4701.282227,4767.820313,0,4,79,,,,0,4,4,4,4,4,4,4,4,4,4,4,4,4,4,100,,,,,,,,,,,,,,,,,,,,,,,,,,,,,,,,,,,,,,,,,,,,,,,,,,,,,,,,,,,,,,,,,,,,,,,,,,,,,,,,,,,,,,,,,,,,,,,,,,,,,,,,,,,,,,,,,,,,,,,,,,,,,,,,,,,,,,
1702544517,1702544517,20,0,4472.563965,4746.538574,4392.436035,4424.743652,4434.871582,4360.769043,4304.743652,4270.512695,4303.333496,4351.538574,4531.538574,4585.512695,4680.128418,4766.153809,0,4,79,,,,0,4,4,4,4,4,4,4,4,4,4,4,4,4,4,100,,,,,,,,,,,,,,,,,5,0,0.558143,0.293152,-0.668457,0.394592,0.970822,-0.159687,-0.092785,-16.761473,3.145184,86.156891,,,,,,,,,,,,,,,,,,,,,,,,,,,,,,,,,,,,,,,,,,,,,,,,,,,,,,,,,,,,,,,,,,,,,,,,,,,,,,,,,,,,,,,,,,,,,,,,,,,,,,,,,,
1702544517,1702544517,21,0,4441.538574,4712.94873,4367.820313,4393.974121,4421.538574,4347.692383,4294.871582,4252.820313,4287.05127,4345.384766,4497.94873,4563.461426,4624.743652,4726.153809,0,4,79,,,,0,4,4,4,4,4,4,4,4,4,4,4,4,4,4,100,,,,,,,,,,,,,,,,,,,,,,,,,,,,,,,,,,,,,,,,,,,,,,,,,,,,,,,,,,,,,,,,,,,,,,,,,,,,,,,,,,,,,,,,,,,,,,,,,,,,,,,,,,,,,,,,,,,,,,,,,,,,,,,,,,,,,,
1702544517,1702544517,22,0,4417.94873,4672.436035,4354.743652,4367.94873,4420.128418,4348.205078,4292.820313,4249.230957,4280.769043,4339.615234,4480.512695,4548.846191,4580,4688.974121,0,4,79,,,,0,4,4,4,4,4,4,4,4,4,4,4,4,4,4,100,,,,,,,,,,,,,,,,,,,,,,,,,,,,,,,,,,,,,,,,,,,,,,,,,,,,,,,,,,,,,,,,,,,,,,,,,,,,,,,,,,,,,,,,,,,,,,,,,,,,,,,,,,,,,,,,,,,,,,,,,,,,,,,,,,,,,,
1702544517,1702544517,23,0,4403.846191,4647.436035,4358.846191,4378.333496,4428.846191,4357.436035,4298.461426,4260.769043,4290.769043,4333.846191,4476.922852,4552.94873,4565.641113,4672.820313,0,4,79,,,,0,4,4,4,4,4,4,4,4,4,4,4,4,4,4,100,,,,,,,,,,,,,,,,,,,,,,,,,,,,,,,,,,,,,,,,,,,,,,,,,,,,,,,,,,,,,,,,,,,,,,,,,,,,,,,,,,,,,,,,,,,,,,,,,,,,,,,,,,,,,,,,,,,,,,,,,,,,,,,,,,,,,,
1702544517,1702544517,24,0,4381.153809,4618.846191,4353.589844,4370.384766,4424.743652,4355.512695,4296.666504,4255.897461,4288.205078,4331.153809,4462.94873,4546.794922,4534.358887,4650.769043,0,4,79,,,,0,4,4,4,4,4,4,4,4,4,4,4,4,4,4,100,,,,,,,,,,,,,,,,,6,0,0.558723,0.292908,-0.668152,0.39447,0.979123,-0.170431,-0.105482,-16.801991,3.047332,86.074532,,,,,,,,,,,,,,,,,,,,,,,,,,,,,,,,,,,,,,,,,,,,,,,,,,,,,,,,,,,,,,,,,,,,,,,,,,,,,,,,,,,,,,,,,,,,,,,,,,,,,,,,,,
