Timestamp,OriginalTimestamp,EEG.Counter,EEG.Interpolated,EEG.AF3,EEG.F7,EEG.F3,EEG.FC5,EEG.T7,EEG.P7,EEG.O1,EEG.O2,EEG.P8,EEG.T8,EEG.FC6,EEG.F4,EEG.F8,EEG.AF4,EEG.RawCq,EEG.Battery,EEG.BatteryPercent,MarkerIndex,MarkerType,MarkerValueInt,EEG.MarkerHardware,CQ.AF3,CQ.F7,CQ.F3,CQ.FC5,CQ.T7,CQ.P7,CQ.O1,CQ.O2,CQ.P8,CQ.T8,CQ.FC6,CQ.F4,CQ.F8,CQ.AF4,CQ.Overall,EQ.SampleRateQuality,EQ.OVERALL,EQ.AF3,EQ.F7,EQ.F3,EQ.FC5,EQ.T7,EQ.P7,EQ.O1,EQ.O2,EQ.P8,EQ.T8,EQ.FC6,EQ.F4,EQ.F8,EQ.AF4,MOT.CounterMems,MOT.InterpolatedMems,MOT.Q0,MOT.Q1,MOT.Q2,MOT.Q3,MOT.AccX,MOT.AccY,MOT.AccZ,MOT.MagX,MOT.MagY,MOT.MagZ,PM.Attention.IsActive,PM.Attention.Scaled,PM.Attention.Raw,PM.Attention.Min,PM.Attention.Max,PM.Engagement.IsActive,PM.Engagement.Scaled,PM.Engagement.Raw,PM.Engagement.Min,PM.Engagement.Max,PM.Excitement.IsActive,PM.Excitement.Scaled,PM.Excitement.Raw,PM.Excitement.Min,PM.Excitement.Max,PM.LongTermExcitement,PM.Stress.IsActive,PM.Stress.Scaled,PM.Stress.Raw,PM.Stress.Min,PM.Stress.Max,PM.Relaxation.IsActive,PM.Relaxation.Scaled,PM.Relaxation.Raw,PM.Relaxation.Min,PM.Relaxation.Max,PM.Interest.IsActive,PM.Interest.Scaled,PM.Interest.Raw,PM.Interest.Min,PM.Interest.Max,PM.Focus.IsActive,PM.Focus.Scaled,PM.Focus.Raw,PM.Focus.Min,PM.Focus.Max,POW.AF3.Theta,POW.AF3.Alpha,POW.AF3.BetaL,POW.AF3.BetaH,POW.AF3.Gamma,POW.F7.Theta,POW.F7.Alpha,POW.F7.BetaL,POW.F7.BetaH,POW.F7.Gamma,POW.F3.Theta,POW.F3.Alpha,POW.F3.BetaL,POW.F3.BetaH,POW.F3.Gamma,POW.FC5.Theta,POW.FC5.Alpha,POW.FC5.BetaL,POW.FC5.BetaH,POW.FC5.Gamma,POW.T7.Theta,POW.T7.Alpha,POW.T7.BetaL,POW.T7.BetaH,POW.T7.Gamma,POW.P7.Theta,POW.P7.Alpha,POW.P7.BetaL,POW.P7.BetaH,POW.P7.Gamma,POW.O1.Theta,POW.O1.Alpha,POW.O1.BetaL,POW.O1.BetaH,POW.O1.Gamma,POW.O2.Theta,POW.O2.Alpha,POW.O2.BetaL,POW.O2.BetaH,POW.O2.Gamma,POW.P8.Theta,POW.P8.Alpha,POW.P8.BetaL,POW.P8.BetaH,POW.P8.Gamma,POW.T8.Theta,POW.T8.Alpha,POW.T8.BetaL,POW.T8.BetaH,POW.T8.Gamma,POW.FC6.Theta,POW.FC6.Alpha,POW.FC6.BetaL,POW.FC6.BetaH,POW.FC6.Gamma,POW.F4.Theta,POW.F4.Alpha,POW.F4.BetaL,POW.F4.BetaH,POW.F4.Gamma,POW.F8.Theta,POW.F8.Alpha,POW.F8.BetaL,POW.F8.BetaH,POW.F8.Gamma,POW.AF4.Theta,POW.AF4.Alpha,POW.AF4.BetaL,POW.AF4.BetaH,POW.AF4.Gamma
,,,,,,,,,,,,,,,,,,,,,,,,,,,,,,,,,,,,,,,,,,,,,,,,,,,,,,,,,,,,,,,,,,,,,,,,,,,,,,,,,,,,,,,,,,,,,,,,,,,,,,,,,,,,,,,,,,,,,,,,,,,,,,,,,,,,,,,,,,,,,,,,,,,,,,,,,,,,,,,,,,,,,,,,,,,,,
1702544339,1702544339,18,0,4315.128418,4314.230957,4345.641113,4363.717773,4270.256348,4288.333496,4284.230957,4301.153809,4299.487305,4262.179688,4509.102539,4508.717773,4378.077148,4427.692383,0,4,79,,,,0,4,4,4,4,4,4,4,4,4,4,4,4,4,4,100,,,,,,,,,,,,,,,,,,,,,,,,,,,,,,,,,,,,,,,,,,,,,,,,,,,,,,,,,,,,,,,,,,,,,,,,,,,,,,,,,,,,,,,,,,,,,,,,,,,,,,,,,,,,,,,,,,,,,,,,,,,,,,,,,,,,,,
1702544339,1702544339,19,0,4322.436035,4319.487305,4362.307617,4372.307617,4279.615234,4302.563965,4302.179688,4318.333496,4317.179688,4293.333496,4522.436035,4533.077148,4388.077148,4436.538574,0,4,79,,,,0,4,4,4,4,4,4,4,4,4,4,4,4,4,4,100,,,,,,,,,,,,,,,,,,,,,,,,,,,,,,,,,,,,,,,,,,,,,,,,,,,,,,,,,,,,,,,,,,,,,,,,,,,,,,,,,,,,,,,,,,,,,,,,,,,,,,,,,,,,,,,,,,,,,,,,,,,,,,,,,,,,,,
1702544339,1702544339,20,0,4306.794922,4319.615234,4341.538574,4353.077148,4264.743652,4290.512695,4279.615234,4307.94873,4300.128418,4283.717773,4501.025879,4510.512695,4386.538574,4422.179688,0,4,79,,,,0,4,4,4,4,4,4,4,4,4,4,4,4,4,4,100,,,,,,,,,,,,,,,,,5,0,0.142464,0.588501,-0.291809,0.740417,0.976682,-0.237334,0.107435,-12.309929,6.205826,84.849457,,,,,,,,,,,,,,,,,,,,,,,,,,,,,,,,,,,,,,,,,,,,,,,,,,,,,,,,,,,,,,,,,,,,,,,,,,,,,,,,,,,,,,,,,,,,,,,,,,,,,,,,,,
1702544339,1702544339,21,0,4318.333496,4359.487305,4341.153809,4368.077148,4270.384766,4296.025879,4273.077148,4304.358887,4294.487305,4269.487305,4509.487305,4500.769043,4401.153809,4431.922852,0,4,79,,,,0,4,4,4,4,4,4,4,4,4,4,4,4,4,4,100,,,,,,,,,,,,,,,,,,,,,,,,,,,,,,,,,,,,,,,,,,,,,,,,,,,,,,,,,,,,,,,,,,,,,,,,,,,,,,,,,,,,,,,,,,,,,,,,,,,,,,,,,,,,,,,,,,,,,,,,,,,,,,,,,,,,,,
1702544339,1702544339,22,0,4352.692383,4413.077148,4378.077148,4412.820313,4293.846191,4332.179688,4314.102539,4326.025879,4320.897461,4295.897461,4545,4539.871582,4417.94873,4470.512695,0,4,79,,,,0,4,4,4,4,4,4,4,4,4,4,4,4,4,4,100,,,,,,,,,,,,,,,,,,,,,,,,,,,,,,,,,,,,,,,,,,,,,,,,,,,,,,,,,,,,,,,,,,,,,,,,,,,,,,,,,,,,,,,,,,,,,,,,,,,,,,,,,,,,,,,,,,,,,,,,,,,,,,,,,,,,,,
1702544339,1702544339,23,0,4350.512695,4428.077148,4377.820313,4414.615234,4299.487305,4333.333496,4321.410156,4329.871582,4322.563965,4288.846191,4530.384766,4547.307617,4399.871582,4473.589844,0,4,79,,,,0,4,4,4,4,4,4,4,4,4,4,4,4,4,4,100,,,,,,,,,,,,,,,,,,,,,,,,,,,,,,,,,,,,,,,,,,,,,,,,,,,,,,,,,,,,,,,,,,,,,,,,,,,,,,,,,,,,,,,,,,,,,,,,,,,,,,,,,,,,,,,,,,,,,,,,,,,,,,,,,,,,,,
1702544339,1702544339,24,0,4333.461426,4429.358887,4352.179688,4391.410156,4292.820313,4313.461426,4294.102539,4319.743652,4310.512695,4262.692383,4501.794922,4523.333496,4389.487305,4456.666504,0,4,79,,,,0,4,4,4,4,4,4,4,4,4,4,4,4,4,4,100,,,,,,,,,,,,,,,,,6,0,0.142537,0.588867,-0.291809,0.740112,0.949335,-0.237822,0.100598,-12.362269,6.168577,84.731178,,,,,,,,,,,,,,,,,,,,,,,,,,,,,,,,,,,,,,,,,,,,,,,,,,,,,,,,,,,,,,,,,,,,,,,,,,,,,,,,,,,,,,,,,,,,,,,,,,,,,,,,,,
1702544339,1702544339,25,0,4332.436035,4430.769043,4352.436035,4385.897461,4298.717773,4315,4295.128418,4317.563965,4309.102539,4275.897461,4502.05127,4521.794922,4395.512695,4454.615234,0,4,79,,,,0,4,4,4,4,4,4,4,4,4,4,4,4,4,4,100,,,,,,,,,,,,,,,,,,,,,,,,,,,,,,,,,,,,,,,,,,,,,,,,,,,,,,,,,,,,,,,,,,,,,,,,,,,,,,,,,,,,,,,,,,,,,,,,,,,,,,,,,,,,,,,,,,,,,,,,,,,,,,,,,,,,,,
1702544339,1702544339,26,0,4340.384766,4428.333496,4371.794922,4401.922852,4299.230957,4337.563965,4317.307617,4321.666504,4309.743652,4291.025879,4512.307617,4540,4391.025879,4456.538574,0,4,79,,,,0,4,4,4,4,4,4,4,4,4,4,4,4,4,4,100,,,,,,,,,,,,,,,,,,,,,,,,,,,,,,,,,,,,,,,,,,,,,,,,,,,,,,,,,,,,,,,,,,,,,,,,,,,,,,,,,,,,,,,,,,,,,,,,,,,,,,,,,,,,,,,,,,,,,,,,,,,,,,,,,,,,,,
1702544339,1702544339,27,0,4341.666504,4428.974121,4375.512695,4411.922852,4284.358887,4340,4315.384766,4323.846191,4312.179688,4280.769043,4513.333496,4549.615234,4381.794922,4451.794922,0,4,79,,,,0,4,4,4,4,4,4,4,4,4,4,4,4,4,4,100,,,,,,,,,,,,,,,,,,,,,,,,,,,,,,,,,,,,,,,,,,,,,,,,,,,,,,,,,,,,,,,,,,,,,,,,,,,,,,,,,,,,,,,,,,,,,,,,,,,,,,,,,,,,,,,,,,,,,,,,,,,,,,,,,,,,,,
1702544339,1702544339,28,0,4344.230957,4440.384766,4371.666504,4402.179688,4277.307617,4325.128418,4306.666504,4326.922852,4316.025879,4285.897461,4520,4552.692383,4395.512695,4461.410156,0,4,79,,,,0,4,4,4,4,4,4,4,4,4,4,4,4,4,4,100,,,,,,,,,,,,,,,,,7,0,0.142985,0.589355,-0.291687,0.739685,0.962031,-0.230497,0.095715,-12.526042,6.201719,84.80806,,,,,,,,,,,,,,,,,,,,,,,,,,,,,,,,,,,,,,,,,,,,,,,,,,,,,,,,,,,,,,,,,,,,,,,,,,,,,,,,,,,,,,,,,,,,,,,,,,,,,,,,,,
1702544339,1702544339,29,0,4351.410156,4451.410156,4376.410156,4396.922852,4263.461426,4326.153809,4318.846191,4331.282227,4316.282227,4303.589844,4533.205078,4555.384766,4417.563965,4479.358887,0,4,79,,,,0,4,4,4,4,4,4,4,4,4,4,4,4,4,4,100,,,,,,,,,,,,,,,,,,,,,,,,,,,,,,,,,,,,,,,,,,,,,,,,,,,,,,,,,,,,,,,,,,,,,,,,,,,,,,,,,,,,,,,,,,,,,,,,,,,,,,,,,,,,,,,,,,,,,,,,,,,,,,,,,,,,,,
1702544339,1702544339,30,0,4347.05127,4434.615234,4375.769043,4414.871582,4234.615234,4343.205078,4325.769043,4328.846191,4320.128418,4293.077148,4529.487305,4551.025879,4407.436035,4473.333496,0,4,79,,,,0,4,4,4,4,4,4,4,4,4,4,4,4,4,4,100,,,,,,,,,,,,,,,,,,,,,,,,,,,,,,,,,,,,,,,,,,,,,,,,,,,,,,,,,,,,,,,,,,,,,,,,,,,,,,,,,,,,,,,,,,,,,,,,,,,,,,,,,,,,,,,,,,,,,,,,,,,,,,,,,,,,,,
1702544339,1702544339,31,0,4348.077148,4418.461426,4377.05127,4425.641113,4228.717773,4352.179688,4322.94873,4332.692383,4331.666504,4282.692383,4524.230957,4554.871582,4395.641113,4465.384766,0,4,79,,,,0,4,4,4,4,4,4,4,4,4,4,4,4,4,4,100,,,,,,,,,,,,,,,,,,,,,,,,,,,,,,,,,,,,,,,,,,,,,,,,,,,,,,,,,,,,,,,,,,,,,,,,,,,,,,,,,,,,,,,,,,,,,,,,,,,,,,,,,,,,,,,,,,,,,,,,,,,,,,,,,,,,,,
1702544339,1702544339,32,0,4362.94873,4441.153809,4389.871582,4401.153809,4256.025879,4342.94873,4331.410156,4350.769043,4341.282227,4285,4538.205078,4574.743652,4413.205078,4481.538574,0,4,79,,,,0,4,4,4,4,4,4,4,4,4,4,4,4,4,4,100,,,,,,,,,,,,,,,,,8,0,0.144105,0.590027,-0.291016,0.739197,0.963497,-0.224148,0.098157,-12.540105,6.11488,84.793922,,,,,,,,,,,,,,,,,,,,,,,,,,,,,,,,,,,,,1.959863,0.275905,1.567943,1.14568,0.710966,15.689553,4.928607,1.270468,1.341079,0.662009,1.319265,0.338645,1.181617,0.860152,0.723601,1.821847,0.349637,1.280077,0.975781,0.807251,0.710211,0.456335,1.273612,0.815973,0.776699,2.622912,0.555472,0.355239,0.558621,0.510939,1.52542,0.676407,0.543886,0.66529,0.546479,1.553309,0.599479,0.543046,0.60111,0.684259,1.834704,0.62185,0.963717,0.759552,0.796978,2.806794,1.085982,1.595244,0.683897,1.057486,2.481349,0.957869,3.564012,1.993622,1.540215,3.017419,0.63315,1.405737,1.263402,1.033067,6.06075,2.433376,2.937625,1.755403,1.094055,1.837014,0.710062,2.192132,1.563052,0.854452
1702544339,1702544339,33,0,4376.410156,4477.179688,4406.153809,4398.205078,4273.333496,4345.384766,4348.077148,4365.512695,4347.563965,4302.94873,4561.025879,4592.563965,4438.717773,4499.230957,0,4,79,,,,0,4,4,4,4,4,4,4,4,4,4,4,4,4,4,100,,,,,,,,,,,,,,,,,,,,,,,,,,,,,,,,,,,,,,,,,,,,,,,,,,,,,,,,,,,,,,,,,,,,,,,,,,,,,,,,,,,,,,,,,,,,,,,,,,,,,,,,,,,,,,,,,,,,,,,,,,,,,,,,,,,,,,
1702544339,1702544339,34,0,4366.282227,4476.538574,4389.102539,4421.025879,4278.974121,4343.974121,4334.230957,4350.769043,4335.512695,4325.512695,4550,4572.307617,4435.769043,4483.846191,0,4,79,,,,0,4,4,4,4,4,4,4,4,4,4,4,4,4,4,100,,,,,,,,,,,,,,,,,,,,,,,,,,,,,,,,,,,,,,,,,,,,,,,,,,,,,,,,,,,,,,,,,,,,,,,,,,,,,,,,,,,,,,,,,,,,,,,,,,,,,,,,,,,,,,,,,,,,,,,,,,,,,,,,,,,,,,
1702544339,1702544339,35,0,4348.333496,4470.384766,4358.846191,4416.025879,4283.717773,4328.974121,4307.05127,4328.846191,4318.589844,4324.102539,4527.307617,4540.256348,4428.846191,4465.512695,0,4,79,,,,0,4,4,4,4,4,4,4,4,4,4,4,4,4,4,100,,,,,,,,,,,,,,,,,,,,,,,,,,,,,,,,,,,,,,,,,,,,,,,,,,,,,,,,,,,,,,,,,,,,,,,,,,,,,,,,,,,,,,,,,,,,,,,,,,,,,,,,,,,,,,,,,,,,,,,,,,,,,,,,,,,,,,
1702544339,1702544339,36,0,4355.256348,4496.666504,4373.461426,4399.230957,4264.743652,4335.128418,4320.897461,4340.256348,4333.589844,4321.794922,4540,4554.615234,4446.538574,4478.589844,0,4,79,,,,0,4,4,4,4,4,4,4,4,4,4,4,4,4,4,100,,,,,,,,,,,,,,,,,9,0,0.145264,0.590698,-0.290161,0.73877,0.944451,-0.221218,0.095226,-12.736094,6.253392,84.847862,,,,,,,,,,,,,,,,,,,,,,,,,,,,,,,,,,,,,,,,,,,,,,,,,,,,,,,,,,,,,,,,,,,,,,,,,,,,,,,,,,,,,,,,,,,,,,,,,,,,,,,,,,
1702544339,1702544339,37,0,4372.563965,4525.384766,4399.358887,4406.538574,4262.563965,4355,4342.94873,4353.077148,4353.461426,4341.922852,4557.436035,4576.282227,4467.05127,4494.743652,0,4,79,,,,0,4,4,4,4,4,4,4,4,4,4,4,4,4,4,100,,,,,,,,,,,,,,,,,,,,,,,,,,,,,,,,,,,,,,,,,,,,,,,,,,,,,,,,,,,,,,,,,,,,,,,,,,,,,,,,,,,,,,,,,,,,,,,,,,,,,,,,,,,,,,,,,,,,,,,,,,,,,,,,,,,,,,
1702544339,1702544339,38,0,4374.358887,4545,4393.333496,4418.846191,4300.384766,4359.487305,4335.641113,4348.461426,4358.846191,4364.743652,4560.641113,4570.769043,4468.461426,4493.846191,0,4,79,,,,0,4,4,4,4,4,4,4,4,4,4,4,4,4,4,100,,,,,,,,,,,,,,,,,,,,,,,,,,,,,,,,,,,,,,,,,,,,,,,,,,,,,,,,,,,,,,,,,,,,,,,,,,,,,,,,,,,,,,,,,,,,,,,,,,,,,,,,,,,,,,,,,,,,,,,,,,,,,,,,,,,,,,
1702544339,1702544339,39,0,4362.307617,4564.871582,4375.641113,4420.256348,4315.769043,4341.025879,4316.282227,4344.230957,4356.922852,4359.487305,4554.230957,4558.077148,4447.307617,4486.922852,0,4,79,,,,0,4,4,4,4,4,4,4,4,4,4,4,4,4,4,100,,,,,,,,,,,,,,,,,,,,,,,,,,,,,,,,,,,,,,,,,,,,,,,,,,,,,,,,,,,,,,,,,,,,,,,,,,,,,,,,,,,,,,,,,,,,,,,,,,,,,,,,,,,,,,,,,,,,,,,,,,,,,,,,,,,,,,
1702544339,1702544339,40,0,4366.794922,4578.846191,4384.358887,4431.153809,4300.897461,4338.077148,4318.461426,4347.307617,4352.692383,4356.410156,4552.692383,4561.538574,4443.077148,4490.512695,0,4,79,,,,0,4,4,4,4,4,4,4,4,4,4,4,4,4,4,100,,,,,,,,,,,,,,,,,10,0,0.146464,0.591309,-0.289246,0.738403,0.957636,-0.213893,0.096691,-12.762485,6.078053,84.829742,,,,,,,,,,,,,,,,,,,,,,,,,,,,,,,,,,,,,,,,,,,,,,,,,,,,,,,,,,,,,,,,,,,,,,,,,,,,,,,,,,,,,,,,,,,,,,,,,,,,,,,,,,
1702544339,1702544339,41,0,4380.897461,4589.871582,4403.077148,4446.794922,4291.794922,4357.05127,4337.436035,4348.974121,4347.94873,4373.974121,4558.589844,4573.717773,4463.974121,4498.077148,0,4,79,,,,0,4,4,4,4,4,4,4,4,4,4,4,4,4,4,100,,,,,,,,,,,,,,,,,,,,,,,,,,,,,,,,,,,,,,,,,,,,,,,,,,,,,,,,,,,,,,,,,,,,,,,,,,,,,,,,,,,,,,,,,,,,,,,,,,,,,,,,,,,,,,,,,,,,,,,,,,,,,,,,,,,,,,
1702544339,1702544339,42,0,4392.05127,4615.512695,4418.333496,4460,4278.077148,4380,4357.436035,4360.512695,4357.436035,4403.205078,4579.487305,4587.307617,4483.461426,4511.666504,0,4,79,,,,0,4,4,4,4,4,4,4,4,4,4,4,4,4,4,100,,,,,,,,,,,,,,,,,,,,,,,,,,,,,,,,,,,,,,,,,,,,,,,,,,,,,,,,,,,,,,,,,,,,,,,,,,,,,,,,,,,,,,,,,,,,,,,,,,,,,,,,,,,,,,,,,,,,,,,,,,,,,,,,,,,,,,
1702544339,1702544339,43,0,4382.179688,4625.641113,4407.820313,4433.717773,4266.025879,4370.897461,4352.820313,4361.794922,4360.641113,4419.230957,4574.743652,4577.820313,4475.769043,4507.307617,0,4,79,,,,0,4,4,4,4,4,4,4,4,4,4,4,4,4,4,100,,,,,,,,,,,,,,,,,,,,,,,,,,,,,,,,,,,,,,,,,,,,,,,,,,,,,,,,,,,,,,,,,,,,,,,,,,,,,,,,,,,,,,,,,,,,,,,,,,,,,,,,,,,,,,,,,,,,,,,,,,,,,,,,,,,,,,
1702544339,1702544339,44,0,4344.871582,4614.102539,4364.358887,4371.153809,4303.205078,4323.461426,4319.358887,4333.974121,4337.307617,4397.94873,4530.128418,4543.589844,4444.615234,4471.025879,0,4,79,,,,0,4,4,4,4,4,4,4,4,4,4,4,4,4,4,100,,,,,,,,,,,,,,,,,11,0,0.147883,0.591919,-0.288208,0.738037,0.966427,-0.199243,0.083995,-12.686236,6.220248,84.830101,,,,,,,,,,,,,,,,,,,,,,,,,,,,,,,,,,,,,,,,,,,,,,,,,,,,,,,,,,,,,,,,,,,,,,,,,,,,,,,,,,,,,,,,,,,,,,,,,,,,,,,,,,
1702544339,1702544339,45,0,4328.077148,4624.358887,4343.717773,4364.102539,4347.820313,4303.974121,4304.743652,4322.05127,4317.563965,4377.307617,4522.436035,4531.410156,4432.179688,4454.487305,0,4,79,,,,0,4,4,4,4,4,4,4,4,4,4,4,4,4,4,100,,,,,,,,,,,,,,,,,,,,,,,,,,,,,,,,,,,,,,,,,,,,,,,,,,,,,,,,,,,,,,,,,,,,,,,,,,,,,,,,,,,,,,,,,,,,,,,,,,,,,,,,,,,,,,,,,,,,,,,,,,,,,,,,,,,,,,
1702544339,1702544339,46,0,4343.461426,4644.615234,4358.974121,4417.692383,4324.102539,4326.794922,4321.153809,4337.05127,4323.077148,4379.615234,4547.307617,4539.358887,4436.538574,4464.358887,0,4,79,,,,0,4,4,4,4,4,4,4,4,4,4,4,4,4,4,100,,,,,,,,,,,,,,,,,,,,,,,,,,,,,,,,,,,,,,,,,,,,,,,,,,,,,,,,,,,,,,,,,,,,,,,,,,,,,,,,,,,,,,,,,,,,,,,,,,,,,,,,,,,,,,,,,,,,,,,,,,,,,,,,,,,,,,
1702544339,1702544339,47,0,4348.717773,4656.794922,4371.922852,4418.717773,4285.897461,4343.205078,4337.307617,4346.538574,4341.025879,4385.769043,4545.128418,4545.128418,4431.025879,4463.205078,0,4,79,,,,0,4,4,4,4,4,4,4,4,4,4,4,4,4,4,100,,,,,,,,,,,,,,,,,,,,,,,,,,,,,,,,,,,,,,,,,,,,,,,,,,,,,,,,,,,,,,,,,,,,,,,,,,,,,,,,,,,,,,,,,,,,,,,,,,,,,,,,,,,,,,,,,,,,,,,,,,,,,,,,,,,,,,
1702544339,1702544339,48,0,4331.922852,4668.333496,4358.717773,4364.615234,4305.512695,4326.922852,4328.717773,4337.820313,4340.256348,4380.769043,4526.153809,4538.333496,4425.512695,4457.436035,0,4,79,,,,0,4,4,4,4,4,4,4,4,4,4,4,4,4,4,100,,,,,,,,,,,,,,,,,12,0,0.148686,0.592285,-0.287354,0.737915,0.968868,-0.202173,0.084483,-12.767612,6.16489,84.813759,,,,,,,,,,,,,,,,,,,,,,,,,,,,,,,,,,,,,2.60634,0.215273,1.391063,1.078379,0.727003,18.00531,3.83058,1.146427,1.236369,0.714359,1.202823,0.253771,1.117878,0.842217,0.712373,2.198439,0.290621,1.086231,0.968494,0.822217,0.790604,0.373309,1.079856,0.815974,0.776935,2.962893,0.517393,0.359723,0.597886,0.570713,1.633454,0.58369,0.550876,0.691149,0.578848,1.517608,0.430067,0.466948,0.532996,0.676791,1.868056,0.560152,0.851641,0.698953,0.802558,2.639467,0.820847,1.47802,0.661442,1.009114,2.531444,0.800443,3.134452,1.934598,1.589043,2.878469,0.439443,1.312106,1.226892,1.059642,5.719851,2.610914,2.622085,1.687576,1.159258,2.007143,0.591762,1.848757,1.454232,0.880036
1702544339,1702544339,49,0,4317.563965,4677.820313,4338.333496,4348.589844,4334.871582,4301.794922,4306.025879,4325.769043,4323.846191,4375.256348,4520.512695,4522.94873,4435.128418,4460.128418,0,4,79,,,,0,4,4,4,4,4,4,4,4,4,4,4,4,4,4,100,,,,,,,,,,,,,,,,,,,,,,,,,,,,,,,,,,,,,,,,,,,,,,,,,,,,,,,,,,,,,,,,,,,,,,,,,,,,,,,,,,,,,,,,,,,,,,,,,,,,,,,,,,,,,,,,,,,,,,,,,,,,,,,,,,,,,,
1702544339,1702544339,50,0,4320.769043,4683.974121,4338.205078,4378.974121,4303.589844,4305.641113,4307.05127,4325.128418,4318.589844,4375,4526.666504,4520.897461,4436.153809,4456.666504,0,4,79,,,,0,4,4,4,4,4,4,4,4,4,4,4,4,4,4,100,,,,,,,,,,,,,,,,,,,,,,,,,,,,,,,,,,,,,,,,,,,,,,,,,,,,,,,,,,,,,,,,,,,,,,,,,,,,,,,,,,,,,,,,,,,,,,,,,,,,,,,,,,,,,,,,,,,,,,,,,,,,,,,,,,,,,,
1702544339,1702544339,51,0,4324.358887,4688.077148,4345.256348,4398.205078,4267.307617,4311.153809,4314.358887,4320.897461,4312.820313,4363.077148,4523.589844,4524.743652,4420,4445.897461,0,4,79,,,,0,4,4,4,4,4,4,4,4,4,4,4,4,4,4,100,,,,,,,,,,,,,,,,,,,,,,,,,,,,,,,,,,,,,,,,,,,,,,,,,,,,,,,,,,,,,,,,,,,,,,,,,,,,,,,,,,,,,,,,,,,,,,,,,,,,,,,,,,,,,,,,,,,,,,,,,,,,,,,,,,,,,,
1702544339,1702544339,52,0,4316.025879,4687.05127,4341.282227,4383.589844,4291.282227,4290.256348,4301.025879,4313.077148,4303.717773,4353.717773,4509.487305,4519.487305,4413.205078,4438.589844,0,4,79,,,,0,4,4,4,4,4,4,4,4,4,4,4,4,4,4,100,,,,,,,,,,,,,,,,,13,0,0.149327,0.592407,-0.286926,0.737854,0.962031,-0.207545,0.094738,-12.857518,6.215067,84.865715,,,,,,,,,,,,,,,,,,,,,,,,,,,,,,,,,,,,,,,,,,,,,,,,,,,,,,,,,,,,,,,,,,,,,,,,,,,,,,,,,,,,,,,,,,,,,,,,,,,,,,,,,,
1702544339,1702544339,53,0,4311.922852,4695.769043,4339.743652,4363.717773,4322.94873,4281.153809,4296.153809,4320.128418,4315.256348,4365.769043,4510.384766,4521.153809,4424.615234,4443.077148,0,4,79,,,,0,4,4,4,4,4,4,4,4,4,4,4,4,4,4,100,,,,,,,,,,,,,,,,,,,,,,,,,,,,,,,,,,,,,,,,,,,,,,,,,,,,,,,,,,,,,,,,,,,,,,,,,,,,,,,,,,,,,,,,,,,,,,,,,,,,,,,,,,,,,,,,,,,,,,,,,,,,,,,,,,,,,,
1702544339,1702544339,54,0,4316.794922,4712.307617,4342.179688,4357.563965,4312.563965,4295.641113,4306.794922,4331.410156,4331.282227,4365.512695,4528.589844,4527.820313,4436.794922,4453.461426,0,4,79,,,,0,4,4,4,4,4,4,4,4,4,4,4,4,4,4,100,,,,,,,,,,,,,,,,,,,,,,,,,,,,,,,,,,,,,,,,,,,,,,,,,,,,,,,,,,,,,,,,,,,,,,,,,,,,,,,,,,,,,,,,,,,,,,,,,,,,,,,,,,,,,,,,,,,,,,,,,,,,,,,,,,,,,,
1702544339,1702544339,55,0,4313.461426,4705,4332.94873,4357.563965,4287.436035,4289.102539,4300.256348,4323.205078,4318.974121,4351.282227,4521.025879,4514.743652,4431.025879,4442.94873,0,4,79,,,,0,4,4,4,4,4,4,4,4,4,4,4,4,4,4,100,,,,,,,,,,,,,,,,,,,,,,,,,,,,,,,,,,,,,,,,,,,,,,,,,,,,,,,,,,,,,,,,,,,,,,,,,,,,,,,,,,,,,,,,,,,,,,,,,,,,,,,,,,,,,,,,,,,,,,,,,,,,,,,,,,,,,,
1702544339,1702544339,56,0,4304.102539,4693.461426,4328.589844,4356.666504,4294.487305,4274.615234,4290.641113,4314.102539,4305,4361.282227,4503.077148,4504.871582,4417.179688,4426.794922,0,4,79,,,,0,4,4,4,4,4,4,4,4,4,4,4,4,4,4,100,,,,,,,,,,,,,,,,,14,0,0.149444,0.592407,-0.286865,0.737854,0.957148,-0.215847,0.09718,-12.771766,6.176894,84.779144,,,,,,,,,,,,,,,,,,,,,,,,,,,,,,,,,,,,,,,,,,,,,,,,,,,,,,,,,,,,,,,,,,,,,,,,,,,,,,,,,,,,,,,,,,,,,,,,,,,,,,,,,,
1702544339,1702544339,57,0,4297.692383,4698.717773,4330.128418,4359.871582,4314.615234,4285.769043,4295.641113,4313.974121,4310.897461,4367.436035,4507.05127,4506.410156,4410.769043,4428.077148,0,4,79,,,,0,4,4,4,4,4,4,4,4,4,4,4,4,4,4,100,,,,,,,,,,,,,,,,,,,,,,,,,,,,,,,,,,,,,,,,,,,,,,,,,,,,,,,,,,,,,,,,,,,,,,,,,,,,,,,,,,,,,,,,,,,,,,,,,,,,,,,,,,,,,,,,,,,,,,,,,,,,,,,,,,,,,,
1702544339,1702544339,58,0,4300.128418,4702.94873,4324.102539,4365.641113,4306.282227,4296.538574,4299.743652,4311.794922,4314.230957,4351.153809,4514.358887,4497.94873,4417.05127,4431.282227,0,4,79,,,,0,4,4,4,4,4,4,4,4,4,4,4,4,4,4,100,,,,,,,,,,,,,,,,,,,,,,,,,,,,,,,,,,,,,,,,,,,,,,,,,,,,,,,,,,,,,,,,,,,,,,,,,,,,,,,,,,,,,,,,,,,,,,,,,,,,,,,,,,,,,,,,,,,,,,,,,,,,,,,,,,,,,,
1702544339,1702544339,59,0,4303.846191,4700,4321.025879,4363.077148,4289.102539,4280.256348,4295,4310.512695,4303.589844,4346.922852,4507.436035,4490.641113,4418.077148,4428.205078,0,4,79,,,,0,4,4,4,4,4,4,4,4,4,4,4,4,4,4,100,,,,,,,,,,,,,,,,,,,,,,,,,,,,,,,,,,,,,,,,,,,,,,,,,,,,,,,,,,,,,,,,,,,,,,,,,,,,,,,,,,,,,,,,,,,,,,,,,,,,,,,,,,,,,,,,,,,,,,,,,,,,,,,,,,,,,,
1702544339,1702544339,60,0,4296.794922,4683.717773,4317.94873,4351.538574,4290.128418,4260.769043,4287.436035,4306.282227,4291.538574,4344.102539,4495.128418,4488.717773,4403.846191,4425.897461,0,4,79,,,,0,4,4,4,4,4,4,4,4,4,4,4,4,4,4,100,,,,,,,,,,,,,,,,,15,0,0.149699,0.592102,-0.287048,0.737976,0.966915,-0.212428,0.084971,-12.527923,6.275871,84.9179,,,,,,,,,,,,,,,,,,,,,,,,,,,,,,,,,,,,,,,,,,,,,,,,,,,,,,,,,,,,,,,,,,,,,,,,,,,,,,,,,,,,,,,,,,,,,,,,,,,,,,,,,,
1702544339,1702544339,61,0,4291.153809,4665.128418,4311.922852,4340.897461,4295,4267.307617,4287.563965,4304.871582,4291.410156,4336.282227,4493.589844,4486.794922,4399.102539,4425.256348,0,4,79,,,,0,4,4,4,4,4,4,4,4,4,4,4,4,4,4,100,,,,,,,,,,,,,,,,,,,,,,,,,,,,,,,,,,,,,,,,,,,,,,,,,,,,,,,,,,,,,,,,,,,,,,,,,,,,,,,,,,,,,,,,,,,,,,,,,,,,,,,,,,,,,,,,,,,,,,,,,,,,,,,,,,,,,,
1702544339,1702544339,62,0,4296.282227,4661.922852,4315.384766,4346.282227,4297.436035,4281.922852,4295.512695,4313.846191,4297.436035,4342.94873,4494.871582,4492.692383,4403.205078,4423.846191,0,4,79,,,,0,4,4,4,4,4,4,4,4,4,4,4,4,4,4,100,,,,,,,,,,,,,,,,,,,,,,,,,,,,,,,,,,,,,,,,,,,,,,,,,,,,,,,,,,,,,,,,,,,,,,,,,,,,,,,,,,,,,,,,,,,,,,,,,,,,,,,,,,,,,,,,,,,,,,,,,,,,,,,,,,,,,,
1702544339,1702544339,63,0,4286.538574,4651.794922,4315.897461,4349.487305,4295.769043,4267.94873,4286.410156,4310.512695,4295.384766,4332.05127,4480.384766,4490.769043,4391.025879,4415.256348,0,4,79,,,,0,4,4,4,4,4,4,4,4,4,4,4,4,4,4,100,,,,,,,,,,,,,,,,,,,,,,,,,,,,,,,,,,,,,,,,,,,,,,,,,,,,,,,,,,,,,,,,,,,,,,,,,,,,,,,,,,,,,,,,,,,,,,,,,,,,,,,,,,,,,,,,,,,,,,,,,,,,,,,,,,,,,,
1702544339,1702544339,64,0,4276.025879,4632.05127,4309.358887,4339.230957,4289.871582,4254.743652,4271.794922,4300.128418,4291.282227,4314.615234,4475,4480.897461,4385.384766,4408.205078,5462,4,79,,,,0,4,4,4,4,4,4,4,4,4,4,4,4,4,4,100,,,,,,,,,,,,,,,,,16,0,0.149113,0.591675,-0.287292,0.738342,0.945916,-0.223172,0.102063,-12.57513,6.298284,84.976105,,,,,,,,,,,,,,,,,,,,,,,,,,,,,,,,,,,,,3.180356,0.170135,1.135283,1.030504,0.732438,20.25975,2.869819,1.040068,1.162678,0.752292,1.065287,0.211471,1.018887,0.851662,0.718357,2.615618,0.302959,0.914188,0.990694,0.829382,0.943302,0.400031,0.895549,0.914695,0.77456,3.250259,0.53867,0.406566,0.657261,0.662265,1.756026,0.514233,0.602355,0.741955,0.640874,1.38868,0.304758,0.455449,0.513064,0.656869,1.805647,0.538125,0.751637,0.68272,0.801858,2.499193,0.631969,1.298593,0.647383,0.980153,2.448429,0.636146,2.4919,1.885504,1.606013,2.576672,0.32067,1.176474,1.255372,1.101357,5.079316,2.638038,2.191038,1.651704,1.208949,2.174849,0.508317,1.463479,1.369865,0.892762
1702544339,1702544339,65,0,4284.102539,4630.769043,4313.846191,4335.769043,4303.589844,4271.666504,4277.307617,4304.487305,4294.743652,4333.717773,4495.897461,4487.05127,4401.410156,4414.358887,5604,4,79,,,,0,4,4,4,4,4,4,4,4,4,4,4,4,4,4,100,,,,,,,,,,,,,,,,,,,,,,,,,,,,,,,,,,,,,,,,,,,,,,,,,,,,,,,,,,,,,,,,,,,,,,,,,,,,,,,,,,,,,,,,,,,,,,,,,,,,,,,,,,,,,,,,,,,,,,,,,,,,,,,,,,,,,,
1702544339,1702544339,66,0,4288.333496,4628.333496,4319.743652,4347.820313,4325.512695,4282.692383,4285.769043,4307.179688,4296.410156,4338.974121,4496.410156,4497.692383,4402.05127,4417.05127,5537,4,79,,,,0,4,4,4,4,4,4,4,4,4,4,4,4,4,4,100,,,,,,,,,,,,,,,,,,,,,,,,,,,,,,,,,,,,,,,,,,,,,,,,,,,,,,,,,,,,,,,,,,,,,,,,,,,,,,,,,,,,,,,,,,,,,,,,,,,,,,,,,,,,,,,,,,,,,,,,,,,,,,,,,,,,,,
1702544339,1702544339,67,0,4281.538574,4604.358887,4311.153809,4343.333496,4324.615234,4274.358887,4281.922852,4294.871582,4289.487305,4315.897461,4467.563965,4488.333496,4388.589844,4408.205078,5447,4,79,,,,0,4,4,4,4,4,4,4,4,4,4,4,4,4,4,100,,,,,,,,,,,,,,,,,,,,,,,,,,,,,,,,,,,,,,,,,,,,,,,,,,,,,,,,,,,,,,,,,,,,,,,,,,,,,,,,,,,,,,,,,,,,,,,,,,,,,,,,,,,,,,,,,,,,,,,,,,,,,,,,,,,,,,
1702544339,1702544339,68,0,4267.05127,4583.846191,4295.256348,4317.179688,4304.871582,4265,4269.487305,4280.128418,4273.717773,4312.307617,4458.461426,4465,4375.256348,4397.307617,5415,4,79,,,,0,4,4,4,4,4,4,4,4,4,4,4,4,4,4,100,,,,,,,,,,,,,,,,,17,0,0.14841,0.591187,-0.28772,0.738708,0.96252,-0.21194,0.106458,-12.600951,6.418456,85.095161,,,,,,,,,,,,,,,,,,,,,,,,,,,,,,,,,,,,,,,,,,,,,,,,,,,,,,,,,,,,,,,,,,,,,,,,,,,,,,,,,,,,,,,,,,,,,,,,,,,,,,,,,,
1702544339,1702544339,69,0,4251.025879,4564.230957,4286.922852,4304.102539,4297.307617,4261.410156,4261.666504,4275.384766,4265.384766,4319.487305,4463.717773,4452.820313,4357.94873,4387.563965,5374,4,79,,,,0,4,4,4,4,4,4,4,4,4,4,4,4,4,4,100,,,,,,,,,,,,,,,,,,,,,,,,,,,,,,,,,,,,,,,,,,,,,,,,,,,,,,,,,,,,,,,,,,,,,,,,,,,,,,,,,,,,,,,,,,,,,,,,,,,,,,,,,,,,,,,,,,,,,,,,,,,,,,,,,,,,,,
1702544339,1702544339,70,0,4255.512695,4543.077148,4291.025879,4313.461426,4302.820313,4261.922852,4271.666504,4286.538574,4274.487305,4317.05127,4455.897461,4467.563965,4363.205078,4387.436035,5323,4,79,,,,0,4,4,4,4,4,4,4,4,4,4,4,4,4,4,100,,,,,,,,,,,,,,,,,,,,,,,,,,,,,,,,,,,,,,,,,,,,,,,,,,,,,,,,,,,,,,,,,,,,,,,,,,,,,,,,,,,,,,,,,,,,,,,,,,,,,,,,,,,,,,,,,,,,,,,,,,,,,,,,,,,,,,
1702544339,1702544339,71,0,4268.846191,4533.974121,4299.615234,4319.743652,4303.717773,4266.538574,4281.410156,4297.820313,4282.692383,4316.282227,4461.153809,4484.358887,4383.717773,4391.794922,5118,4,79,,,,0,4,4,4,4,4,4,4,4,4,4,4,4,4,4,100,,,,,,,,,,,,,,,,,,,,,,,,,,,,,,,,,,,,,,,,,,,,,,,,,,,,,,,,,,,,,,,,,,,,,,,,,,,,,,,,,,,,,,,,,,,,,,,,,,,,,,,,,,,,,,,,,,,,,,,,,,,,,,,,,,,,,,
1702544339,1702544339,72,0,4257.94873,4510.128418,4295.384766,4305.128418,4295,4266.025879,4271.410156,4286.282227,4277.94873,4309.871582,4473.077148,4469.358887,4380.128418,4379.615234,5420,4,79,,,,0,4,4,4,4,4,4,4,4,4,4,4,4,4,4,100,,,,,,,,,,,,,,,,,18,0,0.147641,0.590454,-0.288208,0.739258,0.967892,-0.230497,0.08839,-12.457522,6.32661,85.11898,,,,,,,,,,,,,,,,,,,,,,,,,,,,,,,,,,,,,,,,,,,,,,,,,,,,,,,,,,,,,,,,,,,,,,,,,,,,,,,,,,,,,,,,,,,,,,,,,,,,,,,,,,
1702544339,1702544339,73,0,4248.846191,4478.589844,4287.179688,4296.922852,4288.974121,4254.743652,4259.102539,4273.461426,4275.512695,4307.820313,4466.025879,4452.179688,4375.256348,4380.641113,5394,4,79,,,,0,4,4,4,4,4,4,4,4,4,4,4,4,4,4,100,,,,,,,,,,,,,,,,,,,,,,,,,,,,,,,,,,,,,,,,,,,,,,,,,,,,,,,,,,,,,,,,,,,,,,,,,,,,,,,,,,,,,,,,,,,,,,,,,,,,,,,,,,,,,,,,,,,,,,,,,,,,,,,,,,,,,,
1702544339,1702544339,74,0,4260.769043,4467.179688,4289.871582,4304.487305,4298.589844,4244.871582,4259.615234,4277.563965,4276.282227,4315.641113,4460.769043,4458.974121,4380.384766,4405.512695,6128,4,79,,,,0,4,4,4,4,4,4,4,4,4,4,4,4,4,4,100,,,,,,,,,,,,,,,,,,,,,,,,,,,,,,,,,,,,,,,,,,,,,,,,,,,,,,,,,,,,,,,,,,,,,,,,,,,,,,,,,,,,,,,,,,,,,,,,,,,,,,,,,,,,,,,,,,,,,,,,,,,,,,,,,,,,,,
1702544339,1702544339,75,0,4264.102539,4457.692383,4292.94873,4310.769043,4292.94873,4242.436035,4259.358887,4280.384766,4271.666504,4301.666504,4460.256348,4463.205078,4367.05127,4403.077148,6340,4,79,,,,0,4,4,4,4,4,4,4,4,4,4,4,4,4,4,100,,,,,,,,,,,,,,,,,,,,,,,,,,,,,,,,,,,,,,,,,,,,,,,,,,,,,,,,,,,,,,,,,,,,,,,,,,,,,,,,,,,,,,,,,,,,,,,,,,,,,,,,,,,,,,,,,,,,,,,,,,,,,,,,,,,,,,
1702544339,1702544339,76,0,4265.384766,4440.512695,4297.94873,4317.307617,4276.282227,4247.692383,4254.102539,4277.94873,4271.922852,4289.615234,4452.436035,4459.871582,4364.743652,4386.794922,6746,4,79,,,,0,4,4,4,4,4,4,4,4,4,4,4,4,4,4,100,,,,,,,,,,,,,,,,,19,0,0.146317,0.590027,-0.288818,0.739624,0.957636,-0.22073,0.095226,-12.56177,6.343949,85.190414,,,,,,,,,,,,,,,,,,,,,,,,,,,,,,,,,,,,,,,,,,,,,,,,,,,,,,,,,,,,,,,,,,,,,,,,,,,,,,,,,,,,,,,,,,,,,,,,,,,,,,,,,,
1702544339,1702544339,77,0,4273.717773,4424.230957,4303.974121,4314.871582,4293.333496,4246.538574,4250,4277.563965,4274.230957,4305.512695,4462.820313,4460.769043,4382.436035,4392.692383,7032,4,79,,,,0,4,4,4,4,4,4,4,4,4,4,4,4,4,4,100,,,,,,,,,,,,,,,,,,,,,,,,,,,,,,,,,,,,,,,,,,,,,,,,,,,,,,,,,,,,,,,,,,,,,,,,,,,,,,,,,,,,,,,,,,,,,,,,,,,,,,,,,,,,,,,,,,,,,,,,,,,,,,,,,,,,,,
1702544339,1702544339,78,0,4272.94873,4409.102539,4302.436035,4315.641113,4309.230957,4238.717773,4251.410156,4279.743652,4272.05127,4311.666504,4482.436035,4462.307617,4376.922852,4405.641113,6128,4,79,,,,0,4,4,4,4,4,4,4,4,4,4,4,4,4,4,100,,,,,,,,,,,,,,,,,,,,,,,,,,,,,,,,,,,,,,,,,,,,,,,,,,,,,,,,,,,,,,,,,,,,,,,,,,,,,,,,,,,,,,,,,,,,,,,,,,,,,,,,,,,,,,,,,,,,,,,,,,,,,,,,,,,,,,
1702544339,1702544339,79,0,4260.128418,4388.077148,4291.666504,4327.307617,4283.077148,4236.538574,4253.077148,4277.563965,4263.205078,4293.461426,4460.641113,4452.820313,4355.384766,4401.410156,6340,4,79,,,,0,4,4,4,4,4,4,4,4,4,4,4,4,4,4,100,,,,,,,,,,,,,,,,,,,,,,,,,,,,,,,,,,,,,,,,,,,,,,,,,,,,,,,,,,,,,,,,,,,,,,,,,,,,,,,,,,,,,,,,,,,,,,,,,,,,,,,,,,,,,,,,,,,,,,,,,,,,,,,,,,,,,,
1702544339,1702544339,80,0,4262.05127,4378.205078,4293.077148,4328.589844,4281.666504,4243.461426,4254.871582,4275,4260,4287.179688,4438.333496,4448.461426,4361.410156,4397.563965,6746,4,79,,,,0,4,4,4,4,4,4,4,4,4,4,4,4,4,4,100,1,58.333332,4,1,3,4,3,3,4,4,4,4,3,3,4,4,20,0,0.145708,0.589905,-0.289063,0.739746,0.969845,-0.22952,0.100598,-12.655593,6.359554,85.188042,,,,,,,,,,,,,,,,,,,,,,,,,,,,,,,,,,,,,3.456212,0.146285,0.895835,0.997199,0.738853,20.780766,2.467923,1.046244,1.149979,0.775352,0.96623,0.212766,0.93986,0.872922,0.764882,2.908484,0.407208,0.866645,1.053159,0.863945,1.263203,0.616011,0.822133,1.140188,0.79581,3.365264,0.618852,0.498852,0.72641,0.793578,1.808842,0.486404,0.684765,0.804092,0.748899,1.249274,0.234819,0.493641,0.531529,0.636689,1.736075,0.531507,0.673391,0.718068,0.804272,2.556741,0.531703,1.112637,0.640515,0.982812,2.349866,0.49703,1.816085,1.838096,1.587853,2.290252,0.26337,1.037825,1.308525,1.170051,4.437475,2.444547,1.723737,1.634138,1.23475,2.285921,0.449984,1.163084,1.328445,0.894026
1702544339,1702544339,81,0,4281.794922,4379.230957,4310.384766,4318.589844,4317.94873,4256.282227,4266.282227,4281.410156,4270.512695,4304.102539,4459.230957,4461.538574,4380.769043,4407.179688,7032,4,79,,,,0,4,4,4,4,4,4,4,4,4,4,4,4,4,4,100,,,,,,,,,,,,,,,,,,,,,,,,,,,,,,,,,,,,,,,,,,,,,,,,,,,,,,,,,,,,,,,,,,,,,,,,,,,,,,,,,,,,,,,,,,,,,,,,,,,,,,,,,,,,,,,,,,,,,,,,,,,,,,,,,,,,,,
1702544339,1702544339,82,0,4280.384766,4365,4308.846191,4312.179688,4301.666504,4251.282227,4265.256348,4280.128418,4269.358887,4302.307617,4464.743652,4463.077148,4366.794922,4407.563965,6128,4,79,,,,0,4,4,4,4,4,4,4,4,4,4,4,4,4,4,100,,,,,,,,,,,,,,,,,,,,,,,,,,,,,,,,,,,,,,,,,,,,,,,,,,,,,,,,,,,,,,,,,,,,,,,,,,,,,,,,,,,,,,,,,,,,,,,,,,,,,,,,,,,,,,,,,,,,,,,,,,,,,,,,,,,,,,
1702544339,1702544339,83,0,4259.743652,4350,4289.615234,4311.538574,4271.025879,4230.512695,4242.307617,4263.077148,4256.666504,4280,4439.871582,4442.563965,4347.563965,4393.717773,6340,4,79,,,,0,4,4,4,4,4,4,4,4,4,4,4,4,4,4,100,,,,,,,,,,,,,,,,,,,,,,,,,,,,,,,,,,,,,,,,,,,,,,,,,,,,,,,,,,,,,,,,,,,,,,,,,,,,,,,,,,,,,,,,,,,,,,,,,,,,,,,,,,,,,,,,,,,,,,,,,,,,,,,,,,,,,,
1702544339,1702544339,84,0,4267.179688,4362.436035,4293.461426,4318.974121,4300.256348,4233.461426,4242.05127,4261.153809,4259.743652,4285.384766,4447.94873,4443.974121,4370,4394.358887,6746,4,79,,,,0,4,4,4,4,4,4,4,4,4,4,4,4,4,4,100,,,,,,,,,,,,,,,,,21,0,0.145403,0.589844,-0.289185,0.739807,0.956171,-0.232939,0.10304,-12.640034,6.356932,85.069237,,,,,,,,,,,,,,,,,,,,,,,,,,,,,,,,,,,,,,,,,,,,,,,,,,,,,,,,,,,,,,,,,,,,,,,,,,,,,,,,,,,,,,,,,,,,,,,,,,,,,,,,,,
1702544339,1702544339,85,0,4286.794922,4383.461426,4312.307617,4329.487305,4319.743652,4257.820313,4263.461426,4275.384766,4267.307617,4300.256348,4476.153809,4466.153809,4393.205078,4414.230957,7032,4,79,,,,0,4,4,4,4,4,4,4,4,4,4,4,4,4,4,100,,,,,,,,,,,,,,,,,,,,,,,,,,,,,,,,,,,,,,,,,,,,,,,,,,,,,,,,,,,,,,,,,,,,,,,,,,,,,,,,,,,,,,,,,,,,,,,,,,,,,,,,,,,,,,,,,,,,,,,,,,,,,,,,,,,,,,
1702544339,1702544339,86,0,4285.512695,4391.282227,4314.102539,4327.307617,4296.282227,4264.102539,4266.666504,4278.717773,4268.077148,4289.743652,4474.615234,4472.820313,4384.230957,4426.025879,6128,4,79,,,,0,4,4,4,4,4,4,4,4,4,4,4,4,4,4,100,,,,,,,,,,,,,,,,,,,,,,,,,,,,,,,,,,,,,,,,,,,,,,,,,,,,,,,,,,,,,,,,,,,,,,,,,,,,,,,,,,,,,,,,,,,,,,,,,,,,,,,,,,,,,,,,,,,,,,,,,,,,,,,,,,,,,,
1702544339,1702544339,87,0,4286.025879,4400.256348,4310.128418,4332.563965,4293.461426,4258.846191,4261.410156,4277.820313,4277.94873,4298.974121,4473.205078,4475.384766,4385.128418,4428.589844,6340,4,79,,,,0,4,4,4,4,4,4,4,4,4,4,4,4,4,4,100,,,,,,,,,,,,,,,,,,,,,,,,,,,,,,,,,,,,,,,,,,,,,,,,,,,,,,,,,,,,,,,,,,,,,,,,,,,,,,,,,,,,,,,,,,,,,,,,,,,,,,,,,,,,,,,,,,,,,,,,,,,,,,,,,,,,,,
1702544339,1702544339,88,0,4289.743652,4399.743652,4312.820313,4346.282227,4299.230957,4265.897461,4266.538574,4280.769043,4280,4316.538574,4471.025879,4476.666504,4391.922852,4429.487305,6746,4,79,,,,0,4,4,4,4,4,4,4,4,4,4,4,4,4,4,100,,,,,,,,,,,,,,,,,22,0,0.145461,0.5896,-0.289185,0.73999,0.963008,-0.228544,0.092296,-12.576031,6.187906,85.128983,,,,,,,,,,,,,,,,,,,,,,,,,,,,,,,,,,,,,,,,,,,,,,,,,,,,,,,,,,,,,,,,,,,,,,,,,,,,,,,,,,,,,,,,,,,,,,,,,,,,,,,,,,
1702544339,1702544339,89,0,4276.410156,4386.666504,4309.230957,4336.538574,4282.05127,4266.922852,4265.897461,4279.230957,4268.077148,4296.538574,4447.94873,4466.282227,4374.102539,4423.461426,7032,4,79,,,,0,4,4,4,4,4,4,4,4,4,4,4,4,4,4,100,,,,,,,,,,,,,,,,,,,,,,,,,,,,,,,,,,,,,,,,,,,,,,,,,,,,,,,,,,,,,,,,,,,,,,,,,,,,,,,,,,,,,,,,,,,,,,,,,,,,,,,,,,,,,,,,,,,,,,,,,,,,,,,,,,,,,,
1702544339,1702544339,90,0,4280.128418,4391.410156,4307.820313,4331.282227,4281.794922,4260.128418,4262.94873,4279.358887,4275.384766,4291.282227,4457.307617,4468.846191,4372.820313,4425.769043,6128,4,79,,,,0,4,4,4,4,4,4,4,4,4,4,4,4,4,4,100,,,,,,,,,,,,,,,,,,,,,,,,,,,,,,,,,,,,,,,,,,,,,,,,,,,,,,,,,,,,,,,,,,,,,,,,,,,,,,,,,,,,,,,,,,,,,,,,,,,,,,,,,,,,,,,,,,,,,,,,,,,,,,,,,,,,,,
1702544339,1702544339,91,0,4294.615234,4398.589844,4310.641113,4342.820313,4300,4261.922852,4265.641113,4281.153809,4281.538574,4311.410156,4482.820313,4479.102539,4389.743652,4431.410156,6340,4,79,,,,0,4,4,4,4,4,4,4,4,4,4,4,4,4,4,100,,,,,,,,,,,,,,,,,,,,,,,,,,,,,,,,,,,,,,,,,,,,,,,,,,,,,,,,,,,,,,,,,,,,,,,,,,,,,,,,,,,,,,,,,,,,,,,,,,,,,,,,,,,,,,,,,,,,,,,,,,,,,,,,,,,,,,
1702544339,1702544339,92,0,4285.128418,4387.94873,4312.820313,4341.922852,4299.358887,4268.846191,4267.05127,4278.717773,4269.743652,4300.641113,4467.692383,4475.897461,4383.077148,4422.179688,6746,4,79,,,,0,4,4,4,4,4,4,4,4,4,4,4,4,4,4,100,,,,,,,,,,,,,,,,,23,0,0.145699,0.589478,-0.289001,0.740112,0.959101,-0.22366,0.107435,-12.585094,6.185781,85.082748,,,,,,,,,,,,,,,,,,,,,,,,,,,,,,,,,,,,,,,,,,,,,,,,,,,,,,,,,,,,,,,,,,,,,,,,,,,,,,,,,,,,,,,,,,,,,,,,,,,,,,,,,,
1702544339,1702544339,93,0,4275.897461,4370,4316.153809,4327.436035,4292.179688,4272.692383,4269.358887,4277.179688,4265.384766,4288.461426,4455.769043,4473.589844,4368.974121,4409.871582,7032,4,79,,,,0,4,4,4,4,4,4,4,4,4,4,4,4,4,4,100,,,,,,,,,,,,,,,,,,,,,,,,,,,,,,,,,,,,,,,,,,,,,,,,,,,,,,,,,,,,,,,,,,,,,,,,,,,,,,,,,,,,,,,,,,,,,,,,,,,,,,,,,,,,,,,,,,,,,,,,,,,,,,,,,,,,,,
1702544339,1702544339,94,0,4291.025879,4370.128418,4321.666504,4326.153809,4297.94873,4278.589844,4276.538574,4281.410156,4274.743652,4303.077148,4478.846191,4481.794922,4383.974121,4424.358887,6128,4,79,,,,0,4,4,4,4,4,4,4,4,4,4,4,4,4,4,100,,,,,,,,,,,,,,,,,,,,,,,,,,,,,,,,,,,,,,,,,,,,,,,,,,,,,,,,,,,,,,,,,,,,,,,,,,,,,,,,,,,,,,,,,,,,,,,,,,,,,,,,,,,,,,,,,,,,,,,,,,,,,,,,,,,,,,
1702544339,1702544339,95,0,4298.333496,4378.205078,4321.794922,4335.512695,4294.871582,4280.641113,4279.230957,4282.436035,4277.563965,4290.897461,4480.384766,4481.025879,4400.897461,4453.205078,6340,4,79,,,,0,4,4,4,4,4,4,4,4,4,4,4,4,4,4,100,,,,,,,,,,,,,,,,,,,,,,,,,,,,,,,,,,,,,,,,,,,,,,,,,,,,,,,,,,,,,,,,,,,,,,,,,,,,,,,,,,,,,,,,,,,,,,,,,,,,,,,,,,,,,,,,,,,,,,,,,,,,,,,,,,,,,,
1702544340,1702544340,96,0,4284.743652,4366.410156,4316.410156,4333.974121,4285.128418,4270.256348,4277.179688,4279.743652,4271.410156,4275.512695,4467.307617,4475.897461,4387.05127,4448.461426,6746,4,79,,,,0,4,4,4,4,4,4,4,4,4,4,4,4,4,4,100,,,,,,,,,,,,,,,,,24,0,0.14593,0.589417,-0.288696,0.740234,0.957636,-0.224637,0.104505,-12.609918,6.28387,85.024475,,,,,,,,,,,,,,,,,,,,,,,,,,,,,,,,,,,,,3.431566,0.149185,0.751799,0.970202,0.758843,20.0963,2.808957,1.200808,1.205288,0.786897,0.918748,0.269538,0.92122,0.895138,0.865888,3.09871,0.599013,1.000682,1.17003,0.973376,1.806398,1.050562,0.932169,1.488518,0.875816,3.343356,0.728549,0.630623,0.798115,0.967437,1.804597,0.49122,0.774479,0.863955,0.905624,1.129184,0.209549,0.55221,0.574268,0.627229,1.671566,0.511847,0.62893,0.798393,0.812059,2.894587,0.513439,0.958675,0.646747,1.014208,2.245983,0.402849,1.275248,1.768639,1.54845,2.028434,0.267503,0.930929,1.344674,1.266301,4.010493,2.045059,1.285832,1.615461,1.235917,2.298238,0.410826,1.026175,1.331739,0.891554
1702544340,1702544340,97,0,4277.563965,4343.589844,4312.94873,4325.641113,4278.333496,4261.153809,4274.615234,4280.128418,4267.307617,4297.179688,4481.794922,4477.563965,4373.974121,4418.461426,7032,4,79,,,,0,4,4,4,4,4,4,4,4,4,4,4,4,4,4,100,,,,,,,,,,,,,,,,,,,,,,,,,,,,,,,,,,,,,,,,,,,,,,,,,,,,,,,,,,,,,,,,,,,,,,,,,,,,,,,,,,,,,,,,,,,,,,,,,,,,,,,,,,,,,,,,,,,,,,,,,,,,,,,,,,,,,,
1702544340,1702544340,98,0,4282.94873,4331.025879,4313.974121,4325.897461,4274.743652,4265,4271.538574,4279.487305,4263.077148,4303.077148,4473.974121,4476.794922,4378.974121,4415.897461,6128,4,79,,,,0,4,4,4,4,4,4,4,4,4,4,4,4,4,4,100,,,,,,,,,,,,,,,,,,,,,,,,,,,,,,,,,,,,,,,,,,,,,,,,,,,,,,,,,,,,,,,,,,,,,,,,,,,,,,,,,,,,,,,,,,,,,,,,,,,,,,,,,,,,,,,,,,,,,,,,,,,,,,,,,,,,,,
1702544340,1702544340,99,0,4281.794922,4326.153809,4312.05127,4322.692383,4277.436035,4264.871582,4266.410156,4273.846191,4257.820313,4278.717773,4442.307617,4468.333496,4376.538574,4430.512695,6340,4,79,,,,0,4,4,4,4,4,4,4,4,4,4,4,4,4,4,100,,,,,,,,,,,,,,,,,,,,,,,,,,,,,,,,,,,,,,,,,,,,,,,,,,,,,,,,,,,,,,,,,,,,,,,,,,,,,,,,,,,,,,,,,,,,,,,,,,,,,,,,,,,,,,,,,,,,,,,,,,,,,,,,,,,,,,
1702544340,1702544340,100,0,4275,4325.769043,4307.563965,4315.512695,4277.307617,4256.410156,4264.230957,4273.589844,4261.794922,4270,4457.692383,4461.794922,4377.94873,4430.769043,6746,4,79,,,,0,4,4,4,4,4,4,4,4,4,4,4,4,4,4,100,,,,,,,,,,,,,,,,,25,0,0.146773,0.589417,-0.288269,0.740234,0.966915,-0.216335,0.089855,-12.598927,6.32215,85.088692,,,,,,,,,,,,,,,,,,,,,,,,,,,,,,,,,,,,,,,,,,,,,,,,,,,,,,,,,,,,,,,,,,,,,,,,,,,,,,,,,,,,,,,,,,,,,,,,,,,,,,,,,,
1702544340,1702544340,101,0,4276.025879,4326.153809,4309.871582,4329.102539,4262.436035,4259.871582,4270.769043,4280.128418,4270.897461,4283.205078,4493.333496,4464.743652,4393.717773,4430.769043,7032,4,79,,,,0,4,4,4,4,4,4,4,4,4,4,4,4,4,4,100,,,,,,,,,,,,,,,,,,,,,,,,,,,,,,,,,,,,,,,,,,,,,,,,,,,,,,,,,,,,,,,,,,,,,,,,,,,,,,,,,,,,,,,,,,,,,,,,,,,,,,,,,,,,,,,,,,,,,,,,,,,,,,,,,,,,,,
1702544340,1702544340,102,0,4280,4314.102539,4312.05127,4338.974121,4257.436035,4268.974121,4275.384766,4279.487305,4269.230957,4293.077148,4487.692383,4467.94873,4393.974121,4430.897461,6128,4,79,,,,0,4,4,4,4,4,4,4,4,4,4,4,4,4,4,100,,,,,,,,,,,,,,,,,,,,,,,,,,,,,,,,,,,,,,,,,,,,,,,,,,,,,,,,,,,,,,,,,,,,,,,,,,,,,,,,,,,,,,,,,,,,,,,,,,,,,,,,,,,,,,,,,,,,,,,,,,,,,,,,,,,,,,
1702544340,1702544340,103,0,4276.538574,4300.897461,4310.897461,4323.461426,4282.05127,4263.589844,4270,4277.820313,4265.641113,4292.179688,4467.94873,4465,4383.333496,4420.384766,6340,4,79,,,,0,4,4,4,4,4,4,4,4,4,4,4,4,4,4,100,,,,,,,,,,,,,,,,,,,,,,,,,,,,,,,,,,,,,,,,,,,,,,,,,,,,,,,,,,,,,,,,,,,,,,,,,,,,,,,,,,,,,,,,,,,,,,,,,,,,,,,,,,,,,,,,,,,,,,,,,,,,,,,,,,,,,,
1702544340,1702544340,104,0,4268.077148,4290.769043,4307.307617,4310.897461,4288.589844,4241.922852,4255,4275.897461,4263.846191,4274.230957,4461.153809,4457.179688,4372.692383,4409.871582,6746,4,79,,,,0,4,4,4,4,4,4,4,4,4,4,4,4,4,4,100,,,,,,,,,,,,,,,,,26,0,0.148513,0.589355,-0.287659,0.740173,0.953241,-0.215358,0.093761,-12.472367,6.256601,85.129822,,,,,,,,,,,,,,,,,,,,,,,,,,,,,,,,,,,,,,,,,,,,,,,,,,,,,,,,,,,,,,,,,,,,,,,,,,,,,,,,,,,,,,,,,,,,,,,,,,,,,,,,,,
1702544340,1702544340,105,0,4271.025879,4283.846191,4309.615234,4318.205078,4272.307617,4246.794922,4258.589844,4276.153809,4263.974121,4271.666504,4461.538574,4463.589844,4371.666504,4421.025879,7032,4,79,,,,0,4,4,4,4,4,4,4,4,4,4,4,4,4,4,100,,,,,,,,,,,,,,,,,,,,,,,,,,,,,,,,,,,,,,,,,,,,,,,,,,,,,,,,,,,,,,,,,,,,,,,,,,,,,,,,,,,,,,,,,,,,,,,,,,,,,,,,,,,,,,,,,,,,,,,,,,,,,,,,,,,,,,
1702544340,1702544340,106,0,4279.487305,4285.512695,4318.717773,4332.179688,4277.179688,4278.461426,4281.282227,4280.512695,4273.461426,4290.256348,4468.461426,4479.358887,4387.692383,4430.128418,6128,4,79,,,,0,4,4,4,4,4,4,4,4,4,4,4,4,4,4,100,,,,,,,,,,,,,,,,,,,,,,,,,,,,,,,,,,,,,,,,,,,,,,,,,,,,,,,,,,,,,,,,,,,,,,,,,,,,,,,,,,,,,,,,,,,,,,,,,,,,,,,,,,,,,,,,,,,,,,,,,,,,,,,,,,,,,,
1702544340,1702544340,107,0,4270.256348,4274.615234,4309.487305,4332.820313,4283.461426,4271.538574,4273.077148,4270.897461,4269.615234,4279.487305,4459.358887,4468.589844,4385.384766,4416.922852,6340,4,79,,,,0,4,4,4,4,4,4,4,4,4,4,4,4,4,4,100,,,,,,,,,,,,,,,,,,,,,,,,,,,,,,,,,,,,,,,,,,,,,,,,,,,,,,,,,,,,,,,,,,,,,,,,,,,,,,,,,,,,,,,,,,,,,,,,,,,,,,,,,,,,,,,,,,,,,,,,,,,,,,,,,,,,,,
1702544340,1702544340,108,0,4256.922852,4250,4294.615234,4314.358887,4272.563965,4241.794922,4247.820313,4259.358887,4253.461426,4254.615234,4444.102539,4447.94873,4363.717773,4411.922852,6746,4,79,,,,0,4,4,4,4,4,4,4,4,4,4,4,4,4,4,100,,,,,,,,,,,,,,,,,27,0,0.149627,0.589478,-0.286987,0.740112,0.973752,-0.204126,0.096203,-12.491796,6.314275,85.050171,,,,,,,,,,,,,,,,,,,,,,,,,,,,,,,,,,,,,,,,,,,,,,,,,,,,,,,,,,,,,,,,,,,,,,,,,,,,,,,,,,,,,,,,,,,,,,,,,,,,,,,,,,
1702544340,1702544340,109,0,4261.410156,4246.538574,4302.820313,4310,4274.230957,4248.974121,4259.487305,4268.846191,4256.538574,4262.692383,4460.256348,4455.641113,4367.94873,4428.974121,7032,4,79,,,,0,4,4,4,4,4,4,4,4,4,4,4,4,4,4,100,,,,,,,,,,,,,,,,,,,,,,,,,,,,,,,,,,,,,,,,,,,,,,,,,,,,,,,,,,,,,,,,,,,,,,,,,,,,,,,,,,,,,,,,,,,,,,,,,,,,,,,,,,,,,,,,,,,,,,,,,,,,,,,,,,,,,,
1702544340,1702544340,110,0,4266.025879,4252.436035,4314.487305,4333.846191,4285.128418,4270.897461,4285.769043,4282.563965,4268.974121,4275.769043,4464.487305,4473.589844,4380.256348,4433.461426,6128,4,79,,,,0,4,4,4,4,4,4,4,4,4,4,4,4,4,4,100,,,,,,,,,,,,,,,,,,,,,,,,,,,,,,,,,,,,,,,,,,,,,,,,,,,,,,,,,,,,,,,,,,,,,,,,,,,,,,,,,,,,,,,,,,,,,,,,,,,,,,,,,,,,,,,,,,,,,,,,,,,,,,,,,,,,,,
1702544340,1702544340,111,0,4258.333496,4234.230957,4307.94873,4330.641113,4278.461426,4260.769043,4274.102539,4278.589844,4262.179688,4265.512695,4435.512695,4472.307617,4365.128418,4409.487305,6340,4,79,,,,0,4,4,4,4,4,4,4,4,4,4,4,4,4,4,100,,,,,,,,,,,,,,,,,,,,,,,,,,,,,,,,,,,,,,,,,,,,,,,,,,,,,,,,,,,,,,,,,,,,,,,,,,,,,,,,,,,,,,,,,,,,,,,,,,,,,,,,,,,,,,,,,,,,,,,,,,,,,,,,,,,,,,
1702544340,1702544340,112,0,4268.205078,4225.256348,4311.410156,4305.897461,4277.820313,4251.666504,4261.025879,4276.922852,4264.487305,4271.922852,4451.153809,4476.025879,4375,4414.871582,6746,4,79,,,,0,4,4,4,4,4,4,4,4,4,4,4,4,4,4,100,,,,,,,,,,,,,,,,,28,0,0.150485,0.589539,-0.286255,0.740173,0.963497,-0.206568,0.109388,-12.409284,6.432847,85.19516,,,,,,,,,,,,,,,,,,,,,,,,,,,,,,,,,,,,,3.131598,0.186095,0.727504,0.943336,0.798331,18.221121,3.754506,1.446446,1.306118,0.790069,0.944016,0.39017,0.965355,0.918126,1.010455,3.147571,0.861802,1.286922,1.340839,1.179561,2.553358,1.642387,1.207595,1.907024,1.041599,3.172279,0.832156,0.778291,0.874054,1.170371,1.692705,0.504981,0.841069,0.915434,1.090284,1.053593,0.20995,0.606722,0.629644,0.632152,1.633699,0.46822,0.632223,0.90331,0.8185,3.535496,0.560129,0.844297,0.672058,1.059572,2.195553,0.360414,0.958751,1.666597,1.509264,1.865829,0.342331,0.870196,1.343874,1.374315,3.905293,1.539189,0.921806,1.590208,1.218046,2.209326,0.399756,1.051885,1.366591,0.890665
1702544340,1702544340,113,0,4285.641113,4233.461426,4318.205078,4309.743652,4282.820313,4257.94873,4268.717773,4283.461426,4277.692383,4280.256348,4495.512695,4481.410156,4402.563965,4447.692383,7032,4,79,,,,0,4,4,4,4,4,4,4,4,4,4,4,4,4,4,100,,,,,,,,,,,,,,,,,,,,,,,,,,,,,,,,,,,,,,,,,,,,,,,,,,,,,,,,,,,,,,,,,,,,,,,,,,,,,,,,,,,,,,,,,,,,,,,,,,,,,,,,,,,,,,,,,,,,,,,,,,,,,,,,,,,,,,
1702544340,1702544340,114,0,4273.461426,4219.743652,4301.794922,4312.307617,4270.128418,4252.820313,4263.333496,4277.692383,4270.128418,4263.333496,4481.153809,4462.307617,4387.436035,4442.563965,6128,4,79,,,,0,4,4,4,4,4,4,4,4,4,4,4,4,4,4,100,,,,,,,,,,,,,,,,,,,,,,,,,,,,,,,,,,,,,,,,,,,,,,,,,,,,,,,,,,,,,,,,,,,,,,,,,,,,,,,,,,,,,,,,,,,,,,,,,,,,,,,,,,,,,,,,,,,,,,,,,,,,,,,,,,,,,,
1702544340,1702544340,115,0,4260.897461,4194.615234,4299.615234,4299.743652,4258.461426,4249.358887,4259.871582,4267.820313,4261.410156,4265.384766,4449.358887,4454.358887,4376.794922,4419.743652,6340,4,79,,,,0,4,4,4,4,4,4,4,4,4,4,4,4,4,4,100,,,,,,,,,,,,,,,,,,,,,,,,,,,,,,,,,,,,,,,,,,,,,,,,,,,,,,,,,,,,,,,,,,,,,,,,,,,,,,,,,,,,,,,,,,,,,,,,,,,,,,,,,,,,,,,,,,,,,,,,,,,,,,,,,,,,,,
1702544340,1702544340,116,0,4269.358887,4193.461426,4310,4303.333496,4268.205078,4244.358887,4260.769043,4263.974121,4258.717773,4274.102539,4452.94873,4462.179688,4392.179688,4423.461426,6746,4,79,,,,0,4,4,4,4,4,4,4,4,4,4,4,4,4,4,100,,,,,,,,,,,,,,,,,29,0,0.151343,0.589355,-0.285706,0.740356,0.970822,-0.199243,0.107435,-12.368356,6.372896,85.125641,,,,,,,,,,,,,,,,,,,,,,,,,,,,,,,,,,,,,,,,,,,,,,,,,,,,,,,,,,,,,,,,,,,,,,,,,,,,,,,,,,,,,,,,,,,,,,,,,,,,,,,,,,
1702544340,1702544340,117,0,4273.205078,4210.384766,4299.487305,4314.102539,4276.025879,4235.256348,4251.794922,4262.436035,4249.615234,4257.692383,4456.282227,4452.05127,4386.538574,4437.436035,7032,4,79,,,,0,4,4,4,4,4,4,4,4,4,4,4,4,4,4,100,,,,,,,,,,,,,,,,,,,,,,,,,,,,,,,,,,,,,,,,,,,,,,,,,,,,,,,,,,,,,,,,,,,,,,,,,,,,,,,,,,,,,,,,,,,,,,,,,,,,,,,,,,,,,,,,,,,,,,,,,,,,,,,,,,,,,,
1702544340,1702544340,118,0,4270.384766,4210.769043,4289.743652,4313.461426,4266.410156,4243.077148,4252.436035,4260.897461,4243.333496,4249.358887,4450.512695,4441.410156,4374.743652,4436.922852,6128,4,79,,,,0,4,4,4,4,4,4,4,4,4,4,4,4,4,4,100,,,,,,,,,,,,,,,,,,,,,,,,,,,,,,,,,,,,,,,,,,,,,,,,,,,,,,,,,,,,,,,,,,,,,,,,,,,,,,,,,,,,,,,,,,,,,,,,,,,,,,,,,,,,,,,,,,,,,,,,,,,,,,,,,,,,,,
1702544340,1702544340,119,0,4273.205078,4201.410156,4295.897461,4308.205078,4260.641113,4254.871582,4262.94873,4262.179688,4248.205078,4261.282227,4448.589844,4449.358887,4386.794922,4432.307617,6340,4,79,,,,0,4,4,4,4,4,4,4,4,4,4,4,4,4,4,100,,,,,,,,,,,,,,,,,,,,,,,,,,,,,,,,,,,,,,,,,,,,,,,,,,,,,,,,,,,,,,,,,,,,,,,,,,,,,,,,,,,,,,,,,,,,,,,,,,,,,,,,,,,,,,,,,,,,,,,,,,,,,,,,,,,,,,
1702544340,1702544340,120,0,4263.717773,4195.769043,4291.153809,4294.615234,4263.717773,4237.179688,4249.102539,4260.769043,4246.153809,4252.94873,4438.589844,4444.871582,4378.077148,4418.589844,6746,4,79,,,,0,4,4,4,4,4,4,4,4,4,4,4,4,4,4,100,,,,,,,,,,,,,,,,,30,0,0.151391,0.588989,-0.285645,0.740662,0.95666,-0.205591,0.107435,-12.264853,6.352273,85.079742,,,,,,,,,,,,,,,,,,,,,,,,,,,,,,,,,,,,,,,,,,,,,,,,,,,,,,,,,,,,,,,,,,,,,,,,,,,,,,,,,,,,,,,,,,,,,,,,,,,,,,,,,,
1702544340,1702544340,121,0,4253.589844,4191.922852,4287.307617,4285.512695,4262.820313,4226.153809,4239.871582,4260.256348,4242.692383,4242.179688,4438.077148,4439.871582,4358.589844,4408.717773,7032,4,79,,,,0,4,4,4,4,4,4,4,4,4,4,4,4,4,4,100,,,,,,,,,,,,,,,,,,,,,,,,,,,,,,,,,,,,,,,,,,,,,,,,,,,,,,,,,,,,,,,,,,,,,,,,,,,,,,,,,,,,,,,,,,,,,,,,,,,,,,,,,,,,,,,,,,,,,,,,,,,,,,,,,,,,,,
1702544340,1702544340,122,0,4269.487305,4202.05127,4297.820313,4299.871582,4266.025879,4251.282227,4258.077148,4268.974121,4251.410156,4249.871582,4448.461426,4456.794922,4378.974121,4425.897461,6128,4,79,,,,0,4,4,4,4,4,4,4,4,4,4,4,4,4,4,100,,,,,,,,,,,,,,,,,,,,,,,,,,,,,,,,,,,,,,,,,,,,,,,,,,,,,,,,,,,,,,,,,,,,,,,,,,,,,,,,,,,,,,,,,,,,,,,,,,,,,,,,,,,,,,,,,,,,,,,,,,,,,,,,,,,,,,
1702544340,1702544340,123,0,4281.794922,4219.743652,4291.025879,4312.94873,4271.922852,4252.179688,4254.102539,4266.666504,4249.487305,4247.94873,4444.743652,4453.974121,4400,4442.692383,6340,4,79,,,,0,4,4,4,4,4,4,4,4,4,4,4,4,4,4,100,,,,,,,,,,,,,,,,,,,,,,,,,,,,,,,,,,,,,,,,,,,,,,,,,,,,,,,,,,,,,,,,,,,,,,,,,,,,,,,,,,,,,,,,,,,,,,,,,,,,,,,,,,,,,,,,,,,,,,,,,,,,,,,,,,,,,,
1702544340,1702544340,124,0,4290.769043,4238.717773,4292.179688,4322.563965,4276.282227,4237.436035,4250.256348,4262.179688,4251.153809,4256.025879,4462.179688,4448.205078,4415.769043,4458.333496,6746,4,79,,,,0,4,4,4,4,4,4,4,4,4,4,4,4,4,4,100,,,,,,,,,,,,,,,,,31,0,0.151383,0.588684,-0.285645,0.740906,0.95373,-0.210963,0.104017,-12.155035,6.350379,84.971771,,,,,,,,,,,,,,,,,,,,,,,,,,,,,,,,,,,,,,,,,,,,,,,,,,,,,,,,,,,,,,,,,,,,,,,,,,,,,,,,,,,,,,,,,,,,,,,,,,,,,,,,,,
1702544340,1702544340,125,0,4314.871582,4263.589844,4316.538574,4336.410156,4282.05127,4255.769043,4273.461426,4271.025879,4264.358887,4273.717773,4488.846191,4471.794922,4443.717773,4481.282227,7032,4,79,,,,0,4,4,4,4,4,4,4,4,4,4,4,4,4,4,100,,,,,,,,,,,,,,,,,,,,,,,,,,,,,,,,,,,,,,,,,,,,,,,,,,,,,,,,,,,,,,,,,,,,,,,,,,,,,,,,,,,,,,,,,,,,,,,,,,,,,,,,,,,,,,,,,,,,,,,,,,,,,,,,,,,,,,
1702544340,1702544340,126,0,4331.153809,4297.05127,4322.820313,4342.179688,4279.871582,4269.871582,4276.922852,4268.974121,4258.461426,4269.615234,4483.717773,4480.128418,4463.717773,4498.333496,6128,4,79,,,,0,4,4,4,4,4,4,4,4,4,4,4,4,4,4,100,,,,,,,,,,,,,,,,,,,,,,,,,,,,,,,,,,,,,,,,,,,,,,,,,,,,,,,,,,,,,,,,,,,,,,,,,,,,,,,,,,,,,,,,,,,,,,,,,,,,,,,,,,,,,,,,,,,,,,,,,,,,,,,,,,,,,,
1702544340,1702544340,127,0,4337.179688,4319.102539,4313.333496,4343.717773,4273.589844,4248.717773,4258.077148,4257.436035,4246.666504,4258.461426,4479.487305,4466.282227,4474.871582,4508.205078,79,4,79,,,,0,4,4,4,4,4,4,4,4,4,4,4,4,4,4,100,,,,,,,,,,,,,,,,,,,,,,,,,,,,,,,,,,,,,,,,,,,,,,,,,,,,,,,,,,,,,,,,,,,,,,,,,,,,,,,,,,,,,,,,,,,,,,,,,,,,,,,,,,,,,,,,,,,,,,,,,,,,,,,,,,,,,,
1702544340,1702544340,0,0,4354.871582,4336.153809,4321.153809,4353.333496,4276.025879,4236.666504,4255.641113,4255.641113,4251.153809,4260.128418,4495,4471.282227,4491.666504,4523.205078,5387,4,79,,,,0,4,4,4,4,4,4,4,4,4,4,4,4,4,4,100,,,,,,,,,,,,,,,,,0,0,0.151378,0.587952,-0.285889,0.741394,0.952753,-0.210475,0.112318,-12.072865,6.398674,84.907928,,,,,,,,,,,,,,,,,,,,,,,,,,,,,,,,,,,,,2.745273,0.254361,0.787464,0.904188,0.849673,16.498131,4.86288,1.686638,1.394506,0.782269,1.036822,0.562077,1.037089,0.934634,1.157645,3.209123,1.153855,1.616771,1.527069,1.451537,3.349678,2.252069,1.560174,2.287515,1.287598,3.010633,0.896431,0.906684,0.944059,1.365423,1.554316,0.499735,0.857771,0.945114,1.258636,1.025231,0.221936,0.640127,0.681252,0.642701,1.613585,0.416092,0.681808,0.99763,0.810108,4.360276,0.651919,0.749542,0.707434,1.101427,2.165743,0.367673,0.851751,1.533458,1.487188,1.818609,0.489629,0.847083,1.294283,1.458953,4.06323,1.077523,0.661856,1.557351,1.188435,2.082417,0.43243,1.163267,1.400825,0.889173
1702544340,1702544340,1,0,4400.384766,4390.897461,4351.410156,4388.461426,4290.641113,4261.666504,4277.436035,4268.717773,4265.641113,4263.205078,4522.563965,4504.230957,4541.282227,4574.487305,5505,4,79,,,,0,4,4,4,4,4,4,4,4,4,4,4,4,4,4,100,,,,,,,,,,,,,,,,,,,,,,,,,,,,,,,,,,,,,,,,,,,,,,,,,,,,,,,,,,,,,,,,,,,,,,,,,,,,,,,,,,,,,,,,,,,,,,,,,,,,,,,,,,,,,,,,,,,,,,,,,,,,,,,,,,,,,,
1702544340,1702544340,2,0,4436.666504,4440.384766,4366.538574,4413.846191,4302.436035,4272.179688,4282.563965,4277.307617,4270.512695,4262.563965,4544.615234,4524.743652,4593.974121,4621.025879,5459,4,79,,,,0,4,4,4,4,4,4,4,4,4,4,4,4,4,4,100,,,,,,,,,,,,,,,,,,,,,,,,,,,,,,,,,,,,,,,,,,,,,,,,,,,,,,,,,,,,,,,,,,,,,,,,,,,,,,,,,,,,,,,,,,,,,,,,,,,,,,,,,,,,,,,,,,,,,,,,,,,,,,,,,,,,,,
1702544340,1702544340,3,0,4429.743652,4435.769043,4351.922852,4397.436035,4293.205078,4247.436035,4260.897461,4264.487305,4257.179688,4269.102539,4532.94873,4514.102539,4595.128418,4607.692383,5402,4,79,,,,0,4,4,4,4,4,4,4,4,4,4,4,4,4,4,100,,,,,,,,,,,,,,,,,,,,,,,,,,,,,,,,,,,,,,,,,,,,,,,,,,,,,,,,,,,,,,,,,,,,,,,,,,,,,,,,,,,,,,,,,,,,,,,,,,,,,,,,,,,,,,,,,,,,,,,,,,,,,,,,,,,,,,
1702544340,1702544340,4,0,4426.538574,4439.871582,4347.179688,4396.282227,4280.256348,4233.717773,4248.717773,4250.769043,4244.102539,4267.179688,4518.974121,4505.769043,4583.974121,4607.563965,5362,4,79,,,,0,4,4,4,4,4,4,4,4,4,4,4,4,4,4,100,,,,,,,,,,,,,,,,,1,0,0.151326,0.587158,-0.286438,0.741821,0.95959,-0.2178,0.112318,-12.065578,6.425474,84.783798,,,,,,,,,,,,,,,,,,,,,,,,,,,,,,,,,,,,,,,,,,,,,,,,,,,,,,,,,,,,,,,,,,,,,,,,,,,,,,,,,,,,,,,,,,,,,,,,,,,,,,,,,,
1702544340,1702544340,5,0,4463.077148,4486.538574,4372.436035,4438.846191,4289.102539,4244.358887,4261.410156,4265.512695,4254.743652,4258.333496,4547.94873,4526.794922,4613.589844,4665.641113,5328,4,79,,,,0,4,4,4,4,4,4,4,4,4,4,4,4,4,4,100,,,,,,,,,,,,,,,,,,,,,,,,,,,,,,,,,,,,,,,,,,,,,,,,,,,,,,,,,,,,,,,,,,,,,,,,,,,,,,,,,,,,,,,,,,,,,,,,,,,,,,,,,,,,,,,,,,,,,,,,,,,,,,,,,,,,,,
1702544340,1702544340,6,0,4492.05127,4512.820313,4391.666504,4460.384766,4303.205078,4252.307617,4271.153809,4284.487305,4273.846191,4266.538574,4579.615234,4549.230957,4636.025879,4693.974121,5263,4,79,,,,0,4,4,4,4,4,4,4,4,4,4,4,4,4,4,100,,,,,,,,,,,,,,,,,,,,,,,,,,,,,,,,,,,,,,,,,,,,,,,,,,,,,,,,,,,,,,,,,,,,,,,,,,,,,,,,,,,,,,,,,,,,,,,,,,,,,,,,,,,,,,,,,,,,,,,,,,,,,,,,,,,,,,
1702544340,1702544340,7,0,4478.333496,4491.922852,4380.769043,4434.487305,4290.769043,4249.230957,4261.538574,4275.512695,4266.410156,4271.153809,4566.538574,4541.025879,4619.615234,4665.384766,5063,4,79,,,,0,4,4,4,4,4,4,4,4,4,4,4,4,4,4,100,,,,,,,,,,,,,,,,,,,,,,,,,,,,,,,,,,,,,,,,,,,,,,,,,,,,,,,,,,,,,,,,,,,,,,,,,,,,,,,,,,,,,,,,,,,,,,,,,,,,,,,,,,,,,,,,,,,,,,,,,,,,,,,,,,,,,,
1702544340,1702544340,8,0,4458.461426,4463.717773,4360.384766,4407.563965,4279.615234,4238.333496,4251.538574,4259.358887,4249.615234,4257.179688,4545.256348,4520.128418,4611.666504,4647.563965,5359,4,79,,,,0,4,4,4,4,4,4,4,4,4,4,4,4,4,4,100,,,,,,,,,,,,,,,,,2,0,0.150507,0.586548,-0.28717,0.742188,0.971798,-0.20901,0.118178,-12.042354,6.349593,84.688751,,,,,,,,,,,,,,,,,,,,,,,,,,,,,,,,,,,,,,,,,,,,,,,,,,,,,,,,,,,,,,,,,,,,,,,,,,,,,,,,,,,,,,,,,,,,,,,,,,,,,,,,,,
1702544340,1702544340,9,0,4448.333496,4444.102539,4346.538574,4396.153809,4277.05127,4231.410156,4245.769043,4252.179688,4244.487305,4246.282227,4543.974121,4505.128418,4610.256348,4641.538574,5349,4,79,,,,0,4,4,4,4,4,4,4,4,4,4,4,4,4,4,100,,,,,,,,,,,,,,,,,,,,,,,,,,,,,,,,,,,,,,,,,,,,,,,,,,,,,,,,,,,,,,,,,,,,,,,,,,,,,,,,,,,,,,,,,,,,,,,,,,,,,,,,,,,,,,,,,,,,,,,,,,,,,,,,,,,,,,
1702544340,1702544340,10,0,4445.256348,4448.461426,4353.717773,4402.436035,4265,4237.436035,4248.461426,4255.769043,4246.153809,4248.461426,4530.641113,4510.128418,4587.692383,4629.743652,6028,4,79,,,,0,4,4,4,4,4,4,4,4,4,4,4,4,4,4,100,,,,,,,,,,,,,,,,,,,,,,,,,,,,,,,,,,,,,,,,,,,,,,,,,,,,,,,,,,,,,,,,,,,,,,,,,,,,,,,,,,,,,,,,,,,,,,,,,,,,,,,,,,,,,,,,,,,,,,,,,,,,,,,,,,,,,,
1702544340,1702544340,11,0,4446.794922,4461.922852,4361.025879,4408.333496,4268.846191,4238.077148,4252.692383,4265.256348,4250.256348,4247.05127,4512.179688,4518.717773,4568.974121,4626.153809,6254,4,79,,,,0,4,4,4,4,4,4,4,4,4,4,4,4,4,4,100,,,,,,,,,,,,,,,,,,,,,,,,,,,,,,,,,,,,,,,,,,,,,,,,,,,,,,,,,,,,,,,,,,,,,,,,,,,,,,,,,,,,,,,,,,,,,,,,,,,,,,,,,,,,,,,,,,,,,,,,,,,,,,,,,,,,,,
1702544340,1702544340,12,0,4441.410156,4449.358887,4349.743652,4394.230957,4290.512695,4236.410156,4248.077148,4264.871582,4248.717773,4244.230957,4523.589844,4508.205078,4572.179688,4618.974121,6691,4,79,,,,0,4,4,4,4,4,4,4,4,4,4,4,4,4,4,100,,,,,,,,,,,,,,,,,3,0,0.149508,0.586243,-0.287842,0.742371,0.971798,-0.216335,0.113783,-11.821451,6.264634,84.703209,,,,,,,,,,,,,,,,,,,,,,,,,,,,,,,,,,,,,,,,,,,,,,,,,,,,,,,,,,,,,,,,,,,,,,,,,,,,,,,,,,,,,,,,,,,,,,,,,,,,,,,,,,
1702544340,1702544340,13,0,4443.717773,4439.743652,4353.974121,4398.589844,4300.769043,4246.794922,4248.205078,4263.333496,4247.820313,4251.794922,4546.025879,4506.794922,4590.128418,4623.077148,6952,4,79,,,,0,4,4,4,4,4,4,4,4,4,4,4,4,4,4,100,,,,,,,,,,,,,,,,,,,,,,,,,,,,,,,,,,,,,,,,,,,,,,,,,,,,,,,,,,,,,,,,,,,,,,,,,,,,,,,,,,,,,,,,,,,,,,,,,,,,,,,,,,,,,,,,,,,,,,,,,,,,,,,,,,,,,,
1702544340,1702544340,14,0,4449.102539,4450,4365.641113,4422.179688,4290.384766,4242.563965,4248.205078,4265.641113,4250,4253.461426,4546.666504,4515.256348,4602.179688,4634.871582,6028,4,79,,,,0,4,4,4,4,4,4,4,4,4,4,4,4,4,4,100,,,,,,,,,,,,,,,,,,,,,,,,,,,,,,,,,,,,,,,,,,,,,,,,,,,,,,,,,,,,,,,,,,,,,,,,,,,,,,,,,,,,,,,,,,,,,,,,,,,,,,,,,,,,,,,,,,,,,,,,,,,,,,,,,,,,,,
1702544340,1702544340,15,0,4437.307617,4432.05127,4356.153809,4413.077148,4277.436035,4226.538574,4246.282227,4265,4250.769043,4240.897461,4537.179688,4507.436035,4591.410156,4617.820313,6254,4,79,,,,0,4,4,4,4,4,4,4,4,4,4,4,4,4,4,100,,,,,,,,,,,,,,,,,,,,,,,,,,,,,,,,,,,,,,,,,,,,,,,,,,,,,,,,,,,,,,,,,,,,,,,,,,,,,,,,,,,,,,,,,,,,,,,,,,,,,,,,,,,,,,,,,,,,,,,,,,,,,,,,,,,,,,
1702544340,1702544340,16,0,4422.692383,4380.641113,4343.717773,4382.563965,4275,4231.666504,4250.384766,4265,4250.384766,4239.615234,4531.410156,4491.282227,4573.974121,4589.102539,0,4,79,,,,0,4,4,4,4,4,4,4,4,4,4,4,4,4,4,100,1,58.333332,3,1,3,4,4,3,4,4,4,3,3,3,3,3,4,0,0.149172,0.586243,-0.28833,0.742249,0.953241,-0.225125,0.099133,-11.97264,6.18817,84.566223,,,,,,,,,,,,,,,,,,,,,,,,,,,,,,,,,,,,,2.478466,0.337687,0.862099,0.844078,0.895033,15.735723,5.612697,1.822994,1.415779,0.759961,1.193201,0.739626,1.082769,0.93308,1.254403,3.338964,1.402838,1.849306,1.671071,1.713299,3.975722,2.700245,1.853662,2.509547,1.567366,2.998775,0.897267,0.975017,0.993427,1.508426,1.426451,0.462577,0.809959,0.941043,1.364053,1.013476,0.235298,0.64773,0.712764,0.642843,1.594904,0.375497,0.757578,1.046878,0.775944,5.097522,0.755071,0.64201,0.733645,1.131465,2.143478,0.414709,0.865985,1.397141,1.49285,1.879676,0.670012,0.835353,1.20031,1.48382,4.327641,0.803938,0.512772,1.523939,1.154652,2.046588,0.511651,1.256175,1.40164,0.885077
1702544340,1702544340,17,0,4410.128418,4345,4341.025879,4373.205078,4281.794922,4244.102539,4251.282227,4261.666504,4248.205078,4250.641113,4517.436035,4482.436035,4547.05127,4571.282227,0,4,79,,,,0,4,4,4,4,4,4,4,4,4,4,4,4,4,4,100,,,,,,,,,,,,,,,,,,,,,,,,,,,,,,,,,,,,,,,,,,,,,,,,,,,,,,,,,,,,,,,,,,,,,,,,,,,,,,,,,,,,,,,,,,,,,,,,,,,,,,,,,,,,,,,,,,,,,,,,,,,,,,,,,,,,,,
1702544340,1702544340,18,0,4388.333496,4327.563965,4330.897461,4367.179688,4276.794922,4240.769043,4243.333496,4248.077148,4239.230957,4245.384766,4489.615234,4470.769043,4503.846191,4541.282227,0,4,79,,,,0,4,4,4,4,4,4,4,4,4,4,4,4,4,4,100,,,,,,,,,,,,,,,,,,,,,,,,,,,,,,,,,,,,,,,,,,,,,,,,,,,,,,,,,,,,,,,,,,,,,,,,,,,,,,,,,,,,,,,,,,,,,,,,,,,,,,,,,,,,,,,,,,,,,,,,,,,,,,,,,,,,,,
1702544340,1702544340,19,0,4379.615234,4311.025879,4332.307617,4360.897461,4276.153809,4250,4253.461426,4253.717773,4244.230957,4243.974121,4483.974121,4473.077148,4493.846191,4525.256348,0,4,79,,,,0,4,4,4,4,4,4,4,4,4,4,4,4,4,4,100,,,,,,,,,,,,,,,,,,,,,,,,,,,,,,,,,,,,,,,,,,,,,,,,,,,,,,,,,,,,,,,,,,,,,,,,,,,,,,,,,,,,,,,,,,,,,,,,,,,,,,,,,,,,,,,,,,,,,,,,,,,,,,,,,,,,,,
1702544340,1702544340,20,0,4380,4293.333496,4341.794922,4360.256348,4296.666504,4265.256348,4270.512695,4268.333496,4263.077148,4258.846191,4510,4483.077148,4509.871582,4535.512695,0,4,79,,,,0,4,4,4,4,4,4,4,4,4,4,4,4,4,4,100,,,,,,,,,,,,,,,,,5,0,0.148594,0.586304,-0.288818,0.742126,0.952265,-0.22659,0.098645,-11.992043,6.18602,84.492935,,,,,,,,,,,,,,,,,,,,,,,,,,,,,,,,,,,,,,,,,,,,,,,,,,,,,,,,,,,,,,,,,,,,,,,,,,,,,,,,,,,,,,,,,,,,,,,,,,,,,,,,,,
1702544340,1702544340,21,0,4347.692383,4260.256348,4317.820313,4336.153809,4281.025879,4251.794922,4250.512695,4249.743652,4245.384766,4245,4502.692383,4453.589844,4472.436035,4503.974121,0,4,79,,,,0,4,4,4,4,4,4,4,4,4,4,4,4,4,4,100,,,,,,,,,,,,,,,,,,,,,,,,,,,,,,,,,,,,,,,,,,,,,,,,,,,,,,,,,,,,,,,,,,,,,,,,,,,,,,,,,,,,,,,,,,,,,,,,,,,,,,,,,,,,,,,,,,,,,,,,,,,,,,,,,,,,,,
1702544340,1702544340,22,0,4324.743652,4243.461426,4302.692383,4316.153809,4249.615234,4239.743652,4237.05127,4241.025879,4225,4229.102539,4466.666504,4434.487305,4424.102539,4463.717773,0,4,79,,,,0,4,4,4,4,4,4,4,4,4,4,4,4,4,4,100,,,,,,,,,,,,,,,,,,,,,,,,,,,,,,,,,,,,,,,,,,,,,,,,,,,,,,,,,,,,,,,,,,,,,,,,,,,,,,,,,,,,,,,,,,,,,,,,,,,,,,,,,,,,,,,,,,,,,,,,,,,,,,,,,,,,,,
1702544340,1702544340,23,0,4346.538574,4268.461426,4327.563965,4333.589844,4269.358887,4255.128418,4266.153809,4271.410156,4257.692383,4253.717773,4481.025879,4471.666504,4442.94873,4485.256348,0,4,79,,,,0,4,4,4,4,4,4,4,4,4,4,4,4,4,4,100,,,,,,,,,,,,,,,,,,,,,,,,,,,,,,,,,,,,,,,,,,,,,,,,,,,,,,,,,,,,,,,,,,,,,,,,,,,,,,,,,,,,,,,,,,,,,,,,,,,,,,,,,,,,,,,,,,,,,,,,,,,,,,,,,,,,,,
1702544340,1702544340,24,0,4352.436035,4283.974121,4340.512695,4339.102539,4298.205078,4270,4282.307617,4287.436035,4286.282227,4270.769043,4500.256348,4494.230957,4453.717773,4495.769043,0,4,79,,,,0,4,4,4,4,4,4,4,4,4,4,4,4,4,4,100,,,,,,,,,,,,,,,,,6,0,0.148186,0.586304,-0.289185,0.742065,0.943963,-0.228544,0.105482,-12.042838,6.117418,84.493645,,,,,,,,,,,,,,,,,,,,,,,,,,,,,,,,,,,,,,,,,,,,,,,,,,,,,,,,,,,,,,,,,,,,,,,,,,,,,,,,,,,,,,,,,,,,,,,,,,,,,,,,,,
1702544340,1702544340,25,0,4337.563965,4282.563965,4335.128418,4332.692383,4300.256348,4274.230957,4274.230957,4283.461426,4275.256348,4264.487305,4482.692383,4481.025879,4430.897461,4471.794922,0,4,79,,,,0,4,4,4,4,4,4,4,4,4,4,4,4,4,4,100,,,,,,,,,,,,,,,,,,,,,,,,,,,,,,,,,,,,,,,,,,,,,,,,,,,,,,,,,,,,,,,,,,,,,,,,,,,,,,,,,,,,,,,,,,,,,,,,,,,,,,,,,,,,,,,,,,,,,,,,,,,,,,,,,,,,,,
1702544340,1702544340,26,0,4338.717773,4293.717773,4341.538574,4346.666504,4303.717773,4275.128418,4277.820313,4294.102539,4275.897461,4258.974121,4483.974121,4483.461426,4430.128418,4471.922852,0,4,79,,,,0,4,4,4,4,4,4,4,4,4,4,4,4,4,4,100,,,,,,,,,,,,,,,,,,,,,,,,,,,,,,,,,,,,,,,,,,,,,,,,,,,,,,,,,,,,,,,,,,,,,,,,,,,,,,,,,,,,,,,,,,,,,,,,,,,,,,,,,,,,,,,,,,,,,,,,,,,,,,,,,,,,,,
1702544340,1702544340,27,0,4330.897461,4291.922852,4335.384766,4340.128418,4300.128418,4264.871582,4279.615234,4300.256348,4286.922852,4263.589844,4492.692383,4487.563965,4421.794922,4467.179688,0,4,79,,,,0,4,4,4,4,4,4,4,4,4,4,4,4,4,4,100,,,,,,,,,,,,,,,,,,,,,,,,,,,,,,,,,,,,,,,,,,,,,,,,,,,,,,,,,,,,,,,,,,,,,,,,,,,,,,,,,,,,,,,,,,,,,,,,,,,,,,,,,,,,,,,,,,,,,,,,,,,,,,,,,,,,,,
1702544340,1702544340,28,0,4307.692383,4275,4317.436035,4316.410156,4287.94873,4266.282227,4269.871582,4289.358887,4276.794922,4272.692383,4468.205078,4472.307617,4395.769043,4438.461426,0,4,79,,,,0,4,4,4,4,4,4,4,4,4,4,4,4,4,4,100,,,,,,,,,,,,,,,,,7,0,0.148495,0.586243,-0.289307,0.742004,0.957636,-0.236357,0.109388,-12.021888,6.18901,84.477608,,,,,,,,,,,,,,,,,,,,,,,,,,,,,,,,,,,,,,,,,,,,,,,,,,,,,,,,,,,,,,,,,,,,,,,,,,,,,,,,,,,,,,,,,,,,,,,,,,,,,,,,,,
1702544340,1702544340,29,0,4311.153809,4280.641113,4323.846191,4328.333496,4299.358887,4291.025879,4283.077148,4290.641113,4274.487305,4273.974121,4452.820313,4473.717773,4396.666504,4439.102539,0,4,79,,,,0,4,4,4,4,4,4,4,4,4,4,4,4,4,4,100,,,,,,,,,,,,,,,,,,,,,,,,,,,,,,,,,,,,,,,,,,,,,,,,,,,,,,,,,,,,,,,,,,,,,,,,,,,,,,,,,,,,,,,,,,,,,,,,,,,,,,,,,,,,,,,,,,,,,,,,,,,,,,,,,,,,,,
1702544340,1702544340,30,0,4317.563965,4285.769043,4332.436035,4336.153809,4308.205078,4301.922852,4305.256348,4299.358887,4281.410156,4267.820313,4467.563965,4481.282227,4398.205078,4446.666504,0,4,79,,,,0,4,4,4,4,4,4,4,4,4,4,4,4,4,4,100,,,,,,,,,,,,,,,,,,,,,,,,,,,,,,,,,,,,,,,,,,,,,,,,,,,,,,,,,,,,,,,,,,,,,,,,,,,,,,,,,,,,,,,,,,,,,,,,,,,,,,,,,,,,,,,,,,,,,,,,,,,,,,,,,,,,,,
1702544340,1702544340,31,0,4299.487305,4267.179688,4322.179688,4312.436035,4296.922852,4290,4298.974121,4295.897461,4280.897461,4272.179688,4473.205078,4473.333496,4373.205078,4422.436035,0,4,79,,,,0,4,4,4,4,4,4,4,4,4,4,4,4,4,4,100,,,,,,,,,,,,,,,,,,,,,,,,,,,,,,,,,,,,,,,,,,,,,,,,,,,,,,,,,,,,,,,,,,,,,,,,,,,,,,,,,,,,,,,,,,,,,,,,,,,,,,,,,,,,,,,,,,,,,,,,,,,,,,,,,,,,,,
1702544340,1702544340,32,0,4295.897461,4260.641113,4314.102539,4312.436035,4295.256348,4284.871582,4287.94873,4294.358887,4285.641113,4284.230957,4472.94873,4470.256348,4372.94873,4414.230957,0,4,79,,,,0,4,4,4,4,4,4,4,4,4,4,4,4,4,4,100,,,,,,,,,,,,,,,,,8,0,0.148969,0.586243,-0.289063,0.742004,0.945916,-0.22952,0.104017,-11.886366,6.203442,84.396515,,,,,,,,,,,,,,,,,,,,,,,,,,,,,,,,,,,,,2.723788,0.436657,0.884067,0.763131,0.916449,16.038973,5.800145,1.82793,1.34871,0.724902,1.449804,0.866553,1.054263,0.896376,1.262444,3.676173,1.555126,1.886138,1.721878,1.878497,4.235169,2.85647,1.987231,2.49407,1.805685,3.151751,0.824837,0.954291,1.004278,1.569498,1.384654,0.403227,0.705582,0.894388,1.379318,0.998787,0.24897,0.632683,0.709187,0.619704,1.568148,0.355479,0.826361,1.026057,0.714469,5.452747,0.839917,0.507504,0.726636,1.147452,2.254973,0.497502,0.915838,1.292943,1.522717,2.139187,0.817653,0.804396,1.071146,1.430226,5.093619,0.83003,0.462382,1.491341,1.121445,2.583006,0.639776,1.251199,1.352977,0.885095
1702544340,1702544340,33,0,4312.436035,4267.307617,4319.487305,4335.769043,4303.205078,4293.461426,4300.897461,4306.922852,4300.256348,4290.769043,4489.358887,4477.436035,4400.769043,4436.282227,0,4,79,,,,0,4,4,4,4,4,4,4,4,4,4,4,4,4,4,100,,,,,,,,,,,,,,,,,,,,,,,,,,,,,,,,,,,,,,,,,,,,,,,,,,,,,,,,,,,,,,,,,,,,,,,,,,,,,,,,,,,,,,,,,,,,,,,,,,,,,,,,,,,,,,,,,,,,,,,,,,,,,,,,,,,,,,
1702544340,1702544340,34,0,4312.820313,4253.846191,4325.641113,4330.128418,4307.179688,4296.794922,4311.922852,4315.769043,4303.333496,4295.512695,4490.256348,4479.743652,4398.077148,4434.615234,0,4,79,,,,0,4,4,4,4,4,4,4,4,4,4,4,4,4,4,100,,,,,,,,,,,,,,,,,,,,,,,,,,,,,,,,,,,,,,,,,,,,,,,,,,,,,,,,,,,,,,,,,,,,,,,,,,,,,,,,,,,,,,,,,,,,,,,,,,,,,,,,,,,,,,,,,,,,,,,,,,,,,,,,,,,,,,
1702544340,1702544340,35,0,4306.538574,4248.205078,4329.743652,4323.461426,4309.871582,4291.538574,4306.922852,4310.897461,4295.641113,4296.410156,4474.743652,4482.179688,4379.871582,4418.333496,0,4,79,,,,0,4,4,4,4,4,4,4,4,4,4,4,4,4,4,100,,,,,,,,,,,,,,,,,,,,,,,,,,,,,,,,,,,,,,,,,,,,,,,,,,,,,,,,,,,,,,,,,,,,,,,,,,,,,,,,,,,,,,,,,,,,,,,,,,,,,,,,,,,,,,,,,,,,,,,,,,,,,,,,,,,,,,
1702544340,1702544340,36,0,4312.94873,4268.717773,4331.666504,4340.512695,4308.846191,4294.487305,4306.282227,4311.922852,4301.922852,4292.94873,4483.077148,4490.641113,4387.563965,4427.692383,0,4,79,,,,0,4,4,4,4,4,4,4,4,4,4,4,4,4,4,100,,,,,,,,,,,,,,,,,9,0,0.15023,0.586792,-0.288391,0.741577,0.96252,-0.218777,0.110853,-11.747729,6.349764,84.390198,,,,,,,,,,,,,,,,,,,,,,,,,,,,,,,,,,,,,,,,,,,,,,,,,,,,,,,,,,,,,,,,,,,,,,,,,,,,,,,,,,,,,,,,,,,,,,,,,,,,,,,,,,
1702544340,1702544340,37,0,4307.94873,4269.743652,4323.717773,4339.743652,4309.358887,4298.717773,4306.282227,4312.94873,4305.641113,4288.077148,4498.717773,4485,4396.282227,4433.846191,0,4,79,,,,0,4,4,4,4,4,4,4,4,4,4,4,4,4,4,100,,,,,,,,,,,,,,,,,,,,,,,,,,,,,,,,,,,,,,,,,,,,,,,,,,,,,,,,,,,,,,,,,,,,,,,,,,,,,,,,,,,,,,,,,,,,,,,,,,,,,,,,,,,,,,,,,,,,,,,,,,,,,,,,,,,,,,
1702544340,1702544340,38,0,4289.230957,4243.077148,4307.94873,4315.769043,4310.512695,4287.05127,4295.256348,4300.256348,4285.769043,4274.871582,4477.692383,4461.666504,4379.230957,4411.025879,0,4,79,,,,0,4,4,4,4,4,4,4,4,4,4,4,4,4,4,100,,,,,,,,,,,,,,,,,,,,,,,,,,,,,,,,,,,,,,,,,,,,,,,,,,,,,,,,,,,,,,,,,,,,,,,,,,,,,,,,,,,,,,,,,,,,,,,,,,,,,,,,,,,,,,,,,,,,,,,,,,,,,,,,,,,,,,
1702544340,1702544340,39,0,4288.205078,4233.333496,4301.922852,4309.102539,4304.871582,4275.256348,4287.94873,4290.897461,4274.358887,4269.615234,4456.282227,4454.358887,4364.487305,4399.230957,0,4,79,,,,0,4,4,4,4,4,4,4,4,4,4,4,4,4,4,100,,,,,,,,,,,,,,,,,,,,,,,,,,,,,,,,,,,,,,,,,,,,,,,,,,,,,,,,,,,,,,,,,,,,,,,,,,,,,,,,,,,,,,,,,,,,,,,,,,,,,,,,,,,,,,,,,,,,,,,,,,,,,,,,,,,,,,
1702544340,1702544340,40,0,4296.922852,4241.666504,4307.307617,4317.692383,4293.461426,4280.897461,4290.256348,4293.205078,4286.153809,4272.94873,4467.94873,4467.436035,4370.384766,4408.846191,0,4,79,,,,0,4,4,4,4,4,4,4,4,4,4,4,4,4,4,100,,,,,,,,,,,,,,,,,10,0,0.15159,0.587341,-0.287659,0.74115,0.967892,-0.215358,0.104017,-11.772956,6.348121,84.484512,,,,,,,,,,,,,,,,,,,,,,,,,,,,,,,,,,,,,,,,,,,,,,,,,,,,,,,,,,,,,,,,,,,,,,,,,,,,,,,,,,,,,,,,,,,,,,,,,,,,,,,,,,
1702544340,1702544340,41,0,4297.563965,4244.487305,4312.179688,4318.846191,4286.794922,4288.974121,4295.512695,4298.461426,4293.717773,4275,4474.230957,4476.153809,4381.153809,4413.717773,0,4,79,,,,0,4,4,4,4,4,4,4,4,4,4,4,4,4,4,100,,,,,,,,,,,,,,,,,,,,,,,,,,,,,,,,,,,,,,,,,,,,,,,,,,,,,,,,,,,,,,,,,,,,,,,,,,,,,,,,,,,,,,,,,,,,,,,,,,,,,,,,,,,,,,,,,,,,,,,,,,,,,,,,,,,,,,
1702544340,1702544340,42,0,4299.358887,4245.128418,4319.102539,4319.230957,4301.538574,4290.128418,4298.205078,4308.205078,4295.769043,4277.436035,4471.025879,4480.256348,4383.205078,4414.487305,0,4,79,,,,0,4,4,4,4,4,4,4,4,4,4,4,4,4,4,100,,,,,,,,,,,,,,,,,,,,,,,,,,,,,,,,,,,,,,,,,,,,,,,,,,,,,,,,,,,,,,,,,,,,,,,,,,,,,,,,,,,,,,,,,,,,,,,,,,,,,,,,,,,,,,,,,,,,,,,,,,,,,,,,,,,,,,
1702544340,1702544340,43,0,4293.461426,4236.794922,4312.94873,4315.384766,4315.897461,4284.743652,4293.717773,4308.461426,4297.94873,4275.128418,4465.769043,4471.666504,4370.128418,4407.05127,0,4,79,,,,0,4,4,4,4,4,4,4,4,4,4,4,4,4,4,100,,,,,,,,,,,,,,,,,,,,,,,,,,,,,,,,,,,,,,,,,,,,,,,,,,,,,,,,,,,,,,,,,,,,,,,,,,,,,,,,,,,,,,,,,,,,,,,,,,,,,,,,,,,,,,,,,,,,,,,,,,,,,,,,,,,,,,
1702544340,1702544340,44,0,4279.743652,4225.384766,4299.615234,4308.846191,4301.794922,4284.615234,4293.077148,4302.307617,4295.641113,4277.179688,4463.846191,4457.692383,4364.615234,4395.769043,0,4,79,,,,0,4,4,4,4,4,4,4,4,4,4,4,4,4,4,100,,,,,,,,,,,,,,,,,11,0,0.152513,0.587769,-0.286926,0.740906,0.94787,-0.203638,0.098645,-11.728993,6.396642,84.469391,,,,,,,,,,,,,,,,,,,,,,,,,,,,,,,,,,,,,,,,,,,,,,,,,,,,,,,,,,,,,,,,,,,,,,,,,,,,,,,,,,,,,,,,,,,,,,,,,,,,,,,,,,
1702544340,1702544340,45,0,4281.410156,4224.102539,4301.282227,4309.358887,4284.743652,4289.230957,4298.846191,4308.077148,4297.436035,4281.794922,4471.410156,4456.153809,4375,4399.230957,0,4,79,,,,0,4,4,4,4,4,4,4,4,4,4,4,4,4,4,100,,,,,,,,,,,,,,,,,,,,,,,,,,,,,,,,,,,,,,,,,,,,,,,,,,,,,,,,,,,,,,,,,,,,,,,,,,,,,,,,,,,,,,,,,,,,,,,,,,,,,,,,,,,,,,,,,,,,,,,,,,,,,,,,,,,,,,
1702544340,1702544340,46,0,4276.282227,4212.692383,4296.666504,4298.974121,4295.512695,4280,4290.384766,4303.461426,4288.717773,4263.974121,4458.846191,4443.717773,4367.563965,4392.436035,0,4,79,,,,0,4,4,4,4,4,4,4,4,4,4,4,4,4,4,100,,,,,,,,,,,,,,,,,,,,,,,,,,,,,,,,,,,,,,,,,,,,,,,,,,,,,,,,,,,,,,,,,,,,,,,,,,,,,,,,,,,,,,,,,,,,,,,,,,,,,,,,,,,,,,,,,,,,,,,,,,,,,,,,,,,,,,
1702544340,1702544340,47,0,4263.974121,4203.205078,4289.743652,4295.384766,4302.94873,4275.897461,4288.461426,4292.94873,4276.538574,4254.102539,4444.871582,4435.384766,4351.153809,4374.743652,0,4,79,,,,0,4,4,4,4,4,4,4,4,4,4,4,4,4,4,100,,,,,,,,,,,,,,,,,,,,,,,,,,,,,,,,,,,,,,,,,,,,,,,,,,,,,,,,,,,,,,,,,,,,,,,,,,,,,,,,,,,,,,,,,,,,,,,,,,,,,,,,,,,,,,,,,,,,,,,,,,,,,,,,,,,,,,
1702544340,1702544340,48,0,4272.563965,4211.794922,4303.333496,4313.974121,4283.205078,4295.128418,4308.205078,4306.282227,4289.487305,4269.487305,4457.94873,4453.205078,4352.179688,4382.692383,0,4,79,,,,0,4,4,4,4,4,4,4,4,4,4,4,4,4,4,100,,,,,,,,,,,,,,,,,12,0,0.153256,0.588074,-0.286377,0.740723,0.964473,-0.196801,0.112318,-11.656095,6.523645,84.572456,,,,,,,,,,,,,,,,,,,,,,,,,,,,,,,,,,,,,3.958595,0.595768,0.841953,0.680287,0.909247,17.900478,5.53834,1.748119,1.23035,0.695633,1.935247,0.913093,0.948198,0.818708,1.180034,4.373669,1.618317,1.73757,1.664936,1.898332,4.075593,2.693681,1.929055,2.251292,1.928419,3.452793,0.697999,0.842582,0.964754,1.545284,1.463433,0.348349,0.572327,0.806184,1.310383,0.986619,0.267434,0.615017,0.666085,0.574087,1.562714,0.352742,0.866937,0.934196,0.638254,5.256223,0.886776,0.371485,0.676411,1.147935,2.680868,0.626436,0.996655,1.260165,1.566261,2.741176,0.890466,0.759679,0.926173,1.312406,7.117801,1.233885,0.504359,1.462573,1.098295,4.447466,0.856137,1.170053,1.276628,0.911361
1702544340,1702544340,49,0,4276.282227,4206.153809,4306.025879,4311.025879,4273.846191,4296.922852,4310.897461,4313.205078,4298.205078,4256.538574,4454.615234,4454.102539,4357.692383,4386.153809,0,4,79,,,,0,4,4,4,4,4,4,4,4,4,4,4,4,4,4,100,,,,,,,,,,,,,,,,,,,,,,,,,,,,,,,,,,,,,,,,,,,,,,,,,,,,,,,,,,,,,,,,,,,,,,,,,,,,,,,,,,,,,,,,,,,,,,,,,,,,,,,,,,,,,,,,,,,,,,,,,,,,,,,,,,,,,,
1702544340,1702544340,50,0,4258.077148,4185.641113,4285.512695,4286.538574,4291.410156,4276.666504,4291.794922,4293.205078,4280,4229.487305,4423.461426,4426.538574,4347.692383,4363.461426,0,4,79,,,,0,4,4,4,4,4,4,4,4,4,4,4,4,4,4,100,,,,,,,,,,,,,,,,,,,,,,,,,,,,,,,,,,,,,,,,,,,,,,,,,,,,,,,,,,,,,,,,,,,,,,,,,,,,,,,,,,,,,,,,,,,,,,,,,,,,,,,,,,,,,,,,,,,,,,,,,,,,,,,,,,,,,,
1702544340,1702544340,51,0,4260.256348,4190.384766,4286.153809,4291.922852,4309.615234,4288.077148,4292.692383,4285.128418,4269.358887,4246.282227,4438.077148,4423.846191,4339.743652,4365.128418,0,4,79,,,,0,4,4,4,4,4,4,4,4,4,4,4,4,4,4,100,,,,,,,,,,,,,,,,,,,,,,,,,,,,,,,,,,,,,,,,,,,,,,,,,,,,,,,,,,,,,,,,,,,,,,,,,,,,,,,,,,,,,,,,,,,,,,,,,,,,,,,,,,,,,,,,,,,,,,,,,,,,,,,,,,,,,,
1702544340,1702544340,52,0,4273.589844,4199.230957,4301.666504,4301.666504,4308.205078,4303.205078,4301.153809,4292.05127,4270.897461,4263.333496,4469.487305,4436.410156,4341.666504,4383.077148,0,4,79,,,,0,4,4,4,4,4,4,4,4,4,4,4,4,4,4,100,,,,,,,,,,,,,,,,,13,0,0.153999,0.588135,-0.286011,0.740662,0.946405,-0.192895,0.099622,-11.673819,6.637947,84.581879,,,,,,,,,,,,,,,,,,,,,,,,,,,,,,,,,,,,,,,,,,,,,,,,,,,,,,,,,,,,,,,,,,,,,,,,,,,,,,,,,,,,,,,,,,,,,,,,,,,,,,,,,,
1702544340,1702544340,53,0,4267.436035,4184.102539,4297.05127,4293.717773,4292.692383,4277.94873,4286.666504,4290.769043,4272.307617,4253.846191,4447.436035,4433.077148,4345.897461,4376.410156,0,4,79,,,,0,4,4,4,4,4,4,4,4,4,4,4,4,4,4,100,,,,,,,,,,,,,,,,,,,,,,,,,,,,,,,,,,,,,,,,,,,,,,,,,,,,,,,,,,,,,,,,,,,,,,,,,,,,,,,,,,,,,,,,,,,,,,,,,,,,,,,,,,,,,,,,,,,,,,,,,,,,,,,,,,,,,,
1702544340,1702544340,54,0,4265.897461,4175.512695,4287.179688,4301.666504,4280.769043,4260.256348,4273.846191,4290.769043,4278.077148,4256.922852,4433.077148,4433.589844,4351.153809,4372.692383,0,4,79,,,,0,4,4,4,4,4,4,4,4,4,4,4,4,4,4,100,,,,,,,,,,,,,,,,,,,,,,,,,,,,,,,,,,,,,,,,,,,,,,,,,,,,,,,,,,,,,,,,,,,,,,,,,,,,,,,,,,,,,,,,,,,,,,,,,,,,,,,,,,,,,,,,,,,,,,,,,,,,,,,,,,,,,,
1702544340,1702544340,55,0,4281.666504,4188.205078,4296.794922,4320.769043,4286.282227,4278.461426,4285.769043,4297.820313,4283.333496,4269.358887,4460.897461,4446.153809,4355.641113,4393.205078,0,4,79,,,,0,4,4,4,4,4,4,4,4,4,4,4,4,4,4,100,,,,,,,,,,,,,,,,,,,,,,,,,,,,,,,,,,,,,,,,,,,,,,,,,,,,,,,,,,,,,,,,,,,,,,,,,,,,,,,,,,,,,,,,,,,,,,,,,,,,,,,,,,,,,,,,,,,,,,,,,,,,,,,,,,,,,,
1702544340,1702544340,56,0,4293.077148,4199.230957,4309.871582,4326.153809,4297.563965,4289.615234,4292.820313,4301.153809,4284.615234,4266.538574,4474.230957,4455.641113,4360.769043,4402.179688,0,4,79,,,,0,4,4,4,4,4,4,4,4,4,4,4,4,4,4,100,,,,,,,,,,,,,,,,,14,0,0.154571,0.588074,-0.285828,0.740662,0.949335,-0.192895,0.113295,-11.856437,6.707486,84.507019,,,,,,,,,,,,,,,,,,,,,,,,,,,,,,,,,,,,,,,,,,,,,,,,,,,,,,,,,,,,,,,,,,,,,,,,,,,,,,,,,,,,,,,,,,,,,,,,,,,,,,,,,,
1702544340,1702544340,57,0,4278.205078,4183.589844,4298.205078,4310.641113,4283.846191,4270.128418,4269.487305,4286.282227,4272.179688,4246.410156,4450.512695,4439.743652,4352.563965,4381.025879,0,4,79,,,,0,4,4,4,4,4,4,4,4,4,4,4,4,4,4,100,,,,,,,,,,,,,,,,,,,,,,,,,,,,,,,,,,,,,,,,,,,,,,,,,,,,,,,,,,,,,,,,,,,,,,,,,,,,,,,,,,,,,,,,,,,,,,,,,,,,,,,,,,,,,,,,,,,,,,,,,,,,,,,,,,,,,,
1702544340,1702544340,58,0,4263.333496,4167.05127,4286.410156,4293.846191,4269.871582,4263.333496,4257.820313,4273.974121,4260.384766,4242.05127,4446.025879,4423.846191,4343.589844,4370.641113,0,4,79,,,,0,4,4,4,4,4,4,4,4,4,4,4,4,4,4,100,,,,,,,,,,,,,,,,,,,,,,,,,,,,,,,,,,,,,,,,,,,,,,,,,,,,,,,,,,,,,,,,,,,,,,,,,,,,,,,,,,,,,,,,,,,,,,,,,,,,,,,,,,,,,,,,,,,,,,,,,,,,,,,,,,,,,,
1702544340,1702544340,59,0,4288.461426,4187.307617,4305,4306.922852,4290.128418,4286.922852,4284.743652,4293.333496,4282.94873,4274.615234,4472.820313,4448.589844,4365,4398.717773,0,4,79,,,,0,4,4,4,4,4,4,4,4,4,4,4,4,4,4,100,,,,,,,,,,,,,,,,,,,,,,,,,,,,,,,,,,,,,,,,,,,,,,,,,,,,,,,,,,,,,,,,,,,,,,,,,,,,,,,,,,,,,,,,,,,,,,,,,,,,,,,,,,,,,,,,,,,,,,,,,,,,,,,,,,,,,,
1702544340,1702544340,60,0,4309.358887,4201.282227,4317.563965,4324.102539,4300.897461,4290.128418,4293.717773,4306.794922,4301.153809,4283.974121,4473.974121,4471.025879,4384.230957,4415.641113,0,4,79,,,,0,4,4,4,4,4,4,4,4,4,4,4,4,4,4,100,,,,,,,,,,,,,,,,,15,0,0.155252,0.58783,-0.285645,0.740784,0.967892,-0.188011,0.104993,-11.83746,6.753404,84.739655,,,,,,,,,,,,,,,,,,,,,,,,,,,,,,,,,,,,,,,,,,,,,,,,,,,,,,,,,,,,,,,,,,,,,,,,,,,,,,,,,,,,,,,,,,,,,,,,,,,,,,,,,,
1702544340,1702544340,61,0,4299.358887,4189.871582,4311.922852,4317.563965,4282.179688,4273.974121,4279.743652,4297.692383,4287.307617,4262.307617,4474.743652,4464.615234,4385.128418,4407.563965,0,4,79,,,,0,4,4,4,4,4,4,4,4,4,4,4,4,4,4,100,,,,,,,,,,,,,,,,,,,,,,,,,,,,,,,,,,,,,,,,,,,,,,,,,,,,,,,,,,,,,,,,,,,,,,,,,,,,,,,,,,,,,,,,,,,,,,,,,,,,,,,,,,,,,,,,,,,,,,,,,,,,,,,,,,,,,,
1702544340,1702544340,62,0,4290,4185.769043,4309.743652,4309.102539,4277.436035,4278.974121,4279.615234,4293.461426,4280.384766,4265,4492.307617,4457.563965,4382.179688,4405.384766,0,4,79,,,,0,4,4,4,4,4,4,4,4,4,4,4,4,4,4,100,,,,,,,,,,,,,,,,,,,,,,,,,,,,,,,,,,,,,,,,,,,,,,,,,,,,,,,,,,,,,,,,,,,,,,,,,,,,,,,,,,,,,,,,,,,,,,,,,,,,,,,,,,,,,,,,,,,,,,,,,,,,,,,,,,,,,,
1702544340,1702544340,63,0,4281.922852,4176.282227,4296.153809,4298.461426,4280.512695,4274.743652,4273.461426,4288.846191,4278.461426,4261.025879,4473.717773,4448.077148,4358.333496,4388.333496,0,4,79,,,,0,4,4,4,4,4,4,4,4,4,4,4,4,4,4,100,,,,,,,,,,,,,,,,,,,,,,,,,,,,,,,,,,,,,,,,,,,,,,,,,,,,,,,,,,,,,,,,,,,,,,,,,,,,,,,,,,,,,,,,,,,,,,,,,,,,,,,,,,,,,,,,,,,,,,,,,,,,,,,,,,,,,,
1702544340,1702544340,64,0,4277.307617,4165.897461,4289.102539,4293.333496,4279.615234,4262.692383,4268.717773,4288.589844,4275,4243.974121,4453.077148,4441.922852,4340.641113,4373.077148,5364,4,79,,,,0,4,4,4,4,4,4,4,4,4,4,4,4,4,4,100,,,,,,,,,,,,,,,,,16,0,0.155877,0.587646,-0.285522,0.740845,0.962031,-0.188988,0.119644,-11.787047,6.761397,84.732353,,,,,,,,,,,,,,,,,,,,,,,,,,,,,,,,,,,,,6.794628,0.85845,0.791876,0.626518,0.884354,23.166883,5.200193,1.660033,1.12582,0.698283,2.736992,0.881639,0.812824,0.718571,1.043054,5.710179,1.648013,1.510857,1.535424,1.785825,3.590945,2.285837,1.698,1.875449,1.892244,3.732955,0.547771,0.665789,0.89215,1.458382,1.685724,0.315198,0.440592,0.695947,1.193443,1.006845,0.29919,0.62875,0.591897,0.520642,1.599063,0.357664,0.888102,0.79478,0.570408,4.566908,0.879931,0.281743,0.594189,1.127587,3.713005,0.796298,1.163301,1.317749,1.612383,3.93011,0.886226,0.751833,0.798309,1.171916,11.361555,2.018767,0.668311,1.447256,1.100886,8.86058,1.198912,1.120153,1.209593,0.989627
1702544340,1702544340,65,0,4296.410156,4182.563965,4308.333496,4317.307617,4288.846191,4288.717773,4290.641113,4308.333496,4293.589844,4269.615234,4485.512695,4462.563965,4369.743652,4400.384766,5505,4,79,,,,0,4,4,4,4,4,4,4,4,4,4,4,4,4,4,100,,,,,,,,,,,,,,,,,,,,,,,,,,,,,,,,,,,,,,,,,,,,,,,,,,,,,,,,,,,,,,,,,,,,,,,,,,,,,,,,,,,,,,,,,,,,,,,,,,,,,,,,,,,,,,,,,,,,,,,,,,,,,,,,,,,,,,
1702544340,1702544340,66,0,4301.025879,4192.692383,4311.153809,4325,4290.897461,4296.025879,4295.384766,4310,4301.794922,4287.307617,4491.922852,4467.05127,4378.846191,4415,5447,4,79,,,,0,4,4,4,4,4,4,4,4,4,4,4,4,4,4,100,,,,,,,,,,,,,,,,,,,,,,,,,,,,,,,,,,,,,,,,,,,,,,,,,,,,,,,,,,,,,,,,,,,,,,,,,,,,,,,,,,,,,,,,,,,,,,,,,,,,,,,,,,,,,,,,,,,,,,,,,,,,,,,,,,,,,,
1702544340,1702544340,67,0,4276.538574,4169.615234,4288.589844,4296.666504,4272.307617,4263.717773,4271.922852,4279.102539,4272.436035,4246.538574,4444.230957,4434.230957,4339.487305,4384.102539,5410,4,79,,,,0,4,4,4,4,4,4,4,4,4,4,4,4,4,4,100,,,,,,,,,,,,,,,,,,,,,,,,,,,,,,,,,,,,,,,,,,,,,,,,,,,,,,,,,,,,,,,,,,,,,,,,,,,,,,,,,,,,,,,,,,,,,,,,,,,,,,,,,,,,,,,,,,,,,,,,,,,,,,,,,,,,,,
1702544340,1702544340,68,0,4276.794922,4162.820313,4290.512695,4295.769043,4273.077148,4268.846191,4276.666504,4273.589844,4262.563965,4230.769043,4444.743652,4431.922852,4338.205078,4375,5374,4,79,,,,0,4,4,4,4,4,4,4,4,4,4,4,4,4,4,100,,,,,,,,,,,,,,,,,17,0,0.155885,0.587158,-0.285889,0.741089,0.981565,-0.201685,0.114272,-11.858342,6.751924,84.79245,,,,,,,,,,,,,,,,,,,,,,,,,,,,,,,,,,,,,,,,,,,,,,,,,,,,,,,,,,,,,,,,,,,,,,,,,,,,,,,,,,,,,,,,,,,,,,,,,,,,,,,,,,
1702544340,1702544340,69,0,4300.256348,4183.589844,4313.205078,4315.641113,4294.871582,4293.974121,4295.641113,4296.025879,4285.256348,4265.641113,4478.589844,4463.974121,4373.461426,4401.410156,5292,4,79,,,,0,4,4,4,4,4,4,4,4,4,4,4,4,4,4,100,,,,,,,,,,,,,,,,,,,,,,,,,,,,,,,,,,,,,,,,,,,,,,,,,,,,,,,,,,,,,,,,,,,,,,,,,,,,,,,,,,,,,,,,,,,,,,,,,,,,,,,,,,,,,,,,,,,,,,,,,,,,,,,,,,,,,,
1702544340,1702544340,70,0,4298.717773,4187.820313,4311.794922,4306.666504,4299.743652,4283.846191,4290.128418,4294.230957,4287.179688,4276.282227,4473.333496,4465.384766,4369.487305,4402.563965,5222,4,79,,,,0,4,4,4,4,4,4,4,4,4,4,4,4,4,4,100,,,,,,,,,,,,,,,,,,,,,,,,,,,,,,,,,,,,,,,,,,,,,,,,,,,,,,,,,,,,,,,,,,,,,,,,,,,,,,,,,,,,,,,,,,,,,,,,,,,,,,,,,,,,,,,,,,,,,,,,,,,,,,,,,,,,,,
1702544340,1702544340,71,0,4279.358887,4167.820313,4294.615234,4291.153809,4290.897461,4276.282227,4280.256348,4276.153809,4266.922852,4247.179688,4451.922852,4439.102539,4340,4373.846191,5050,4,79,,,,0,4,4,4,4,4,4,4,4,4,4,4,4,4,4,100,,,,,,,,,,,,,,,,,,,,,,,,,,,,,,,,,,,,,,,,,,,,,,,,,,,,,,,,,,,,,,,,,,,,,,,,,,,,,,,,,,,,,,,,,,,,,,,,,,,,,,,,,,,,,,,,,,,,,,,,,,,,,,,,,,,,,,
1702544340,1702544340,72,0,4273.717773,4156.410156,4290.128418,4294.102539,4284.102539,4288.717773,4282.436035,4274.487305,4260.641113,4227.179688,4449.487305,4428.589844,4329.871582,4361.410156,5337,4,79,,,,0,4,4,4,4,4,4,4,4,4,4,4,4,4,4,100,,,,,,,,,,,,,,,,,18,0,0.155723,0.586548,-0.286438,0.741394,0.97717,-0.205591,0.117202,-11.789175,6.743398,84.879875,,,,,,,,,,,,,,,,,,,,,,,,,,,,,,,,,,,,,,,,,,,,,,,,,,,,,,,,,,,,,,,,,,,,,,,,,,,,,,,,,,,,,,,,,,,,,,,,,,,,,,,,,,
1702544340,1702544340,73,0,4283.333496,4163.589844,4297.179688,4301.410156,4278.461426,4287.820313,4286.153809,4281.538574,4273.077148,4243.077148,4457.307617,4435.897461,4340.384766,4378.333496,5354,4,79,,,,0,4,4,4,4,4,4,4,4,4,4,4,4,4,4,100,,,,,,,,,,,,,,,,,,,,,,,,,,,,,,,,,,,,,,,,,,,,,,,,,,,,,,,,,,,,,,,,,,,,,,,,,,,,,,,,,,,,,,,,,,,,,,,,,,,,,,,,,,,,,,,,,,,,,,,,,,,,,,,,,,,,,,
1702544340,1702544340,74,0,4290.256348,4168.717773,4298.333496,4300,4276.025879,4274.102539,4280,4279.358887,4274.487305,4260,4457.179688,4440.128418,4352.307617,4393.461426,6032,4,79,,,,0,4,4,4,4,4,4,4,4,4,4,4,4,4,4,100,,,,,,,,,,,,,,,,,,,,,,,,,,,,,,,,,,,,,,,,,,,,,,,,,,,,,,,,,,,,,,,,,,,,,,,,,,,,,,,,,,,,,,,,,,,,,,,,,,,,,,,,,,,,,,,,,,,,,,,,,,,,,,,,,,,,,,
1702544340,1702544340,75,0,4294.487305,4178.077148,4302.563965,4305.641113,4284.743652,4278.077148,4281.025879,4280,4268.205078,4250.256348,4459.871582,4447.05127,4356.153809,4395.256348,6272,4,79,,,,0,4,4,4,4,4,4,4,4,4,4,4,4,4,4,100,,,,,,,,,,,,,,,,,,,,,,,,,,,,,,,,,,,,,,,,,,,,,,,,,,,,,,,,,,,,,,,,,,,,,,,,,,,,,,,,,,,,,,,,,,,,,,,,,,,,,,,,,,,,,,,,,,,,,,,,,,,,,,,,,,,,,,
1702544340,1702544340,76,0,4297.307617,4184.102539,4308.717773,4307.05127,4290.384766,4293.461426,4289.230957,4283.333496,4267.820313,4241.282227,4464.871582,4448.974121,4356.153809,4390.641113,6683,4,79,,,,0,4,4,4,4,4,4,4,4,4,4,4,4,4,4,100,,,,,,,,,,,,,,,,,19,0,0.155683,0.586243,-0.286926,0.741455,0.962031,-0.190941,0.112318,-11.74359,6.519058,84.97522,,,,,,,,,,,,,,,,,,,,,,,,,,,,,,,,,,,,,,,,,,,,,,,,,,,,,,,,,,,,,,,,,,,,,,,,,,,,,,,,,,,,,,,,,,,,,,,,,,,,,,,,,,
1702544340,1702544340,77,0,4291.410156,4173.974121,4301.538574,4290.769043,4286.410156,4285.128418,4285,4280.128418,4266.153809,4245.897461,4455.512695,4444.102539,4355.641113,4386.025879,6940,4,79,,,,0,4,4,4,4,4,4,4,4,4,4,4,4,4,4,100,,,,,,,,,,,,,,,,,,,,,,,,,,,,,,,,,,,,,,,,,,,,,,,,,,,,,,,,,,,,,,,,,,,,,,,,,,,,,,,,,,,,,,,,,,,,,,,,,,,,,,,,,,,,,,,,,,,,,,,,,,,,,,,,,,,,,,
1702544340,1702544340,78,0,4282.436035,4167.692383,4292.692383,4275,4277.179688,4265.769043,4273.589844,4275.128418,4263.846191,4239.487305,4440.512695,4443.333496,4348.717773,4382.692383,6032,4,79,,,,0,4,4,4,4,4,4,4,4,4,4,4,4,4,4,100,,,,,,,,,,,,,,,,,,,,,,,,,,,,,,,,,,,,,,,,,,,,,,,,,,,,,,,,,,,,,,,,,,,,,,,,,,,,,,,,,,,,,,,,,,,,,,,,,,,,,,,,,,,,,,,,,,,,,,,,,,,,,,,,,,,,,,
1702544340,1702544340,79,0,4284.615234,4175.641113,4294.615234,4278.205078,4268.974121,4270.769043,4272.05127,4274.358887,4265.128418,4232.179688,4457.179688,4443.717773,4349.615234,4386.153809,6272,4,79,,,,0,4,4,4,4,4,4,4,4,4,4,4,4,4,4,100,,,,,,,,,,,,,,,,,,,,,,,,,,,,,,,,,,,,,,,,,,,,,,,,,,,,,,,,,,,,,,,,,,,,,,,,,,,,,,,,,,,,,,,,,,,,,,,,,,,,,,,,,,,,,,,,,,,,,,,,,,,,,,,,,,,,,,
1702544340,1702544340,80,0,4291.282227,4174.615234,4297.94873,4281.282227,4274.230957,4278.717773,4275.128418,4276.538574,4265,4242.307617,4482.692383,4441.410156,4366.410156,4391.794922,6683,4,79,,,,0,4,4,4,4,4,4,4,4,4,4,4,4,4,4,100,1,41.666668,4,1,3,4,4,3,3,4,4,1,3,3,3,3,20,0,0.155753,0.586182,-0.28717,0.741394,0.976682,-0.193871,0.113783,-11.902565,6.450486,85.044365,,,,,,,,,,,,,,,,,,,,,,,,,,,,,,,,,,,,,11.397885,1.218696,0.804161,0.618367,0.860624,33.934811,5.208308,1.645458,1.088552,0.752292,3.888007,0.806378,0.710265,0.625883,0.904354,7.914152,1.709158,1.3469,1.387092,1.603507,2.998934,1.776587,1.370177,1.498554,1.709273,3.904497,0.408271,0.466351,0.81499,1.343717,1.990289,0.312277,0.330622,0.588436,1.075228,1.074559,0.35192,0.702437,0.505728,0.478723,1.68101,0.363548,0.916847,0.646296,0.533022,3.662125,0.825918,0.275138,0.503278,1.081981,5.416448,0.982424,1.455987,1.444022,1.655927,5.792171,0.838313,0.822576,0.719983,1.056943,17.760336,3.069196,0.981778,1.452122,1.141141,15.965776,1.646488,1.205093,1.171614,1.12873
1702544340,1702544340,81,0,4296.282227,4168.717773,4298.717773,4275.897461,4293.077148,4271.025879,4274.487305,4278.589844,4267.179688,4254.102539,4468.846191,4447.179688,4371.538574,4397.820313,6940,4,79,,,,0,4,4,4,4,4,4,4,4,4,4,4,4,4,4,100,,,,,,,,,,,,,,,,,,,,,,,,,,,,,,,,,,,,,,,,,,,,,,,,,,,,,,,,,,,,,,,,,,,,,,,,,,,,,,,,,,,,,,,,,,,,,,,,,,,,,,,,,,,,,,,,,,,,,,,,,,,,,,,,,,,,,,
1702544340,1702544340,82,0,4296.538574,4175.256348,4300.128418,4273.974121,4296.025879,4264.615234,4272.820313,4280.384766,4272.179688,4255.641113,4455.384766,4455.256348,4354.615234,4403.461426,6032,4,79,,,,0,4,4,4,4,4,4,4,4,4,4,4,4,4,4,100,,,,,,,,,,,,,,,,,,,,,,,,,,,,,,,,,,,,,,,,,,,,,,,,,,,,,,,,,,,,,,,,,,,,,,,,,,,,,,,,,,,,,,,,,,,,,,,,,,,,,,,,,,,,,,,,,,,,,,,,,,,,,,,,,,,,,,
1702544340,1702544340,83,0,4286.410156,4172.563965,4293.333496,4266.410156,4277.820313,4262.436035,4267.692383,4279.743652,4267.820313,4247.179688,4454.615234,4443.461426,4349.230957,4397.692383,6272,4,79,,,,0,4,4,4,4,4,4,4,4,4,4,4,4,4,4,100,,,,,,,,,,,,,,,,,,,,,,,,,,,,,,,,,,,,,,,,,,,,,,,,,,,,,,,,,,,,,,,,,,,,,,,,,,,,,,,,,,,,,,,,,,,,,,,,,,,,,,,,,,,,,,,,,,,,,,,,,,,,,,,,,,,,,,
1702544340,1702544340,84,0,4284.358887,4171.794922,4291.153809,4264.615234,4274.615234,4270.897461,4270.512695,4280.256348,4264.871582,4235.384766,4444.615234,4433.589844,4362.436035,4395.128418,6683,4,79,,,,0,4,4,4,4,4,4,4,4,4,4,4,4,4,4,100,,,,,,,,,,,,,,,,,21,0,0.155481,0.586182,-0.287476,0.741333,0.961055,-0.212917,0.104017,-11.895641,6.455437,85.056595,,,,,,,,,,,,,,,,,,,,,,,,,,,,,,,,,,,,,,,,,,,,,,,,,,,,,,,,,,,,,,,,,,,,,,,,,,,,,,,,,,,,,,,,,,,,,,,,,,,,,,,,,,
1702544340,1702544340,85,0,4292.436035,4187.563965,4298.461426,4275.897461,4279.743652,4283.846191,4274.358887,4279.871582,4266.410156,4228.717773,4445.897461,4436.922852,4358.846191,4397.05127,6940,4,79,,,,0,4,4,4,4,4,4,4,4,4,4,4,4,4,4,100,,,,,,,,,,,,,,,,,,,,,,,,,,,,,,,,,,,,,,,,,,,,,,,,,,,,,,,,,,,,,,,,,,,,,,,,,,,,,,,,,,,,,,,,,,,,,,,,,,,,,,,,,,,,,,,,,,,,,,,,,,,,,,,,,,,,,,
1702544340,1702544340,86,0,4289.358887,4201.538574,4297.179688,4277.179688,4276.794922,4273.589844,4265.897461,4278.589844,4261.410156,4232.692383,4457.820313,4435,4349.102539,4396.025879,6032,4,79,,,,0,4,4,4,4,4,4,4,4,4,4,4,4,4,4,100,,,,,,,,,,,,,,,,,,,,,,,,,,,,,,,,,,,,,,,,,,,,,,,,,,,,,,,,,,,,,,,,,,,,,,,,,,,,,,,,,,,,,,,,,,,,,,,,,,,,,,,,,,,,,,,,,,,,,,,,,,,,,,,,,,,,,,
1702544340,1702544340,87,0,4290.641113,4216.153809,4301.794922,4276.666504,4274.871582,4272.692383,4272.563965,4285.641113,4270,4244.487305,4464.358887,4440.256348,4364.102539,4408.589844,6272,4,79,,,,0,4,4,4,4,4,4,4,4,4,4,4,4,4,4,100,,,,,,,,,,,,,,,,,,,,,,,,,,,,,,,,,,,,,,,,,,,,,,,,,,,,,,,,,,,,,,,,,,,,,,,,,,,,,,,,,,,,,,,,,,,,,,,,,,,,,,,,,,,,,,,,,,,,,,,,,,,,,,,,,,,,,,
1702544340,1702544340,88,0,4310,4244.230957,4320.512695,4291.410156,4282.94873,4303.974121,4298.333496,4298.077148,4294.487305,4256.794922,4475.641113,4461.794922,4385.897461,4427.820313,6683,4,79,,,,0,4,4,4,4,4,4,4,4,4,4,4,4,4,4,100,,,,,,,,,,,,,,,,,22,0,0.155189,0.585938,-0.287659,0.741516,0.929801,-0.211452,0.104017,-12.072744,6.393227,85.034271,,,,,,,,,,,,,,,,,,,,,,,,,,,,,,,,,,,,,,,,,,,,,,,,,,,,,,,,,,,,,,,,,,,,,,,,,,,,,,,,,,,,,,,,,,,,,,,,,,,,,,,,,,
1702544340,1702544340,89,0,4317.179688,4262.436035,4327.820313,4298.461426,4291.025879,4306.794922,4298.461426,4300.384766,4296.922852,4258.846191,4471.794922,4468.717773,4387.179688,4425.897461,6940,4,79,,,,0,4,4,4,4,4,4,4,4,4,4,4,4,4,4,100,,,,,,,,,,,,,,,,,,,,,,,,,,,,,,,,,,,,,,,,,,,,,,,,,,,,,,,,,,,,,,,,,,,,,,,,,,,,,,,,,,,,,,,,,,,,,,,,,,,,,,,,,,,,,,,,,,,,,,,,,,,,,,,,,,,,,,
1702544340,1702544340,90,0,4305.641113,4259.615234,4316.794922,4283.974121,4291.410156,4278.333496,4275,4293.205078,4279.358887,4253.974121,4449.230957,4457.05127,4373.974121,4408.589844,6032,4,79,,,,0,4,4,4,4,4,4,4,4,4,4,4,4,4,4,100,,,,,,,,,,,,,,,,,,,,,,,,,,,,,,,,,,,,,,,,,,,,,,,,,,,,,,,,,,,,,,,,,,,,,,,,,,,,,,,,,,,,,,,,,,,,,,,,,,,,,,,,,,,,,,,,,,,,,,,,,,,,,,,,,,,,,,
1702544340,1702544340,91,0,4306.410156,4267.436035,4315.769043,4281.666504,4290.897461,4285,4278.333496,4296.794922,4282.563965,4259.230957,4466.922852,4465.128418,4382.563965,4415.769043,6272,4,79,,,,0,4,4,4,4,4,4,4,4,4,4,4,4,4,4,100,,,,,,,,,,,,,,,,,,,,,,,,,,,,,,,,,,,,,,,,,,,,,,,,,,,,,,,,,,,,,,,,,,,,,,,,,,,,,,,,,,,,,,,,,,,,,,,,,,,,,,,,,,,,,,,,,,,,,,,,,,,,,,,,,,,,,,
1702544340,1702544340,92,0,4316.153809,4282.05127,4322.94873,4296.282227,4292.436035,4312.94873,4302.307617,4305.512695,4295.769043,4264.615234,4499.487305,4478.205078,4404.743652,4443.717773,6683,4,79,,,,0,4,4,4,4,4,4,4,4,4,4,4,4,4,4,100,,,,,,,,,,,,,,,,,23,0,0.155191,0.585632,-0.287964,0.741638,0.969357,-0.20315,0.1089,-12.11547,6.470571,85.014175,,,,,,,,,,,,,,,,,,,,,,,,,,,,,,,,,,,,,,,,,,,,,,,,,,,,,,,,,,,,,,,,,,,,,,,,,,,,,,,,,,,,,,,,,,,,,,,,,,,,,,,,,,
1702544340,1702544340,93,0,4326.282227,4293.846191,4329.743652,4310.769043,4307.692383,4317.94873,4310.769043,4309.487305,4297.94873,4270,4501.153809,4479.487305,4409.743652,4465.897461,6940,4,79,,,,0,4,4,4,4,4,4,4,4,4,4,4,4,4,4,100,,,,,,,,,,,,,,,,,,,,,,,,,,,,,,,,,,,,,,,,,,,,,,,,,,,,,,,,,,,,,,,,,,,,,,,,,,,,,,,,,,,,,,,,,,,,,,,,,,,,,,,,,,,,,,,,,,,,,,,,,,,,,,,,,,,,,,
1702544340,1702544340,94,0,4327.692383,4297.563965,4328.717773,4313.077148,4317.94873,4310.897461,4301.538574,4307.179688,4293.589844,4266.794922,4491.794922,4478.205078,4400.769043,4459.615234,6032,4,79,,,,0,4,4,4,4,4,4,4,4,4,4,4,4,4,4,100,,,,,,,,,,,,,,,,,,,,,,,,,,,,,,,,,,,,,,,,,,,,,,,,,,,,,,,,,,,,,,,,,,,,,,,,,,,,,,,,,,,,,,,,,,,,,,,,,,,,,,,,,,,,,,,,,,,,,,,,,,,,,,,,,,,,,,
1702544340,1702544340,95,0,4312.692383,4282.820313,4315.512695,4298.717773,4302.436035,4309.102539,4292.563965,4295.641113,4284.230957,4250.256348,4468.974121,4469.230957,4395.769043,4434.615234,6272,4,79,,,,0,4,4,4,4,4,4,4,4,4,4,4,4,4,4,100,,,,,,,,,,,,,,,,,,,,,,,,,,,,,,,,,,,,,,,,,,,,,,,,,,,,,,,,,,,,,,,,,,,,,,,,,,,,,,,,,,,,,,,,,,,,,,,,,,,,,,,,,,,,,,,,,,,,,,,,,,,,,,,,,,,,,,
1702544341,1702544341,96,0,4309.871582,4272.436035,4315.512695,4292.692383,4297.05127,4307.820313,4293.846191,4293.333496,4281.025879,4252.692383,4461.794922,4466.282227,4396.538574,4434.230957,6683,4,79,,,,0,4,4,4,4,4,4,4,4,4,4,4,4,4,4,100,,,,,,,,,,,,,,,,,24,0,0.155251,0.585449,-0.288147,0.741699,0.957148,-0.206568,0.097668,-12.187256,6.49018,84.912758,,,,,,,,,,,,,,,,,,,,,,,,,,,,,,,,,,,,,17.128809,1.614892,0.921525,0.653146,0.854836,49.08593,5.7512,1.746184,1.131656,0.857878,5.195089,0.732793,0.687128,0.57201,0.80827,10.670292,1.8195,1.335732,1.268043,1.428177,2.505841,1.316255,1.057661,1.231452,1.444168,3.895862,0.311513,0.290937,0.758021,1.235948,2.354601,0.340783,0.251475,0.508444,0.992067,1.250063,0.424024,0.839328,0.434976,0.463639,1.841959,0.372508,0.978241,0.536326,0.538155,2.933961,0.745672,0.366696,0.438781,1.018902,7.658406,1.15089,1.853461,1.578202,1.699733,8.135736,0.798313,0.981339,0.718006,1.000531,25.379,4.189734,1.43372,1.4771,1.221119,24.899544,2.121265,1.46275,1.164099,1.312533
1702544341,1702544341,97,0,4327.692383,4283.205078,4330.897461,4310,4309.871582,4309.615234,4300.641113,4305,4290.384766,4273.333496,4493.077148,4480,4403.205078,4451.922852,6940,4,79,,,,0,4,4,4,4,4,4,4,4,4,4,4,4,4,4,100,,,,,,,,,,,,,,,,,,,,,,,,,,,,,,,,,,,,,,,,,,,,,,,,,,,,,,,,,,,,,,,,,,,,,,,,,,,,,,,,,,,,,,,,,,,,,,,,,,,,,,,,,,,,,,,,,,,,,,,,,,,,,,,,,,,,,,
1702544341,1702544341,98,0,4329.230957,4283.205078,4331.025879,4314.102539,4301.794922,4312.307617,4301.282227,4305.512695,4293.846191,4267.563965,4502.692383,4482.94873,4406.922852,4446.538574,6032,4,79,,,,0,4,4,4,4,4,4,4,4,4,4,4,4,4,4,100,,,,,,,,,,,,,,,,,,,,,,,,,,,,,,,,,,,,,,,,,,,,,,,,,,,,,,,,,,,,,,,,,,,,,,,,,,,,,,,,,,,,,,,,,,,,,,,,,,,,,,,,,,,,,,,,,,,,,,,,,,,,,,,,,,,,,,
1702544341,1702544341,99,0,4321.666504,4272.179688,4322.820313,4302.436035,4295.641113,4306.282227,4294.615234,4298.205078,4288.846191,4248.205078,4482.820313,4472.563965,4405.128418,4438.077148,6272,4,79,,,,0,4,4,4,4,4,4,4,4,4,4,4,4,4,4,100,,,,,,,,,,,,,,,,,,,,,,,,,,,,,,,,,,,,,,,,,,,,,,,,,,,,,,,,,,,,,,,,,,,,,,,,,,,,,,,,,,,,,,,,,,,,,,,,,,,,,,,,,,,,,,,,,,,,,,,,,,,,,,,,,,,,,,
1702544341,1702544341,100,0,4339.102539,4286.282227,4334.358887,4313.333496,4321.282227,4307.820313,4298.205078,4305.769043,4294.358887,4264.230957,4493.974121,4484.487305,4422.692383,4470,6683,4,79,,,,0,4,4,4,4,4,4,4,4,4,4,4,4,4,4,100,,,,,,,,,,,,,,,,,25,0,0.154787,0.585327,-0.28833,0.741821,0.964473,-0.22366,0.120132,-12.06853,6.607829,85.004814,,,,,,,,,,,,,,,,,,,,,,,,,,,,,,,,,,,,,,,,,,,,,,,,,,,,,,,,,,,,,,,,,,,,,,,,,,,,,,,,,,,,,,,,,,,,,,,,,,,,,,,,,,
1702544341,1702544341,101,0,4340.128418,4288.077148,4334.358887,4316.282227,4321.282227,4307.820313,4296.922852,4305.256348,4290.128418,4271.922852,4495.769043,4488.077148,4427.307617,4484.487305,6940,4,79,,,,0,4,4,4,4,4,4,4,4,4,4,4,4,4,4,100,,,,,,,,,,,,,,,,,,,,,,,,,,,,,,,,,,,,,,,,,,,,,,,,,,,,,,,,,,,,,,,,,,,,,,,,,,,,,,,,,,,,,,,,,,,,,,,,,,,,,,,,,,,,,,,,,,,,,,,,,,,,,,,,,,,,,,
1702544341,1702544341,102,0,4311.282227,4262.563965,4313.205078,4295.897461,4289.615234,4289.102539,4279.487305,4287.563965,4272.05127,4245.512695,4462.94873,4466.538574,4396.922852,4448.461426,6032,4,79,,,,0,4,4,4,4,4,4,4,4,4,4,4,4,4,4,100,,,,,,,,,,,,,,,,,,,,,,,,,,,,,,,,,,,,,,,,,,,,,,,,,,,,,,,,,,,,,,,,,,,,,,,,,,,,,,,,,,,,,,,,,,,,,,,,,,,,,,,,,,,,,,,,,,,,,,,,,,,,,,,,,,,,,,
1702544341,1702544341,103,0,4316.922852,4265.897461,4316.410156,4302.307617,4287.05127,4285.128418,4278.846191,4293.077148,4278.333496,4247.436035,4468.205078,4471.538574,4398.589844,4443.333496,6272,4,79,,,,0,4,4,4,4,4,4,4,4,4,4,4,4,4,4,100,,,,,,,,,,,,,,,,,,,,,,,,,,,,,,,,,,,,,,,,,,,,,,,,,,,,,,,,,,,,,,,,,,,,,,,,,,,,,,,,,,,,,,,,,,,,,,,,,,,,,,,,,,,,,,,,,,,,,,,,,,,,,,,,,,,,,,
1702544341,1702544341,104,0,4335.128418,4280.769043,4327.436035,4319.102539,4297.05127,4300.641113,4291.025879,4307.563965,4291.794922,4267.692383,4483.333496,4483.461426,4419.230957,4467.436035,6683,4,79,,,,0,4,4,4,4,4,4,4,4,4,4,4,4,4,4,100,,,,,,,,,,,,,,,,,26,0,0.155478,0.585144,-0.28833,0.741821,0.955683,-0.212917,0.120132,-12.028344,6.613713,84.904335,,,,,,,,,,,,,,,,,,,,,,,,,,,,,,,,,,,,,,,,,,,,,,,,,,,,,,,,,,,,,,,,,,,,,,,,,,,,,,,,,,,,,,,,,,,,,,,,,,,,,,,,,,
1702544341,1702544341,105,0,4316.282227,4266.922852,4312.820313,4300.256348,4293.974121,4296.922852,4287.820313,4296.922852,4281.666504,4258.589844,4461.538574,4464.102539,4400,4451.538574,6940,4,79,,,,0,4,4,4,4,4,4,4,4,4,4,4,4,4,4,100,,,,,,,,,,,,,,,,,,,,,,,,,,,,,,,,,,,,,,,,,,,,,,,,,,,,,,,,,,,,,,,,,,,,,,,,,,,,,,,,,,,,,,,,,,,,,,,,,,,,,,,,,,,,,,,,,,,,,,,,,,,,,,,,,,,,,,
1702544341,1702544341,106,0,4305.384766,4254.871582,4304.230957,4286.666504,4298.974121,4285.128418,4285.512695,4293.077148,4275.128418,4248.205078,4455,4456.025879,4382.563965,4429.743652,6032,4,79,,,,0,4,4,4,4,4,4,4,4,4,4,4,4,4,4,100,,,,,,,,,,,,,,,,,,,,,,,,,,,,,,,,,,,,,,,,,,,,,,,,,,,,,,,,,,,,,,,,,,,,,,,,,,,,,,,,,,,,,,,,,,,,,,,,,,,,,,,,,,,,,,,,,,,,,,,,,,,,,,,,,,,,,,
1702544341,1702544341,107,0,4323.974121,4265.384766,4318.461426,4303.717773,4308.333496,4294.230957,4295.128418,4308.717773,4291.282227,4266.794922,4477.563965,4475.512695,4400.769043,4450.512695,6272,4,79,,,,0,4,4,4,4,4,4,4,4,4,4,4,4,4,4,100,,,,,,,,,,,,,,,,,,,,,,,,,,,,,,,,,,,,,,,,,,,,,,,,,,,,,,,,,,,,,,,,,,,,,,,,,,,,,,,,,,,,,,,,,,,,,,,,,,,,,,,,,,,,,,,,,,,,,,,,,,,,,,,,,,,,,,
1702544341,1702544341,108,0,4323.333496,4267.820313,4319.230957,4306.922852,4299.102539,4303.333496,4299.102539,4309.615234,4299.102539,4273.077148,4483.846191,4475.512695,4407.436035,4464.102539,6683,4,79,,,,0,4,4,4,4,4,4,4,4,4,4,4,4,4,4,100,,,,,,,,,,,,,,,,,27,0,0.156056,0.585205,-0.288208,0.741699,0.960078,-0.187523,0.109388,-11.808843,6.535675,84.897232,,,,,,,,,,,,,,,,,,,,,,,,,,,,,,,,,,,,,,,,,,,,,,,,,,,,,,,,,,,,,,,,,,,,,,,,,,,,,,,,,,,,,,,,,,,,,,,,,,,,,,,,,,
1702544341,1702544341,109,0,4301.153809,4252.563965,4299.743652,4291.538574,4273.974121,4299.871582,4290.256348,4293.205078,4283.846191,4253.077148,4468.589844,4451.794922,4387.820313,4444.230957,6940,4,79,,,,0,4,4,4,4,4,4,4,4,4,4,4,4,4,4,100,,,,,,,,,,,,,,,,,,,,,,,,,,,,,,,,,,,,,,,,,,,,,,,,,,,,,,,,,,,,,,,,,,,,,,,,,,,,,,,,,,,,,,,,,,,,,,,,,,,,,,,,,,,,,,,,,,,,,,,,,,,,,,,,,,,,,,
1702544341,1702544341,110,0,4300.641113,4247.436035,4294.487305,4290.128418,4278.077148,4296.538574,4284.871582,4290.769043,4278.333496,4248.974121,4465.128418,4445.256348,4380.641113,4438.077148,6032,4,79,,,,0,4,4,4,4,4,4,4,4,4,4,4,4,4,4,100,,,,,,,,,,,,,,,,,,,,,,,,,,,,,,,,,,,,,,,,,,,,,,,,,,,,,,,,,,,,,,,,,,,,,,,,,,,,,,,,,,,,,,,,,,,,,,,,,,,,,,,,,,,,,,,,,,,,,,,,,,,,,,,,,,,,,,
1702544341,1702544341,111,0,4309.230957,4248.846191,4302.820313,4297.307617,4296.410156,4287.563965,4284.102539,4291.538574,4280.897461,4248.205078,4466.538574,4450.512695,4384.230957,4447.436035,6272,4,79,,,,0,4,4,4,4,4,4,4,4,4,4,4,4,4,4,100,,,,,,,,,,,,,,,,,,,,,,,,,,,,,,,,,,,,,,,,,,,,,,,,,,,,,,,,,,,,,,,,,,,,,,,,,,,,,,,,,,,,,,,,,,,,,,,,,,,,,,,,,,,,,,,,,,,,,,,,,,,,,,,,,,,,,,
1702544341,1702544341,112,0,4298.333496,4233.077148,4296.410156,4291.282227,4280.256348,4270.128418,4274.871582,4279.102539,4267.820313,4231.922852,4455.641113,4442.563965,4375.897461,4440.769043,6683,4,79,,,,0,4,4,4,4,4,4,4,4,4,4,4,4,4,4,100,,,,,,,,,,,,,,,,,28,0,0.156624,0.585388,-0.287842,0.741577,0.974728,-0.19729,0.109877,-11.694626,6.548774,85.024178,,,,,,,,,,,,,,,,,,,,,,,,,,,,,,,,,,,,,22.491928,1.937854,1.126506,0.712642,0.872766,65.432205,6.672016,1.938741,1.217489,0.989802,6.385352,0.690469,0.750767,0.574171,0.771366,13.46269,1.935001,1.478022,1.200537,1.312906,2.219536,0.989385,0.845232,1.116787,1.181803,3.713534,0.271135,0.174064,0.730754,1.160048,2.682636,0.397086,0.20642,0.470737,0.954798,1.535773,0.503357,1.007281,0.402064,0.480577,2.100048,0.393337,1.075089,0.497554,0.583878,2.713983,0.671708,0.530457,0.434884,0.963351,10.025744,1.258839,2.265288,1.654404,1.748583,10.593228,0.802947,1.193944,0.797476,1.006614,32.327637,5.096169,1.944146,1.50666,1.327068,33.206608,2.494931,1.829383,1.175252,1.501762
1702544341,1702544341,113,0,4294.102539,4217.179688,4292.179688,4285.769043,4263.846191,4267.94873,4270.256348,4282.179688,4266.922852,4239.615234,4449.102539,4441.538574,4370.897461,4437.307617,6940,4,79,,,,0,4,4,4,4,4,4,4,4,4,4,4,4,4,4,100,,,,,,,,,,,,,,,,,,,,,,,,,,,,,,,,,,,,,,,,,,,,,,,,,,,,,,,,,,,,,,,,,,,,,,,,,,,,,,,,,,,,,,,,,,,,,,,,,,,,,,,,,,,,,,,,,,,,,,,,,,,,,,,,,,,,,,
1702544341,1702544341,114,0,4308.077148,4226.282227,4305,4290.384766,4282.307617,4280.641113,4280.641113,4298.461426,4284.615234,4262.307617,4467.307617,4456.538574,4379.615234,4450.897461,6032,4,79,,,,0,4,4,4,4,4,4,4,4,4,4,4,4,4,4,100,,,,,,,,,,,,,,,,,,,,,,,,,,,,,,,,,,,,,,,,,,,,,,,,,,,,,,,,,,,,,,,,,,,,,,,,,,,,,,,,,,,,,,,,,,,,,,,,,,,,,,,,,,,,,,,,,,,,,,,,,,,,,,,,,,,,,,
1702544341,1702544341,115,0,4314.358887,4237.820313,4310,4300.128418,4297.820313,4289.487305,4289.615234,4302.692383,4289.102539,4259.871582,4482.179688,4467.179688,4384.871582,4456.794922,6272,4,79,,,,0,4,4,4,4,4,4,4,4,4,4,4,4,4,4,100,,,,,,,,,,,,,,,,,,,,,,,,,,,,,,,,,,,,,,,,,,,,,,,,,,,,,,,,,,,,,,,,,,,,,,,,,,,,,,,,,,,,,,,,,,,,,,,,,,,,,,,,,,,,,,,,,,,,,,,,,,,,,,,,,,,,,,
1702544341,1702544341,116,0,4300.897461,4218.333496,4297.179688,4296.025879,4286.666504,4286.025879,4279.230957,4293.974121,4276.282227,4244.615234,4459.743652,4455.512695,4369.871582,4443.589844,6683,4,79,,,,0,4,4,4,4,4,4,4,4,4,4,4,4,4,4,100,,,,,,,,,,,,,,,,,29,0,0.157184,0.585388,-0.287537,0.741577,0.958613,-0.19436,0.110853,-11.725163,6.52723,84.888428,,,,,,,,,,,,,,,,,,,,,,,,,,,,,,,,,,,,,,,,,,,,,,,,,,,,,,,,,,,,,,,,,,,,,,,,,,,,,,,,,,,,,,,,,,,,,,,,,,,,,,,,,,
1702544341,1702544341,117,0,4288.077148,4195.128418,4287.94873,4279.358887,4270.897461,4278.333496,4268.717773,4282.563965,4265,4233.589844,4442.05127,4436.794922,4351.666504,4427.436035,6940,4,79,,,,0,4,4,4,4,4,4,4,4,4,4,4,4,4,4,100,,,,,,,,,,,,,,,,,,,,,,,,,,,,,,,,,,,,,,,,,,,,,,,,,,,,,,,,,,,,,,,,,,,,,,,,,,,,,,,,,,,,,,,,,,,,,,,,,,,,,,,,,,,,,,,,,,,,,,,,,,,,,,,,,,,,,,
1702544341,1702544341,118,0,4292.692383,4198.205078,4291.025879,4288.717773,4260,4279.487305,4275.128418,4278.205078,4261.538574,4225.641113,4455.641113,4437.05127,4355.128418,4428.077148,6032,4,79,,,,0,4,4,4,4,4,4,4,4,4,4,4,4,4,4,100,,,,,,,,,,,,,,,,,,,,,,,,,,,,,,,,,,,,,,,,,,,,,,,,,,,,,,,,,,,,,,,,,,,,,,,,,,,,,,,,,,,,,,,,,,,,,,,,,,,,,,,,,,,,,,,,,,,,,,,,,,,,,,,,,,,,,,
1702544341,1702544341,119,0,4302.820313,4214.358887,4293.846191,4311.666504,4265.128418,4281.025879,4282.05127,4282.307617,4264.487305,4231.025879,4463.077148,4445.897461,4367.563965,4440.897461,6272,4,79,,,,0,4,4,4,4,4,4,4,4,4,4,4,4,4,4,100,,,,,,,,,,,,,,,,,,,,,,,,,,,,,,,,,,,,,,,,,,,,,,,,,,,,,,,,,,,,,,,,,,,,,,,,,,,,,,,,,,,,,,,,,,,,,,,,,,,,,,,,,,,,,,,,,,,,,,,,,,,,,,,,,,,,,,
1702544341,1702544341,120,0,4305.641113,4223.974121,4297.436035,4314.615234,4285,4278.205078,4280.641113,4286.410156,4267.179688,4243.333496,4458.846191,4444.743652,4370.641113,4446.282227,6683,4,79,,,,0,4,4,4,4,4,4,4,4,4,4,4,4,4,4,100,,,,,,,,,,,,,,,,,30,0,0.157411,0.585327,-0.287537,0.741577,0.968868,-0.201196,0.121597,-11.669313,6.50784,84.799583,,,,,,,,,,,,,,,,,,,,,,,,,,,,,,,,,,,,,,,,,,,,,,,,,,,,,,,,,,,,,,,,,,,,,,,,,,,,,,,,,,,,,,,,,,,,,,,,,,,,,,,,,,
1702544341,1702544341,121,0,4301.282227,4224.102539,4296.410156,4307.563965,4278.589844,4273.589844,4273.717773,4277.05127,4258.974121,4232.563965,4448.974121,4437.692383,4364.743652,4436.922852,6940,4,79,,,,0,4,4,4,4,4,4,4,4,4,4,4,4,4,4,100,,,,,,,,,,,,,,,,,,,,,,,,,,,,,,,,,,,,,,,,,,,,,,,,,,,,,,,,,,,,,,,,,,,,,,,,,,,,,,,,,,,,,,,,,,,,,,,,,,,,,,,,,,,,,,,,,,,,,,,,,,,,,,,,,,,,,,
1702544341,1702544341,122,0,4308.974121,4236.794922,4295.128418,4312.436035,4261.410156,4280.384766,4275.769043,4274.358887,4259.615234,4218.974121,4445.769043,4440.256348,4375.384766,4440.769043,6032,4,79,,,,0,4,4,4,4,4,4,4,4,4,4,4,4,4,4,100,,,,,,,,,,,,,,,,,,,,,,,,,,,,,,,,,,,,,,,,,,,,,,,,,,,,,,,,,,,,,,,,,,,,,,,,,,,,,,,,,,,,,,,,,,,,,,,,,,,,,,,,,,,,,,,,,,,,,,,,,,,,,,,,,,,,,,
1702544341,1702544341,123,0,4320.128418,4259.487305,4300.512695,4319.743652,4273.461426,4282.94873,4275.897461,4278.846191,4265.256348,4223.205078,4460.384766,4445.769043,4396.794922,4459.871582,6272,4,79,,,,0,4,4,4,4,4,4,4,4,4,4,4,4,4,4,100,,,,,,,,,,,,,,,,,,,,,,,,,,,,,,,,,,,,,,,,,,,,,,,,,,,,,,,,,,,,,,,,,,,,,,,,,,,,,,,,,,,,,,,,,,,,,,,,,,,,,,,,,,,,,,,,,,,,,,,,,,,,,,,,,,,,,,
1702544341,1702544341,124,0,4325.641113,4280.384766,4301.922852,4323.846191,4281.025879,4264.487305,4261.794922,4267.307617,4249.487305,4218.333496,4470,4444.230957,4409.615234,4472.692383,6683,4,79,,,,0,4,4,4,4,4,4,4,4,4,4,4,4,4,4,100,,,,,,,,,,,,,,,,,31,0,0.157479,0.585266,-0.287781,0.741516,0.95959,-0.196313,0.12062,-11.702382,6.607056,84.719627,,,,,,,,,,,,,,,,,,,,,,,,,,,,,,,,,,,,,,,,,,,,,,,,,,,,,,,,,,,,,,,,,,,,,,,,,,,,,,,,,,,,,,,,,,,,,,,,,,,,,,,,,,
1702544341,1702544341,125,0,4356.666504,4326.666504,4315.512695,4349.102539,4268.589844,4270.128418,4265.512695,4265.512695,4246.666504,4220.897461,4484.871582,4461.282227,4451.666504,4510.897461,6940,4,79,,,,0,4,4,4,4,4,4,4,4,4,4,4,4,4,4,100,,,,,,,,,,,,,,,,,,,,,,,,,,,,,,,,,,,,,,,,,,,,,,,,,,,,,,,,,,,,,,,,,,,,,,,,,,,,,,,,,,,,,,,,,,,,,,,,,,,,,,,,,,,,,,,,,,,,,,,,,,,,,,,,,,,,,,
1702544341,1702544341,126,0,4402.820313,4374.615234,4342.179688,4377.692383,4281.922852,4297.05127,4286.794922,4286.794922,4273.461426,4248.974121,4520.128418,4493.974121,4516.153809,4566.153809,6032,4,79,,,,0,4,4,4,4,4,4,4,4,4,4,4,4,4,4,100,,,,,,,,,,,,,,,,,,,,,,,,,,,,,,,,,,,,,,,,,,,,,,,,,,,,,,,,,,,,,,,,,,,,,,,,,,,,,,,,,,,,,,,,,,,,,,,,,,,,,,,,,,,,,,,,,,,,,,,,,,,,,,,,,,,,,,
1702544341,1702544341,127,0,4415.641113,4385.769043,4348.461426,4383.461426,4301.153809,4292.820313,4288.846191,4292.94873,4283.461426,4259.615234,4535.384766,4501.410156,4540.641113,4588.846191,79,4,79,,,,0,4,4,4,4,4,4,4,4,4,4,4,4,4,4,100,,,,,,,,,,,,,,,,,,,,,,,,,,,,,,,,,,,,,,,,,,,,,,,,,,,,,,,,,,,,,,,,,,,,,,,,,,,,,,,,,,,,,,,,,,,,,,,,,,,,,,,,,,,,,,,,,,,,,,,,,,,,,,,,,,,,,,
1702544341,1702544341,0,0,4415.384766,4408.461426,4337.820313,4388.846191,4282.94873,4265.769043,4263.589844,4271.538574,4258.846191,4235.769043,4523.846191,4489.615234,4543.333496,4595.384766,5404,4,79,,,,0,4,4,4,4,4,4,4,4,4,4,4,4,4,4,100,,,,,,,,,,,,,,,,,0,0,0.157709,0.585144,-0.287903,0.741516,0.963497,-0.21194,0.1089,-11.64881,6.696351,84.814331,,,,,,,,,,,,,,,,,,,,,,,,,,,,,,,,,,,,,25.896557,2.07978,1.340846,0.769085,0.906418,77.64241,7.547403,2.123682,1.279476,1.107494,7.071059,0.683768,0.858985,0.620431,0.77828,15.275981,1.979615,1.675228,1.173395,1.263088,2.121139,0.798852,0.75744,1.123469,0.990899,3.471501,0.280062,0.123501,0.722231,1.124811,2.939465,0.465696,0.189099,0.471914,0.949059,1.892939,0.568922,1.14784,0.411775,0.521471,2.422804,0.428756,1.178087,0.529033,0.65457,3.042674,0.625823,0.713383,0.507965,0.944425,11.813471,1.280164,2.558998,1.640417,1.804202,12.422105,0.853996,1.384742,0.934063,1.051342,36.408466,5.520655,2.376296,1.515191,1.435449,38.462685,2.645746,2.169797,1.193888,1.651812
1702544341,1702544341,1,0,4448.589844,4480.384766,4351.153809,4417.436035,4277.05127,4267.692383,4257.692383,4268.717773,4249.358887,4230.641113,4529.743652,4501.282227,4575,4628.333496,5546,4,79,,,,0,4,4,4,4,4,4,4,4,4,4,4,4,4,4,100,,,,,,,,,,,,,,,,,,,,,,,,,,,,,,,,,,,,,,,,,,,,,,,,,,,,,,,,,,,,,,,,,,,,,,,,,,,,,,,,,,,,,,,,,,,,,,,,,,,,,,,,,,,,,,,,,,,,,,,,,,,,,,,,,,,,,,
1702544341,1702544341,2,0,4474.487305,4527.94873,4368.974121,4440.769043,4303.333496,4286.922852,4273.461426,4281.410156,4261.794922,4244.358887,4543.589844,4519.487305,4587.307617,4656.153809,5472,4,79,,,,0,4,4,4,4,4,4,4,4,4,4,4,4,4,4,100,,,,,,,,,,,,,,,,,,,,,,,,,,,,,,,,,,,,,,,,,,,,,,,,,,,,,,,,,,,,,,,,,,,,,,,,,,,,,,,,,,,,,,,,,,,,,,,,,,,,,,,,,,,,,,,,,,,,,,,,,,,,,,,,,,,,,,
1702544341,1702544341,3,0,4461.410156,4536.410156,4359.230957,4446.153809,4307.05127,4274.487305,4269.743652,4271.153809,4255.641113,4228.589844,4535.256348,4510.256348,4553.077148,4650,5422,4,79,,,,0,4,4,4,4,4,4,4,4,4,4,4,4,4,4,100,,,,,,,,,,,,,,,,,,,,,,,,,,,,,,,,,,,,,,,,,,,,,,,,,,,,,,,,,,,,,,,,,,,,,,,,,,,,,,,,,,,,,,,,,,,,,,,,,,,,,,,,,,,,,,,,,,,,,,,,,,,,,,,,,,,,,,
1702544341,1702544341,4,0,4460.897461,4560.384766,4355.384766,4466.282227,4300.897461,4261.666504,4259.487305,4261.922852,4244.615234,4216.666504,4530.769043,4502.94873,4535.384766,4649.358887,5382,4,79,,,,0,4,4,4,4,4,4,4,4,4,4,4,4,4,4,100,,,,,,,,,,,,,,,,,1,0,0.157368,0.584961,-0.288147,0.741638,0.973752,-0.198755,0.11476,-11.667263,6.676715,84.882896,,,,,,,,,,,,,,,,,,,,,,,,,,,,,,,,,,,,,,,,,,,,,,,,,,,,,,,,,,,,,,,,,,,,,,,,,,,,,,,,,,,,,,,,,,,,,,,,,,,,,,,,,,
1702544341,1702544341,5,0,4464.871582,4574.743652,4359.743652,4469.358887,4296.666504,4273.333496,4262.94873,4267.692383,4243.846191,4217.436035,4512.436035,4504.230957,4513.846191,4641.666504,5303,4,79,,,,0,4,4,4,4,4,4,4,4,4,4,4,4,4,4,100,,,,,,,,,,,,,,,,,,,,,,,,,,,,,,,,,,,,,,,,,,,,,,,,,,,,,,,,,,,,,,,,,,,,,,,,,,,,,,,,,,,,,,,,,,,,,,,,,,,,,,,,,,,,,,,,,,,,,,,,,,,,,,,,,,,,,,
1702544341,1702544341,6,0,4432.820313,4554.230957,4345.769043,4442.436035,4284.615234,4273.333496,4263.846191,4260.256348,4231.794922,4190,4467.692383,4483.717773,4440.384766,4601.153809,5263,4,79,,,,0,4,4,4,4,4,4,4,4,4,4,4,4,4,4,100,,,,,,,,,,,,,,,,,,,,,,,,,,,,,,,,,,,,,,,,,,,,,,,,,,,,,,,,,,,,,,,,,,,,,,,,,,,,,,,,,,,,,,,,,,,,,,,,,,,,,,,,,,,,,,,,,,,,,,,,,,,,,,,,,,,,,,
1702544341,1702544341,7,0,4416.282227,4545,4344.743652,4456.538574,4307.05127,4274.743652,4269.358887,4260.512695,4230.897461,4175.512695,4453.846191,4479.102539,4399.615234,4579.743652,5080,4,79,,,,0,4,4,4,4,4,4,4,4,4,4,4,4,4,4,100,,,,,,,,,,,,,,,,,,,,,,,,,,,,,,,,,,,,,,,,,,,,,,,,,,,,,,,,,,,,,,,,,,,,,,,,,,,,,,,,,,,,,,,,,,,,,,,,,,,,,,,,,,,,,,,,,,,,,,,,,,,,,,,,,,,,,,
1702544341,1702544341,8,0,4428.333496,4543.205078,4352.179688,4477.820313,4336.153809,4286.282227,4278.717773,4277.820313,4252.436035,4205.512695,4477.436035,4493.333496,4426.410156,4585.256348,5365,4,79,,,,0,4,4,4,4,4,4,4,4,4,4,4,4,4,4,100,,,,,,,,,,,,,,,,,2,0,0.156795,0.5849,-0.288269,0.74176,0.982542,-0.207545,0.1089,-11.767203,6.542377,84.861275,,,,,,,,,,,,,,,,,,,,,,,,,,,,,,,,,,,,,,,,,,,,,,,,,,,,,,,,,,,,,,,,,,,,,,,,,,,,,,,,,,,,,,,,,,,,,,,,,,,,,,,,,,
1702544341,1702544341,9,0,4412.307617,4508.846191,4330.641113,4440.897461,4306.922852,4283.846191,4269.358887,4270.384766,4246.538574,4213.077148,4472.94873,4475.384766,4421.410156,4564.358887,5364,4,79,,,,0,4,4,4,4,4,4,4,4,4,4,4,4,4,4,100,,,,,,,,,,,,,,,,,,,,,,,,,,,,,,,,,,,,,,,,,,,,,,,,,,,,,,,,,,,,,,,,,,,,,,,,,,,,,,,,,,,,,,,,,,,,,,,,,,,,,,,,,,,,,,,,,,,,,,,,,,,,,,,,,,,,,,
1702544341,1702544341,10,0,4375.512695,4460.769043,4310.384766,4401.666504,4267.820313,4270.769043,4257.436035,4244.102539,4218.333496,4178.461426,4437.563965,4442.307617,4372.307617,4521.025879,6060,4,79,,,,0,4,4,4,4,4,4,4,4,4,4,4,4,4,4,100,,,,,,,,,,,,,,,,,,,,,,,,,,,,,,,,,,,,,,,,,,,,,,,,,,,,,,,,,,,,,,,,,,,,,,,,,,,,,,,,,,,,,,,,,,,,,,,,,,,,,,,,,,,,,,,,,,,,,,,,,,,,,,,,,,,,,,
1702544341,1702544341,11,0,4363.846191,4439.102539,4317.307617,4406.282227,4285.769043,4267.179688,4263.589844,4245.256348,4222.820313,4173.974121,4437.563965,4442.820313,4356.282227,4504.871582,6282,4,79,,,,0,4,4,4,4,4,4,4,4,4,4,4,4,4,4,100,,,,,,,,,,,,,,,,,,,,,,,,,,,,,,,,,,,,,,,,,,,,,,,,,,,,,,,,,,,,,,,,,,,,,,,,,,,,,,,,,,,,,,,,,,,,,,,,,,,,,,,,,,,,,,,,,,,,,,,,,,,,,,,,,,,,,,
1702544341,1702544341,12,0,4353.717773,4424.230957,4315.384766,4402.307617,4308.333496,4268.461426,4263.205078,4257.692383,4235.256348,4201.153809,4431.410156,4450.641113,4341.794922,4495,6716,4,79,,,,0,4,4,4,4,4,4,4,4,4,4,4,4,4,4,100,,,,,,,,,,,,,,,,,3,0,0.156291,0.585327,-0.288147,0.741577,0.963497,-0.202173,0.1089,-11.640483,6.454806,84.808479,,,,,,,,,,,,,,,,,,,,,,,,,,,,,,,,,,,,,,,,,,,,,,,,,,,,,,,,,,,,,,,,,,,,,,,,,,,,,,,,,,,,,,,,,,,,,,,,,,,,,,,,,,
1702544341,1702544341,13,0,4329.615234,4395.384766,4307.307617,4383.974121,4297.563965,4276.794922,4260.897461,4261.794922,4237.307617,4204.487305,4400.128418,4444.487305,4300.128418,4461.538574,6968,4,79,,,,0,4,4,4,4,4,4,4,4,4,4,4,4,4,4,100,,,,,,,,,,,,,,,,,,,,,,,,,,,,,,,,,,,,,,,,,,,,,,,,,,,,,,,,,,,,,,,,,,,,,,,,,,,,,,,,,,,,,,,,,,,,,,,,,,,,,,,,,,,,,,,,,,,,,,,,,,,,,,,,,,,,,,
1702544341,1702544341,14,0,4322.563965,4370,4311.153809,4387.692383,4294.358887,4285.384766,4266.282227,4264.102539,4245.769043,4190.512695,4411.794922,4445,4290.897461,4441.282227,6060,4,79,,,,0,4,4,4,4,4,4,4,4,4,4,4,4,4,4,100,,,,,,,,,,,,,,,,,,,,,,,,,,,,,,,,,,,,,,,,,,,,,,,,,,,,,,,,,,,,,,,,,,,,,,,,,,,,,,,,,,,,,,,,,,,,,,,,,,,,,,,,,,,,,,,,,,,,,,,,,,,,,,,,,,,,,,
1702544341,1702544341,15,0,4319.102539,4351.922852,4304.487305,4383.205078,4305.384766,4274.871582,4257.563965,4256.282227,4242.05127,4181.282227,4435.512695,4438.846191,4299.743652,4442.05127,6282,4,79,,,,0,4,4,4,4,4,4,4,4,4,4,4,4,4,4,100,,,,,,,,,,,,,,,,,,,,,,,,,,,,,,,,,,,,,,,,,,,,,,,,,,,,,,,,,,,,,,,,,,,,,,,,,,,,,,,,,,,,,,,,,,,,,,,,,,,,,,,,,,,,,,,,,,,,,,,,,,,,,,,,,,,,,,
1702544341,1702544341,16,0,4300,4326.538574,4289.871582,4362.307617,4298.333496,4267.563965,4247.94873,4247.94873,4227.94873,4181.666504,4415.769043,4423.333496,4278.589844,4429.615234,0,4,79,,,,0,4,4,4,4,4,4,4,4,4,4,4,4,4,4,100,1,41.666668,3,1,3,3,3,3,4,4,4,3,3,3,3,1,4,0,0.156117,0.585815,-0.28772,0.741394,0.966915,-0.218288,0.107435,-11.659768,6.492659,84.877632,,,,,,,,,,,,,,,,,,,,,,,,,,,,,,,,,,,,,26.433388,1.989263,1.462352,0.801753,0.940504,82.722565,7.860721,2.189727,1.263831,1.172775,7.172771,0.690085,0.945866,0.678842,0.795805,15.897195,1.884765,1.790205,1.153617,1.243604,2.118814,0.690441,0.755378,1.178867,0.897726,3.32651,0.318393,0.13257,0.714106,1.121839,3.114569,0.526178,0.195991,0.499713,0.947504,2.23941,0.595855,1.206946,0.456179,0.568355,2.761347,0.463565,1.243033,0.608416,0.726301,3.672345,0.606535,0.86631,0.650956,0.977432,12.731234,1.213293,2.630908,1.56309,1.858783,13.343317,0.913466,1.474535,1.086717,1.097243,36.617031,5.34894,2.580121,1.480532,1.520699,39.154919,2.527071,2.333011,1.219426,1.733143
1702544341,1702544341,17,0,4281.025879,4296.282227,4282.563965,4350.128418,4275.384766,4272.436035,4253.846191,4247.436035,4226.538574,4190.897461,4390.769043,4415.384766,4252.05127,4397.436035,0,4,79,,,,0,4,4,4,4,4,4,4,4,4,4,4,4,4,4,100,,,,,,,,,,,,,,,,,,,,,,,,,,,,,,,,,,,,,,,,,,,,,,,,,,,,,,,,,,,,,,,,,,,,,,,,,,,,,,,,,,,,,,,,,,,,,,,,,,,,,,,,,,,,,,,,,,,,,,,,,,,,,,,,,,,,,,
1702544341,1702544341,18,0,4277.692383,4287.05127,4286.153809,4351.794922,4288.333496,4283.333496,4262.820313,4248.461426,4228.333496,4193.717773,4401.025879,4417.692383,4245.256348,4384.102539,0,4,79,,,,0,4,4,4,4,4,4,4,4,4,4,4,4,4,4,100,,,,,,,,,,,,,,,,,,,,,,,,,,,,,,,,,,,,,,,,,,,,,,,,,,,,,,,,,,,,,,,,,,,,,,,,,,,,,,,,,,,,,,,,,,,,,,,,,,,,,,,,,,,,,,,,,,,,,,,,,,,,,,,,,,,,,,
1702544341,1702544341,19,0,4279.871582,4292.94873,4294.743652,4352.820313,4310.512695,4289.230957,4266.282227,4254.743652,4229.102539,4185.128418,4399.102539,4426.794922,4239.871582,4389.743652,0,4,79,,,,0,4,4,4,4,4,4,4,4,4,4,4,4,4,4,100,,,,,,,,,,,,,,,,,,,,,,,,,,,,,,,,,,,,,,,,,,,,,,,,,,,,,,,,,,,,,,,,,,,,,,,,,,,,,,,,,,,,,,,,,,,,,,,,,,,,,,,,,,,,,,,,,,,,,,,,,,,,,,,,,,,,,,
1702544341,1702544341,20,0,4272.94873,4281.282227,4287.692383,4350,4286.282227,4276.794922,4260.512695,4259.102539,4235.769043,4177.307617,4377.692383,4424.358887,4230.769043,4374.230957,0,4,79,,,,0,4,4,4,4,4,4,4,4,4,4,4,4,4,4,100,,,,,,,,,,,,,,,,,5,0,0.156161,0.586121,-0.287231,0.741333,0.953241,-0.208522,0.113783,-11.693791,6.593393,84.839867,,,,,,,,,,,,,,,,,,,,,,,,,,,,,,,,,,,,,,,,,,,,,,,,,,,,,,,,,,,,,,,,,,,,,,,,,,,,,,,,,,,,,,,,,,,,,,,,,,,,,,,,,,
1702544341,1702544341,21,0,4273.589844,4281.922852,4283.077148,4361.666504,4269.871582,4281.153809,4260.897461,4261.153809,4244.102539,4191.666504,4394.487305,4420.512695,4243.205078,4370,0,4,79,,,,0,4,4,4,4,4,4,4,4,4,4,4,4,4,4,100,,,,,,,,,,,,,,,,,,,,,,,,,,,,,,,,,,,,,,,,,,,,,,,,,,,,,,,,,,,,,,,,,,,,,,,,,,,,,,,,,,,,,,,,,,,,,,,,,,,,,,,,,,,,,,,,,,,,,,,,,,,,,,,,,,,,,,
1702544341,1702544341,22,0,4282.436035,4309.230957,4299.871582,4370.384766,4301.922852,4299.358887,4275.641113,4265.256348,4254.230957,4215.384766,4431.922852,4437.05127,4263.974121,4393.333496,0,4,79,,,,0,4,4,4,4,4,4,4,4,4,4,4,4,4,4,100,,,,,,,,,,,,,,,,,,,,,,,,,,,,,,,,,,,,,,,,,,,,,,,,,,,,,,,,,,,,,,,,,,,,,,,,,,,,,,,,,,,,,,,,,,,,,,,,,,,,,,,,,,,,,,,,,,,,,,,,,,,,,,,,,,,,,,
1702544341,1702544341,23,0,4280.897461,4312.563965,4305.897461,4356.538574,4315.512695,4293.589844,4279.358887,4265,4257.563965,4216.410156,4429.743652,4446.025879,4262.05127,4391.153809,0,4,79,,,,0,4,4,4,4,4,4,4,4,4,4,4,4,4,4,100,,,,,,,,,,,,,,,,,,,,,,,,,,,,,,,,,,,,,,,,,,,,,,,,,,,,,,,,,,,,,,,,,,,,,,,,,,,,,,,,,,,,,,,,,,,,,,,,,,,,,,,,,,,,,,,,,,,,,,,,,,,,,,,,,,,,,,
1702544341,1702544341,24,0,4278.589844,4300.769043,4301.025879,4351.410156,4293.333496,4291.025879,4276.025879,4271.410156,4259.871582,4211.922852,4419.743652,4440.384766,4260.769043,4381.410156,0,4,79,,,,0,4,4,4,4,4,4,4,4,4,4,4,4,4,4,100,,,,,,,,,,,,,,,,,6,0,0.156371,0.58606,-0.286926,0.741455,0.96252,-0.199731,0.11476,-11.574412,6.500721,84.739212,,,,,,,,,,,,,,,,,,,,,,,,,,,,,,,,,,,,,,,,,,,,,,,,,,,,,,,,,,,,,,,,,,,,,,,,,,,,,,,,,,,,,,,,,,,,,,,,,,,,,,,,,,
1702544341,1702544341,25,0,4283.333496,4310.512695,4312.820313,4366.538574,4302.436035,4312.05127,4289.487305,4292.563965,4274.358887,4226.025879,4438.589844,4455.128418,4268.846191,4381.025879,0,4,79,,,,0,4,4,4,4,4,4,4,4,4,4,4,4,4,4,100,,,,,,,,,,,,,,,,,,,,,,,,,,,,,,,,,,,,,,,,,,,,,,,,,,,,,,,,,,,,,,,,,,,,,,,,,,,,,,,,,,,,,,,,,,,,,,,,,,,,,,,,,,,,,,,,,,,,,,,,,,,,,,,,,,,,,,
1702544341,1702544341,26,0,4271.410156,4303.717773,4311.153809,4353.589844,4311.794922,4311.538574,4292.563965,4292.563965,4274.615234,4230.128418,4423.205078,4461.794922,4251.922852,4349.487305,0,4,79,,,,0,4,4,4,4,4,4,4,4,4,4,4,4,4,4,100,,,,,,,,,,,,,,,,,,,,,,,,,,,,,,,,,,,,,,,,,,,,,,,,,,,,,,,,,,,,,,,,,,,,,,,,,,,,,,,,,,,,,,,,,,,,,,,,,,,,,,,,,,,,,,,,,,,,,,,,,,,,,,,,,,,,,,
1702544341,1702544341,27,0,4254.487305,4279.230957,4287.94873,4323.974121,4295.512695,4300.384766,4283.077148,4273.589844,4262.692383,4215.897461,4395.512695,4435.769043,4238.846191,4337.307617,0,4,79,,,,0,4,4,4,4,4,4,4,4,4,4,4,4,4,4,100,,,,,,,,,,,,,,,,,,,,,,,,,,,,,,,,,,,,,,,,,,,,,,,,,,,,,,,,,,,,,,,,,,,,,,,,,,,,,,,,,,,,,,,,,,,,,,,,,,,,,,,,,,,,,,,,,,,,,,,,,,,,,,,,,,,,,,
1702544341,1702544341,28,0,4266.666504,4286.025879,4290.384766,4337.563965,4297.179688,4318.717773,4299.102539,4284.358887,4270.897461,4224.230957,4430.128418,4435.769043,4268.077148,4383.077148,0,4,79,,,,0,4,4,4,4,4,4,4,4,4,4,4,4,4,4,100,,,,,,,,,,,,,,,,,7,0,0.156305,0.58606,-0.286804,0.741516,0.95666,-0.209498,0.121109,-11.600304,6.467315,84.78196,,,,,,,,,,,,,,,,,,,,,,,,,,,,,,,,,,,,,,,,,,,,,,,,,,,,,,,,,,,,,,,,,,,,,,,,,,,,,,,,,,,,,,,,,,,,,,,,,,,,,,,,,,
1702544341,1702544341,29,0,4281.666504,4298.077148,4308.205078,4362.179688,4302.94873,4336.025879,4315.128418,4305.384766,4286.410156,4240.769043,4464.871582,4460.769043,4286.410156,4395.384766,0,4,79,,,,0,4,4,4,4,4,4,4,4,4,4,4,4,4,4,100,,,,,,,,,,,,,,,,,,,,,,,,,,,,,,,,,,,,,,,,,,,,,,,,,,,,,,,,,,,,,,,,,,,,,,,,,,,,,,,,,,,,,,,,,,,,,,,,,,,,,,,,,,,,,,,,,,,,,,,,,,,,,,,,,,,,,,
1702544341,1702544341,30,0,4272.436035,4281.410156,4302.820313,4353.077148,4297.436035,4316.410156,4296.410156,4299.615234,4282.436035,4234.743652,4443.589844,4458.461426,4268.589844,4361.410156,0,4,79,,,,0,4,4,4,4,4,4,4,4,4,4,4,4,4,4,100,,,,,,,,,,,,,,,,,,,,,,,,,,,,,,,,,,,,,,,,,,,,,,,,,,,,,,,,,,,,,,,,,,,,,,,,,,,,,,,,,,,,,,,,,,,,,,,,,,,,,,,,,,,,,,,,,,,,,,,,,,,,,,,,,,,,,,
1702544341,1702544341,31,0,4264.358887,4266.538574,4293.974121,4338.717773,4299.743652,4293.077148,4278.333496,4291.153809,4275.897461,4224.230957,4425.769043,4445.384766,4261.922852,4357.820313,0,4,79,,,,0,4,4,4,4,4,4,4,4,4,4,4,4,4,4,100,,,,,,,,,,,,,,,,,,,,,,,,,,,,,,,,,,,,,,,,,,,,,,,,,,,,,,,,,,,,,,,,,,,,,,,,,,,,,,,,,,,,,,,,,,,,,,,,,,,,,,,,,,,,,,,,,,,,,,,,,,,,,,,,,,,,,,
1702544341,1702544341,32,0,4262.563965,4263.846191,4296.922852,4333.717773,4301.666504,4297.820313,4278.589844,4291.538574,4275.641113,4221.410156,4430.897461,4431.666504,4260,4355.769043,0,4,79,,,,0,4,4,4,4,4,4,4,4,4,4,4,4,4,4,100,,,,,,,,,,,,,,,,,8,0,0.156762,0.586182,-0.286621,0.741394,0.96252,-0.217312,0.11476,-11.60694,6.453917,84.837097,,,,,,,,,,,,,,,,,,,,,,,,,,,,,,,,,,,,,24.979078,1.73623,1.421632,0.808537,0.962898,81.891518,7.372495,2.091053,1.165514,1.17123,6.784791,0.68146,0.953674,0.715605,0.794993,15.616325,1.649591,1.721675,1.113529,1.210818,2.125818,0.601737,0.773459,1.214063,0.89058,3.285842,0.36358,0.18727,0.692897,1.132571,3.150702,0.557832,0.219339,0.538694,0.928054,2.437982,0.577066,1.154902,0.517461,0.60303,2.985154,0.482945,1.225836,0.70222,0.77784,4.208855,0.615907,0.960874,0.84157,1.056088,12.868678,1.119342,2.462709,1.490533,1.894419,13.257784,0.951007,1.418511,1.210251,1.11465,34.735481,4.835796,2.495444,1.404785,1.565788,36.825527,2.271084,2.240515,1.261138,1.740297
1702544341,1702544341,33,0,4263.077148,4258.717773,4298.461426,4327.179688,4296.794922,4309.743652,4280.512695,4291.282227,4274.615234,4224.615234,4430.897461,4413.333496,4253.077148,4341.666504,0,4,79,,,,0,4,4,4,4,4,4,4,4,4,4,4,4,4,4,100,,,,,,,,,,,,,,,,,,,,,,,,,,,,,,,,,,,,,,,,,,,,,,,,,,,,,,,,,,,,,,,,,,,,,,,,,,,,,,,,,,,,,,,,,,,,,,,,,,,,,,,,,,,,,,,,,,,,,,,,,,,,,,,,,,,,,,
1702544341,1702544341,34,0,4274.487305,4261.922852,4303.205078,4333.974121,4302.179688,4311.538574,4288.077148,4294.615234,4279.102539,4231.282227,4441.153809,4408.333496,4262.94873,4360.128418,0,4,79,,,,0,4,4,4,4,4,4,4,4,4,4,4,4,4,4,100,,,,,,,,,,,,,,,,,,,,,,,,,,,,,,,,,,,,,,,,,,,,,,,,,,,,,,,,,,,,,,,,,,,,,,,,,,,,,,,,,,,,,,,,,,,,,,,,,,,,,,,,,,,,,,,,,,,,,,,,,,,,,,,,,,,,,,
1702544341,1702544341,35,0,4281.666504,4262.692383,4310.769043,4344.743652,4298.974121,4308.589844,4295,4296.025879,4282.436035,4233.846191,4450.897461,4392.179688,4270.641113,4374.487305,0,4,79,,,,0,4,4,4,4,4,4,4,4,4,4,4,4,4,4,100,,,,,,,,,,,,,,,,,,,,,,,,,,,,,,,,,,,,,,,,,,,,,,,,,,,,,,,,,,,,,,,,,,,,,,,,,,,,,,,,,,,,,,,,,,,,,,,,,,,,,,,,,,,,,,,,,,,,,,,,,,,,,,,,,,,,,,
1702544341,1702544341,36,0,4273.974121,4250.384766,4307.563965,4335.128418,4288.589844,4305.512695,4287.05127,4291.153809,4275,4229.230957,4439.358887,4352.05127,4261.666504,4358.205078,0,4,79,,,,0,4,4,4,4,4,4,4,4,4,4,4,4,4,4,100,,,,,,,,,,,,,,,,,9,0,0.15665,0.586182,-0.286682,0.741394,0.964962,-0.20022,0.101087,-11.746246,6.491858,84.736717,,,,,,,,,,,,,,,,,,,,,,,,,,,,,,,,,,,,,,,,,,,,,,,,,,,,,,,,,,,,,,,,,,,,,,,,,,,,,,,,,,,,,,,,,,,,,,,,,,,,,,,,,,
