Timestamp,OriginalTimestamp,EEG.Counter,EEG.Interpolated,EEG.AF3,EEG.F7,EEG.F3,EEG.FC5,EEG.T7,EEG.P7,EEG.O1,EEG.O2,EEG.P8,EEG.T8,EEG.FC6,EEG.F4,EEG.F8,EEG.AF4,EEG.RawCq,EEG.Battery,EEG.BatteryPercent,MarkerIndex,MarkerType,MarkerValueInt,EEG.MarkerHardware,CQ.AF3,CQ.F7,CQ.F3,CQ.FC5,CQ.T7,CQ.P7,CQ.O1,CQ.O2,CQ.P8,CQ.T8,CQ.FC6,CQ.F4,CQ.F8,CQ.AF4,CQ.Overall,EQ.SampleRateQuality,EQ.OVERALL,EQ.AF3,EQ.F7,EQ.F3,EQ.FC5,EQ.T7,EQ.P7,EQ.O1,EQ.O2,EQ.P8,EQ.T8,EQ.FC6,EQ.F4,EQ.F8,EQ.AF4,MOT.CounterMems,MOT.InterpolatedMems,MOT.Q0,MOT.Q1,MOT.Q2,MOT.Q3,MOT.AccX,MOT.AccY,MOT.AccZ,MOT.MagX,MOT.MagY,MOT.MagZ,PM.Attention.IsActive,PM.Attention.Scaled,PM.Attention.Raw,PM.Attention.Min,PM.Attention.Max,PM.Engagement.IsActive,PM.Engagement.Scaled,PM.Engagement.Raw,PM.Engagement.Min,PM.Engagement.Max,PM.Excitement.IsActive,PM.Excitement.Scaled,PM.Excitement.Raw,PM.Excitement.Min,PM.Excitement.Max,PM.LongTermExcitement,PM.Stress.IsActive,PM.Stress.Scaled,PM.Stress.Raw,PM.Stress.Min,PM.Stress.Max,PM.Relaxation.IsActive,PM.Relaxation.Scaled,PM.Relaxation.Raw,PM.Relaxation.Min,PM.Relaxation.Max,PM.Interest.IsActive,PM.Interest.Scaled,PM.Interest.Raw,PM.Interest.Min,PM.Interest.Max,PM.Focus.IsActive,PM.Focus.Scaled,PM.Focus.Raw,PM.Focus.Min,PM.Focus.Max,POW.AF3.Theta,POW.AF3.Alpha,POW.AF3.BetaL,POW.AF3.BetaH,POW.AF3.Gamma,POW.F7.Theta,POW.F7.Alpha,POW.F7.BetaL,POW.F7.BetaH,POW.F7.Gamma,POW.F3.Theta,POW.F3.Alpha,POW.F3.BetaL,POW.F3.BetaH,POW.F3.Gamma,POW.FC5.Theta,POW.FC5.Alpha,POW.FC5.BetaL,POW.FC5.BetaH,POW.FC5.Gamma,POW.T7.Theta,POW.T7.Alpha,POW.T7.BetaL,POW.T7.BetaH,POW.T7.Gamma,POW.P7.Theta,POW.P7.Alpha,POW.P7.BetaL,POW.P7.BetaH,POW.P7.Gamma,POW.O1.Theta,POW.O1.Alpha,POW.O1.BetaL,POW.O1.BetaH,POW.O1.Gamma,POW.O2.Theta,POW.O2.Alpha,POW.O2.BetaL,POW.O2.BetaH,POW.O2.Gamma,POW.P8.Theta,POW.P8.Alpha,POW.P8.BetaL,POW.P8.BetaH,POW.P8.Gamma,POW.T8.Theta,POW.T8.Alpha,POW.T8.BetaL,POW.T8.BetaH,POW.T8.Gamma,POW.FC6.Theta,POW.FC6.Alpha,POW.FC6.BetaL,POW.FC6.BetaH,POW.FC6.Gamma,POW.F4.Theta,POW.F4.Alpha,POW.F4.BetaL,POW.F4.BetaH,POW.F4.Gamma,POW.F8.Theta,POW.F8.Alpha,POW.F8.BetaL,POW.F8.BetaH,POW.F8.Gamma,POW.AF4.Theta,POW.AF4.Alpha,POW.AF4.BetaL,POW.AF4.BetaH,POW.AF4.Gamma
,,,,,,,,,,,,,,,,,,,,,,,,,,,,,,,,,,,,,,,,,,,,,,,,,,,,,,,,,,,,,,,,,,,,,,,,,,,,,,,,,,,,,,,,,,,,,,,,,,,,,,,,,,,,,,,,,,,,,,,,,,,,,,,,,,,,,,,,,,,,,,,,,,,,,,,,,,,,,,,,,,,,,,,,,,,,,
1702545551,1702545551,84,0,4354.615234,4312.563965,4331.666504,4343.589844,4326.282227,4324.358887,4323.333496,4362.179688,4335.256348,4304.487305,4530.897461,4523.589844,4358.333496,4477.179688,6852,4,75,,,,0,4,4,4,4,4,4,4,4,4,4,4,4,4,4,100,,,,,,,,,,,,,,,,,21,0,0.588985,-0.586853,-0.380005,-0.405334,0.916127,-0.345257,-0.004395,-17.086029,-3.581135,87.890602,,,,,,,,,,,,,,,,,,,,,,,,,,,,,,,,,,,,,,,,,,,,,,,,,,,,,,,,,,,,,,,,,,,,,,,,,,,,,,,,,,,,,,,,,,,,,,,,,,,,,,,,,,
1702545551,1702545551,85,0,4341.922852,4298.333496,4318.077148,4337.179688,4302.179688,4318.974121,4309.615234,4352.307617,4332.563965,4292.05127,4518.589844,4510.256348,4352.307617,4469.871582,7197,4,75,,,,0,4,4,4,4,4,4,4,4,4,4,4,4,4,4,100,,,,,,,,,,,,,,,,,,,,,,,,,,,,,,,,,,,,,,,,,,,,,,,,,,,,,,,,,,,,,,,,,,,,,,,,,,,,,,,,,,,,,,,,,,,,,,,,,,,,,,,,,,,,,,,,,,,,,,,,,,,,,,,,,,,,,,
1702545551,1702545551,86,0,4335.128418,4288.717773,4316.922852,4337.563965,4327.436035,4325.384766,4309.102539,4345.128418,4325.256348,4291.666504,4506.922852,4501.153809,4348.461426,4457.94873,6067,4,75,,,,0,4,4,4,4,4,4,4,4,4,4,4,4,4,4,100,,,,,,,,,,,,,,,,,,,,,,,,,,,,,,,,,,,,,,,,,,,,,,,,,,,,,,,,,,,,,,,,,,,,,,,,,,,,,,,,,,,,,,,,,,,,,,,,,,,,,,,,,,,,,,,,,,,,,,,,,,,,,,,,,,,,,,
1702545551,1702545551,87,0,4343.717773,4295,4330.256348,4353.974121,4359.102539,4347.436035,4325,4352.436035,4324.358887,4305.384766,4513.461426,4511.922852,4358.717773,4460,6279,4,75,,,,0,4,4,4,4,4,4,4,4,4,4,4,4,4,4,100,,,,,,,,,,,,,,,,,,,,,,,,,,,,,,,,,,,,,,,,,,,,,,,,,,,,,,,,,,,,,,,,,,,,,,,,,,,,,,,,,,,,,,,,,,,,,,,,,,,,,,,,,,,,,,,,,,,,,,,,,,,,,,,,,,,,,,
1702545551,1702545551,88,0,4342.94873,4289.871582,4325.512695,4353.846191,4321.025879,4351.538574,4324.743652,4348.846191,4324.615234,4302.563965,4511.794922,4507.179688,4364.615234,4461.538574,6852,4,75,,,,0,4,4,4,4,4,4,4,4,4,4,4,4,4,4,100,,,,,,,,,,,,,,,,,22,0,0.588925,-0.586914,-0.380005,-0.405334,0.924918,-0.34428,-0.005372,-17.177425,-3.606355,87.951546,,,,,,,,,,,,,,,,,,,,,,,,,,,,,,,,,,,,,,,,,,,,,,,,,,,,,,,,,,,,,,,,,,,,,,,,,,,,,,,,,,,,,,,,,,,,,,,,,,,,,,,,,,
1702545551,1702545551,89,0,4329.487305,4267.436035,4308.461426,4337.436035,4281.410156,4328.589844,4305.512695,4330.897461,4312.820313,4279.871582,4492.179688,4485.512695,4353.461426,4447.692383,7197,4,75,,,,0,4,4,4,4,4,4,4,4,4,4,4,4,4,4,100,,,,,,,,,,,,,,,,,,,,,,,,,,,,,,,,,,,,,,,,,,,,,,,,,,,,,,,,,,,,,,,,,,,,,,,,,,,,,,,,,,,,,,,,,,,,,,,,,,,,,,,,,,,,,,,,,,,,,,,,,,,,,,,,,,,,,,
1702545551,1702545551,90,0,4321.666504,4251.410156,4300,4328.589844,4304.487305,4321.666504,4296.153809,4320.897461,4294.102539,4255.128418,4476.025879,4475.769043,4349.102539,4435,6067,4,75,,,,0,4,4,4,4,4,4,4,4,4,4,4,4,4,4,100,,,,,,,,,,,,,,,,,,,,,,,,,,,,,,,,,,,,,,,,,,,,,,,,,,,,,,,,,,,,,,,,,,,,,,,,,,,,,,,,,,,,,,,,,,,,,,,,,,,,,,,,,,,,,,,,,,,,,,,,,,,,,,,,,,,,,,
1702545551,1702545551,91,0,4313.077148,4232.692383,4286.410156,4314.230957,4317.05127,4335,4289.743652,4309.487305,4273.846191,4249.487305,4460.641113,4460.897461,4347.692383,4421.666504,6279,4,75,,,,0,4,4,4,4,4,4,4,4,4,4,4,4,4,4,100,,,,,,,,,,,,,,,,,,,,,,,,,,,,,,,,,,,,,,,,,,,,,,,,,,,,,,,,,,,,,,,,,,,,,,,,,,,,,,,,,,,,,,,,,,,,,,,,,,,,,,,,,,,,,,,,,,,,,,,,,,,,,,,,,,,,,,
1702545551,1702545551,92,0,4303.974121,4212.05127,4276.538574,4294.230957,4295,4339.743652,4280.128418,4295.256348,4264.487305,4254.871582,4451.538574,4443.717773,4338.461426,4412.307617,6852,4,75,,,,0,4,4,4,4,4,4,4,4,4,4,4,4,4,4,100,,,,,,,,,,,,,,,,,23,0,0.58878,-0.586975,-0.380005,-0.405457,0.923941,-0.349652,-0.011232,-16.993017,-3.512386,87.889725,,,,,,,,,,,,,,,,,,,,,,,,,,,,,,,,,,,,,7.939672,2.438663,1.702963,1.707821,0.516012,26.351984,6.441041,4.161829,2.773074,0.567952,3.330688,2.688234,1.212306,1.604684,0.383551,43.975864,2.371708,2.41695,2.453958,0.562115,2.581932,1.526827,0.871621,3.020062,1.883317,18.214157,3.12159,3.188256,2.314135,0.534711,1.588852,1.494457,1.487868,1.802615,0.484673,2.705012,1.643316,0.883704,1.165167,0.392232,2.73678,1.506717,0.660416,1.372436,0.430923,2.558069,2.060946,0.680831,1.651811,1.02702,5.879214,5.427135,1.721054,1.931787,0.823196,4.716466,4.284255,1.532501,2.306417,0.676219,41.329529,8.298564,1.754376,1.784949,1.061965,7.885505,3.679983,1.647298,2.000621,0.519405
1702545551,1702545551,93,0,4308.077148,4209.615234,4287.563965,4289.615234,4282.05127,4340.512695,4282.307617,4301.538574,4280.897461,4249.230957,4465,4456.410156,4346.025879,4424.871582,7197,4,75,,,,0,4,4,4,4,4,4,4,4,4,4,4,4,4,4,100,,,,,,,,,,,,,,,,,,,,,,,,,,,,,,,,,,,,,,,,,,,,,,,,,,,,,,,,,,,,,,,,,,,,,,,,,,,,,,,,,,,,,,,,,,,,,,,,,,,,,,,,,,,,,,,,,,,,,,,,,,,,,,,,,,,,,,
1702545551,1702545551,94,0,4317.94873,4214.743652,4298.589844,4297.820313,4295.641113,4344.871582,4291.153809,4317.179688,4297.563965,4251.922852,4477.820313,4478.205078,4363.333496,4442.94873,6067,4,75,,,,0,4,4,4,4,4,4,4,4,4,4,4,4,4,4,100,,,,,,,,,,,,,,,,,,,,,,,,,,,,,,,,,,,,,,,,,,,,,,,,,,,,,,,,,,,,,,,,,,,,,,,,,,,,,,,,,,,,,,,,,,,,,,,,,,,,,,,,,,,,,,,,,,,,,,,,,,,,,,,,,,,,,,
1702545551,1702545551,95,0,4321.666504,4214.102539,4297.307617,4302.820313,4310.384766,4340.128418,4297.05127,4321.538574,4293.589844,4275.512695,4482.179688,4477.692383,4364.871582,4446.153809,6279,4,75,,,,0,4,4,4,4,4,4,4,4,4,4,4,4,4,4,100,,,,,,,,,,,,,,,,,,,,,,,,,,,,,,,,,,,,,,,,,,,,,,,,,,,,,,,,,,,,,,,,,,,,,,,,,,,,,,,,,,,,,,,,,,,,,,,,,,,,,,,,,,,,,,,,,,,,,,,,,,,,,,,,,,,,,,
1702545551,1702545551,96,0,4318.717773,4216.666504,4297.307617,4301.282227,4307.820313,4341.282227,4305.769043,4320.512695,4291.922852,4276.538574,4486.410156,4473.205078,4358.205078,4443.846191,6852,4,75,,,,0,4,4,4,4,4,4,4,4,4,4,4,4,4,4,100,,,,,,,,,,,,,,,,,24,0,0.588689,-0.587097,-0.379761,-0.40564,0.928336,-0.351605,-0.003907,-17.027048,-3.311148,87.817413,,,,,,,,,,,,,,,,,,,,,,,,,,,,,,,,,,,,,,,,,,,,,,,,,,,,,,,,,,,,,,,,,,,,,,,,,,,,,,,,,,,,,,,,,,,,,,,,,,,,,,,,,,
1702545551,1702545551,97,0,4312.820313,4216.794922,4297.94873,4293.717773,4298.717773,4353.717773,4307.179688,4319.871582,4298.077148,4252.05127,4482.307617,4474.487305,4343.717773,4443.846191,7197,4,75,,,,0,4,4,4,4,4,4,4,4,4,4,4,4,4,4,100,,,,,,,,,,,,,,,,,,,,,,,,,,,,,,,,,,,,,,,,,,,,,,,,,,,,,,,,,,,,,,,,,,,,,,,,,,,,,,,,,,,,,,,,,,,,,,,,,,,,,,,,,,,,,,,,,,,,,,,,,,,,,,,,,,,,,,
1702545551,1702545551,98,0,4313.589844,4210.769043,4292.820313,4286.794922,4298.589844,4354.230957,4297.692383,4317.05127,4294.615234,4263.717773,4478.205078,4472.179688,4312.692383,4445.256348,6067,4,75,,,,0,4,4,4,4,4,4,4,4,4,4,4,4,4,4,100,,,,,,,,,,,,,,,,,,,,,,,,,,,,,,,,,,,,,,,,,,,,,,,,,,,,,,,,,,,,,,,,,,,,,,,,,,,,,,,,,,,,,,,,,,,,,,,,,,,,,,,,,,,,,,,,,,,,,,,,,,,,,,,,,,,,,,
1702545551,1702545551,99,0,4324.743652,4218.846191,4296.282227,4290.128418,4315.128418,4353.077148,4297.307617,4319.358887,4297.692383,4285.769043,4490,4477.179688,4293.846191,4455.641113,6279,4,75,,,,0,4,4,4,4,4,4,4,4,4,4,4,4,4,4,100,,,,,,,,,,,,,,,,,,,,,,,,,,,,,,,,,,,,,,,,,,,,,,,,,,,,,,,,,,,,,,,,,,,,,,,,,,,,,,,,,,,,,,,,,,,,,,,,,,,,,,,,,,,,,,,,,,,,,,,,,,,,,,,,,,,,,,
1702545551,1702545551,100,0,4332.563965,4234.358887,4307.692383,4296.794922,4312.05127,4360.641113,4305.128418,4326.282227,4309.615234,4280.641113,4501.794922,4488.461426,4298.846191,4468.589844,6852,4,75,,,,0,4,4,4,4,4,4,4,4,4,4,4,4,4,4,100,,,,,,,,,,,,,,,,,25,0,0.588609,-0.586914,-0.379517,-0.40625,0.931266,-0.335002,0.002442,-16.974344,-3.2967,87.819008,,,,,,,,,,,,,,,,,,,,,,,,,,,,,,,,,,,,,,,,,,,,,,,,,,,,,,,,,,,,,,,,,,,,,,,,,,,,,,,,,,,,,,,,,,,,,,,,,,,,,,,,,,
1702545551,1702545551,101,0,4335.512695,4234.487305,4316.153809,4297.436035,4287.179688,4367.692383,4308.589844,4327.563965,4308.589844,4287.692383,4503.974121,4497.820313,4293.717773,4475.769043,7197,4,75,,,,0,4,4,4,4,4,4,4,4,4,4,4,4,4,4,100,,,,,,,,,,,,,,,,,,,,,,,,,,,,,,,,,,,,,,,,,,,,,,,,,,,,,,,,,,,,,,,,,,,,,,,,,,,,,,,,,,,,,,,,,,,,,,,,,,,,,,,,,,,,,,,,,,,,,,,,,,,,,,,,,,,,,,
1702545551,1702545551,102,0,4340.641113,4228.974121,4320.897461,4292.563965,4300.769043,4370.384766,4308.717773,4324.102539,4303.589844,4289.102539,4509.102539,4504.230957,4279.487305,4478.333496,6067,4,75,,,,0,4,4,4,4,4,4,4,4,4,4,4,4,4,4,100,,,,,,,,,,,,,,,,,,,,,,,,,,,,,,,,,,,,,,,,,,,,,,,,,,,,,,,,,,,,,,,,,,,,,,,,,,,,,,,,,,,,,,,,,,,,,,,,,,,,,,,,,,,,,,,,,,,,,,,,,,,,,,,,,,,,,,
1702545551,1702545551,103,0,4342.94873,4237.307617,4321.922852,4295,4345.256348,4371.666504,4311.153809,4325.384766,4311.538574,4275.256348,4512.307617,4506.153809,4280.769043,4476.666504,6279,4,75,,,,0,4,4,4,4,4,4,4,4,4,4,4,4,4,4,100,,,,,,,,,,,,,,,,,,,,,,,,,,,,,,,,,,,,,,,,,,,,,,,,,,,,,,,,,,,,,,,,,,,,,,,,,,,,,,,,,,,,,,,,,,,,,,,,,,,,,,,,,,,,,,,,,,,,,,,,,,,,,,,,,,,,,,
1702545551,1702545551,104,0,4341.666504,4251.025879,4321.794922,4302.307617,4328.846191,4372.692383,4318.974121,4331.922852,4318.205078,4284.230957,4510.769043,4507.563965,4292.179688,4478.077148,6852,4,75,,,,0,4,4,4,4,4,4,4,4,4,4,4,4,4,4,100,,,,,,,,,,,,,,,,,26,0,0.588466,-0.586792,-0.379272,-0.40686,0.924918,-0.341839,-0.006348,-16.843576,-3.250363,87.753777,,,,,,,,,,,,,,,,,,,,,,,,,,,,,,,,,,,,,,,,,,,,,,,,,,,,,,,,,,,,,,,,,,,,,,,,,,,,,,,,,,,,,,,,,,,,,,,,,,,,,,,,,,
1702545551,1702545551,105,0,4337.820313,4250.897461,4316.410156,4297.436035,4281.922852,4378.077148,4321.410156,4334.230957,4312.820313,4302.563965,4506.538574,4503.077148,4290.256348,4473.974121,7197,4,75,,,,0,4,4,4,4,4,4,4,4,4,4,4,4,4,4,100,,,,,,,,,,,,,,,,,,,,,,,,,,,,,,,,,,,,,,,,,,,,,,,,,,,,,,,,,,,,,,,,,,,,,,,,,,,,,,,,,,,,,,,,,,,,,,,,,,,,,,,,,,,,,,,,,,,,,,,,,,,,,,,,,,,,,,
1702545551,1702545551,106,0,4332.94873,4248.589844,4308.717773,4293.974121,4313.589844,4382.820313,4313.333496,4334.487305,4313.589844,4299.615234,4506.410156,4496.922852,4287.307617,4462.94873,6067,4,75,,,,0,4,4,4,4,4,4,4,4,4,4,4,4,4,4,100,,,,,,,,,,,,,,,,,,,,,,,,,,,,,,,,,,,,,,,,,,,,,,,,,,,,,,,,,,,,,,,,,,,,,,,,,,,,,,,,,,,,,,,,,,,,,,,,,,,,,,,,,,,,,,,,,,,,,,,,,,,,,,,,,,,,,,
1702545551,1702545551,107,0,4333.589844,4255.128418,4311.410156,4303.717773,4336.794922,4381.153809,4309.743652,4333.333496,4322.436035,4283.846191,4509.615234,4498.333496,4302.179688,4465.769043,6279,4,75,,,,0,4,4,4,4,4,4,4,4,4,4,4,4,4,4,100,,,,,,,,,,,,,,,,,,,,,,,,,,,,,,,,,,,,,,,,,,,,,,,,,,,,,,,,,,,,,,,,,,,,,,,,,,,,,,,,,,,,,,,,,,,,,,,,,,,,,,,,,,,,,,,,,,,,,,,,,,,,,,,,,,,,,,
1702545551,1702545551,108,0,4337.94873,4261.410156,4320.256348,4312.436035,4297.94873,4388.077148,4317.179688,4328.333496,4322.436035,4276.538574,4506.025879,4503.589844,4310.128418,4473.717773,6852,4,75,,,,0,4,4,4,4,4,4,4,4,4,4,4,4,4,4,100,1,25,4,1,3,1,1,1,3,1,3,3,3,3,1,4,27,0,0.588181,-0.586609,-0.379211,-0.407593,0.932731,-0.343792,0.00879,-16.809217,-3.241993,87.611732,,,,,,,,,,,,,,,,,,,,,,,,,,,,,,,,,,,,,4.202765,2.468901,1.604742,1.335229,0.488748,14.876987,5.290048,3.897114,2.206151,0.531347,2.687632,2.774423,1.1077,1.264838,0.371374,39.177479,2.521061,2.084714,1.979501,0.536166,2.64439,1.733644,1.020359,2.757988,1.830336,22.263132,3.460127,3.232584,1.992814,0.550986,1.514108,1.506878,1.440157,1.496762,0.46575,2.751059,1.639343,0.912121,1.064703,0.342022,2.587371,1.518592,0.670403,1.261002,0.365256,2.174524,2.040673,0.905381,1.490625,1.067753,4.068685,5.406919,1.655149,1.625947,0.758532,3.504113,4.155408,1.304291,1.832986,0.59041,31.02578,8.671782,1.847659,1.389383,1.061699,3.81291,3.588698,1.583802,1.565478,0.478453
1702545551,1702545551,109,0,4345,4274.102539,4327.307617,4323.333496,4307.436035,4409.743652,4326.666504,4331.282227,4319.487305,4288.717773,4510.256348,4512.820313,4316.410156,4475.384766,7197,4,75,,,,0,4,4,4,4,4,4,4,4,4,4,4,4,4,4,100,,,,,,,,,,,,,,,,,,,,,,,,,,,,,,,,,,,,,,,,,,,,,,,,,,,,,,,,,,,,,,,,,,,,,,,,,,,,,,,,,,,,,,,,,,,,,,,,,,,,,,,,,,,,,,,,,,,,,,,,,,,,,,,,,,,,,,
1702545551,1702545551,110,0,4351.153809,4297.179688,4331.538574,4343.333496,4353.461426,4427.179688,4335.769043,4342.436035,4329.102539,4306.922852,4524.102539,4523.589844,4339.743652,4483.846191,6067,4,75,,,,0,4,4,4,4,4,4,4,4,4,4,4,4,4,4,100,,,,,,,,,,,,,,,,,,,,,,,,,,,,,,,,,,,,,,,,,,,,,,,,,,,,,,,,,,,,,,,,,,,,,,,,,,,,,,,,,,,,,,,,,,,,,,,,,,,,,,,,,,,,,,,,,,,,,,,,,,,,,,,,,,,,,,
1702545551,1702545551,111,0,4349.230957,4309.487305,4330.512695,4347.307617,4354.102539,4432.563965,4337.692383,4341.794922,4331.538574,4308.205078,4525.641113,4523.205078,4356.025879,4490,6279,4,75,,,,0,4,4,4,4,4,4,4,4,4,4,4,4,4,4,100,,,,,,,,,,,,,,,,,,,,,,,,,,,,,,,,,,,,,,,,,,,,,,,,,,,,,,,,,,,,,,,,,,,,,,,,,,,,,,,,,,,,,,,,,,,,,,,,,,,,,,,,,,,,,,,,,,,,,,,,,,,,,,,,,,,,,,
1702545551,1702545551,112,0,4353.974121,4316.922852,4335,4347.563965,4345.128418,4443.717773,4337.05127,4340.384766,4324.230957,4310.897461,4526.922852,4526.282227,4363.846191,4487.94873,6852,4,75,,,,0,4,4,4,4,4,4,4,4,4,4,4,4,4,4,100,,,,,,,,,,,,,,,,,28,0,0.587883,-0.586365,-0.379395,-0.408203,0.928824,-0.33256,-0.003418,-16.844963,-3.184461,87.667221,,,,,,,,,,,,,,,,,,,,,,,,,,,,,,,,,,,,,,,,,,,,,,,,,,,,,,,,,,,,,,,,,,,,,,,,,,,,,,,,,,,,,,,,,,,,,,,,,,,,,,,,,,
1702545551,1702545551,113,0,4370.384766,4331.153809,4346.538574,4366.153809,4348.205078,4463.333496,4347.563965,4352.692383,4336.794922,4320.384766,4543.461426,4545.128418,4386.025879,4496.922852,7197,4,75,,,,0,4,4,4,4,4,4,4,4,4,4,4,4,4,4,100,,,,,,,,,,,,,,,,,,,,,,,,,,,,,,,,,,,,,,,,,,,,,,,,,,,,,,,,,,,,,,,,,,,,,,,,,,,,,,,,,,,,,,,,,,,,,,,,,,,,,,,,,,,,,,,,,,,,,,,,,,,,,,,,,,,,,,
1702545551,1702545551,114,0,4368.205078,4331.282227,4339.487305,4364.743652,4333.333496,4462.820313,4346.794922,4353.205078,4346.666504,4315.641113,4540.256348,4540.641113,4397.179688,4496.794922,6067,4,75,,,,0,4,4,4,4,4,4,4,4,4,4,4,4,4,4,100,,,,,,,,,,,,,,,,,,,,,,,,,,,,,,,,,,,,,,,,,,,,,,,,,,,,,,,,,,,,,,,,,,,,,,,,,,,,,,,,,,,,,,,,,,,,,,,,,,,,,,,,,,,,,,,,,,,,,,,,,,,,,,,,,,,,,,
1702545551,1702545551,115,0,4348.077148,4318.846191,4320.384766,4340.769043,4321.410156,4445.384766,4326.922852,4338.205078,4331.025879,4307.820313,4519.358887,4516.794922,4383.461426,4476.153809,6279,4,75,,,,0,4,4,4,4,4,4,4,4,4,4,4,4,4,4,100,,,,,,,,,,,,,,,,,,,,,,,,,,,,,,,,,,,,,,,,,,,,,,,,,,,,,,,,,,,,,,,,,,,,,,,,,,,,,,,,,,,,,,,,,,,,,,,,,,,,,,,,,,,,,,,,,,,,,,,,,,,,,,,,,,,,,,
1702545551,1702545551,116,0,4347.307617,4321.666504,4322.563965,4343.717773,4340.256348,4440.128418,4323.205078,4335.512695,4322.05127,4294.743652,4524.871582,4520.641113,4384.487305,4475.128418,6852,4,75,,,,0,4,4,4,4,4,4,4,4,4,4,4,4,4,4,100,,,,,,,,,,,,,,,,,29,0,0.587577,-0.586304,-0.3797,-0.408447,0.932731,-0.338909,-0.003907,-16.893801,-3.399348,87.650497,,,,,,,,,,,,,,,,,,,,,,,,,,,,,,,,,,,,,,,,,,,,,,,,,,,,,,,,,,,,,,,,,,,,,,,,,,,,,,,,,,,,,,,,,,,,,,,,,,,,,,,,,,
1702545551,1702545551,117,0,4366.025879,4335.128418,4340.128418,4370.897461,4363.974121,4446.153809,4341.794922,4348.974121,4336.282227,4290.897461,4541.666504,4539.871582,4405,4493.846191,7197,4,75,,,,0,4,4,4,4,4,4,4,4,4,4,4,4,4,4,100,,,,,,,,,,,,,,,,,,,,,,,,,,,,,,,,,,,,,,,,,,,,,,,,,,,,,,,,,,,,,,,,,,,,,,,,,,,,,,,,,,,,,,,,,,,,,,,,,,,,,,,,,,,,,,,,,,,,,,,,,,,,,,,,,,,,,,
1702545551,1702545551,118,0,4372.820313,4344.230957,4346.794922,4382.179688,4344.102539,4448.077148,4349.743652,4357.563965,4345.512695,4318.717773,4540.641113,4544.230957,4413.077148,4496.922852,6067,4,75,,,,0,4,4,4,4,4,4,4,4,4,4,4,4,4,4,100,,,,,,,,,,,,,,,,,,,,,,,,,,,,,,,,,,,,,,,,,,,,,,,,,,,,,,,,,,,,,,,,,,,,,,,,,,,,,,,,,,,,,,,,,,,,,,,,,,,,,,,,,,,,,,,,,,,,,,,,,,,,,,,,,,,,,,
1702545551,1702545551,119,0,4361.538574,4346.282227,4340.769043,4371.922852,4312.94873,4444.487305,4342.307617,4354.871582,4336.410156,4335.897461,4534.358887,4539.358887,4413.205078,4489.871582,6279,4,75,,,,0,4,4,4,4,4,4,4,4,4,4,4,4,4,4,100,,,,,,,,,,,,,,,,,,,,,,,,,,,,,,,,,,,,,,,,,,,,,,,,,,,,,,,,,,,,,,,,,,,,,,,,,,,,,,,,,,,,,,,,,,,,,,,,,,,,,,,,,,,,,,,,,,,,,,,,,,,,,,,,,,,,,,
1702545551,1702545551,120,0,4355,4339.615234,4335.384766,4359.615234,4330,4439.487305,4337.820313,4350.641113,4328.589844,4316.282227,4535.897461,4536.666504,4411.666504,4490.769043,6852,4,75,,,,0,4,4,4,4,4,4,4,4,4,4,4,4,4,4,100,,,,,,,,,,,,,,,,,30,0,0.587456,-0.586304,-0.379822,-0.408508,0.940544,-0.340374,-0.001953,-17.037754,-3.32608,87.568787,,,,,,,,,,,,,,,,,,,,,,,,,,,,,,,,,,,,,,,,,,,,,,,,,,,,,,,,,,,,,,,,,,,,,,,,,,,,,,,,,,,,,,,,,,,,,,,,,,,,,,,,,,
1702545551,1702545551,121,0,4363.589844,4336.282227,4340.769043,4356.666504,4351.538574,4441.538574,4340.769043,4353.461426,4335.769043,4296.538574,4540.512695,4537.94873,4406.410156,4493.717773,7197,4,75,,,,0,4,4,4,4,4,4,4,4,4,4,4,4,4,4,100,,,,,,,,,,,,,,,,,,,,,,,,,,,,,,,,,,,,,,,,,,,,,,,,,,,,,,,,,,,,,,,,,,,,,,,,,,,,,,,,,,,,,,,,,,,,,,,,,,,,,,,,,,,,,,,,,,,,,,,,,,,,,,,,,,,,,,
1702545551,1702545551,122,0,4368.333496,4339.615234,4342.436035,4358.846191,4334.487305,4446.538574,4343.333496,4353.205078,4344.871582,4291.282227,4537.05127,4539.871582,4406.922852,4491.922852,6067,4,75,,,,0,4,4,4,4,4,4,4,4,4,4,4,4,4,4,100,,,,,,,,,,,,,,,,,,,,,,,,,,,,,,,,,,,,,,,,,,,,,,,,,,,,,,,,,,,,,,,,,,,,,,,,,,,,,,,,,,,,,,,,,,,,,,,,,,,,,,,,,,,,,,,,,,,,,,,,,,,,,,,,,,,,,,
1702545551,1702545551,123,0,4363.333496,4337.820313,4332.820313,4358.077148,4320.769043,4438.589844,4337.692383,4344.743652,4339.871582,4303.077148,4528.205078,4536.410156,4412.179688,4489.102539,6279,4,75,,,,0,4,4,4,4,4,4,4,4,4,4,4,4,4,4,100,,,,,,,,,,,,,,,,,,,,,,,,,,,,,,,,,,,,,,,,,,,,,,,,,,,,,,,,,,,,,,,,,,,,,,,,,,,,,,,,,,,,,,,,,,,,,,,,,,,,,,,,,,,,,,,,,,,,,,,,,,,,,,,,,,,,,,
1702545551,1702545551,124,0,4366.922852,4334.615234,4333.974121,4362.820313,4326.666504,4432.436035,4332.179688,4345.256348,4334.358887,4328.205078,4532.94873,4536.538574,4417.563965,4491.410156,6852,4,75,,,,0,4,4,4,4,4,4,4,4,4,4,4,4,4,4,100,,,,,,,,,,,,,,,,,31,0,0.587306,-0.586426,-0.380127,-0.408264,0.928824,-0.343304,-0.003907,-17.067312,-3.276805,87.561905,,,,,,,,,,,,,,,,,,,,,,,,,,,,,,,,,,,,,3.376966,2.584599,1.509392,1.013129,0.452859,11.794829,4.296821,3.570935,1.716107,0.509089,2.869773,2.856185,1.077539,0.969512,0.362159,33.501301,2.681354,1.893192,1.515499,0.510197,2.771717,1.958657,1.146464,2.620423,1.737162,32.915501,4.428002,3.258263,1.754549,0.601773,1.885236,1.600729,1.321699,1.162278,0.434445,3.312582,1.796274,0.868784,0.967981,0.29112,3.016959,1.74951,0.70633,1.182384,0.311089,2.551712,2.146798,1.228182,1.432826,1.118957,4.05517,5.473109,1.642911,1.340375,0.680612,3.925316,4.215309,1.164244,1.434605,0.51084,27.295267,9.496288,2.322493,1.043177,1.014344,3.225896,3.552391,1.48977,1.199906,0.441983
1702545551,1702545551,125,0,4368.974121,4334.102539,4339.102539,4369.230957,4331.922852,4442.05127,4337.05127,4348.461426,4334.358887,4325.897461,4541.666504,4541.282227,4414.743652,4492.820313,7197,4,75,,,,0,4,4,4,4,4,4,4,4,4,4,4,4,4,4,100,,,,,,,,,,,,,,,,,,,,,,,,,,,,,,,,,,,,,,,,,,,,,,,,,,,,,,,,,,,,,,,,,,,,,,,,,,,,,,,,,,,,,,,,,,,,,,,,,,,,,,,,,,,,,,,,,,,,,,,,,,,,,,,,,,,,,,
1702545551,1702545551,126,0,4358.589844,4331.666504,4331.538574,4366.282227,4336.025879,4449.102539,4341.153809,4348.717773,4336.794922,4303.077148,4535.512695,4537.05127,4407.307617,4489.358887,6067,4,75,,,,0,4,4,4,4,4,4,4,4,4,4,4,4,4,4,100,,,,,,,,,,,,,,,,,,,,,,,,,,,,,,,,,,,,,,,,,,,,,,,,,,,,,,,,,,,,,,,,,,,,,,,,,,,,,,,,,,,,,,,,,,,,,,,,,,,,,,,,,,,,,,,,,,,,,,,,,,,,,,,,,,,,,,
1702545551,1702545551,127,0,4354.102539,4324.487305,4325.384766,4363.589844,4330.384766,4441.025879,4336.538574,4353.717773,4343.589844,4306.282227,4534.871582,4533.205078,4407.94873,4490.769043,75,4,75,,,,0,4,4,4,4,4,4,4,4,4,4,4,4,4,4,100,,,,,,,,,,,,,,,,,,,,,,,,,,,,,,,,,,,,,,,,,,,,,,,,,,,,,,,,,,,,,,,,,,,,,,,,,,,,,,,,,,,,,,,,,,,,,,,,,,,,,,,,,,,,,,,,,,,,,,,,,,,,,,,,,,,,,,
1702545551,1702545551,0,0,4356.410156,4315.769043,4325.384766,4365.769043,4317.563965,4425.769043,4331.922852,4352.05127,4336.922852,4318.461426,4538.589844,4533.077148,4412.436035,4489.743652,5429,4,75,,,,0,4,4,4,4,4,4,4,4,4,4,4,4,4,4,100,,,,,,,,,,,,,,,,,0,0,0.587275,-0.586548,-0.380249,-0.40802,0.926383,-0.336955,-0.011232,-16.927246,-3.349125,87.522385,,,,,,,,,,,,,,,,,,,,,,,,,,,,,,,,,,,,,,,,,,,,,,,,,,,,,,,,,,,,,,,,,,,,,,,,,,,,,,,,,,,,,,,,,,,,,,,,,,,,,,,,,,
1702545551,1702545551,1,0,4357.820313,4318.717773,4329.871582,4374.487305,4317.692383,4419.871582,4334.102539,4345,4327.820313,4314.358887,4537.692383,4533.974121,4418.589844,4489.230957,5517,4,75,,,,0,4,4,4,4,4,4,4,4,4,4,4,4,4,4,100,,,,,,,,,,,,,,,,,,,,,,,,,,,,,,,,,,,,,,,,,,,,,,,,,,,,,,,,,,,,,,,,,,,,,,,,,,,,,,,,,,,,,,,,,,,,,,,,,,,,,,,,,,,,,,,,,,,,,,,,,,,,,,,,,,,,,,
1702545551,1702545551,2,0,4363.333496,4331.794922,4342.563965,4390.256348,4325.128418,4428.846191,4335.769043,4350.384766,4339.615234,4310.641113,4546.410156,4544.615234,4433.846191,4500,5485,4,75,,,,0,4,4,4,4,4,4,4,4,4,4,4,4,4,4,100,,,,,,,,,,,,,,,,,,,,,,,,,,,,,,,,,,,,,,,,,,,,,,,,,,,,,,,,,,,,,,,,,,,,,,,,,,,,,,,,,,,,,,,,,,,,,,,,,,,,,,,,,,,,,,,,,,,,,,,,,,,,,,,,,,,,,,
1702545551,1702545551,3,0,4369.743652,4335.256348,4351.153809,4402.05127,4330.256348,4443.589844,4336.410156,4361.538574,4350.128418,4313.717773,4551.538574,4558.717773,4453.717773,4504.487305,5415,4,75,,,,0,4,4,4,4,4,4,4,4,4,4,4,4,4,4,100,,,,,,,,,,,,,,,,,,,,,,,,,,,,,,,,,,,,,,,,,,,,,,,,,,,,,,,,,,,,,,,,,,,,,,,,,,,,,,,,,,,,,,,,,,,,,,,,,,,,,,,,,,,,,,,,,,,,,,,,,,,,,,,,,,,,,,
1702545551,1702545551,4,0,4365.256348,4325.256348,4344.487305,4401.282227,4331.025879,4450.769043,4335.256348,4358.077148,4345.128418,4318.717773,4540.384766,4553.461426,4460.256348,4493.205078,5405,4,75,,,,0,4,4,4,4,4,4,4,4,4,4,4,4,4,4,100,,,,,,,,,,,,,,,,,1,0,0.587134,-0.586731,-0.380249,-0.407959,0.917592,-0.348187,-0.001465,-17.001188,-3.330879,87.520142,,,,,,,,,,,,,,,,,,,,,,,,,,,,,,,,,,,,,,,,,,,,,,,,,,,,,,,,,,,,,,,,,,,,,,,,,,,,,,,,,,,,,,,,,,,,,,,,,,,,,,,,,,
1702545551,1702545551,5,0,4357.307617,4317.563965,4338.077148,4395.384766,4334.743652,4448.974121,4326.922852,4346.153809,4339.102539,4327.563965,4534.871582,4537.692383,4459.743652,4487.563965,5422,4,75,,,,0,4,4,4,4,4,4,4,4,4,4,4,4,4,4,100,,,,,,,,,,,,,,,,,,,,,,,,,,,,,,,,,,,,,,,,,,,,,,,,,,,,,,,,,,,,,,,,,,,,,,,,,,,,,,,,,,,,,,,,,,,,,,,,,,,,,,,,,,,,,,,,,,,,,,,,,,,,,,,,,,,,,,
1702545551,1702545551,6,0,4358.205078,4311.282227,4340.769043,4397.820313,4347.307617,4447.436035,4323.717773,4342.179688,4333.205078,4320.512695,4536.538574,4538.461426,4461.794922,4495,5262,4,75,,,,0,4,4,4,4,4,4,4,4,4,4,4,4,4,4,100,,,,,,,,,,,,,,,,,,,,,,,,,,,,,,,,,,,,,,,,,,,,,,,,,,,,,,,,,,,,,,,,,,,,,,,,,,,,,,,,,,,,,,,,,,,,,,,,,,,,,,,,,,,,,,,,,,,,,,,,,,,,,,,,,,,,,,
1702545551,1702545551,7,0,4355.512695,4299.487305,4335.256348,4396.666504,4334.871582,4447.307617,4327.692383,4341.794922,4326.922852,4292.820313,4525.897461,4539.615234,4464.102539,4493.846191,5108,4,75,,,,0,4,4,4,4,4,4,4,4,4,4,4,4,4,4,100,,,,,,,,,,,,,,,,,,,,,,,,,,,,,,,,,,,,,,,,,,,,,,,,,,,,,,,,,,,,,,,,,,,,,,,,,,,,,,,,,,,,,,,,,,,,,,,,,,,,,,,,,,,,,,,,,,,,,,,,,,,,,,,,,,,,,,
1702545551,1702545551,8,0,4337.692383,4275.897461,4316.153809,4382.307617,4296.410156,4438.205078,4314.871582,4327.94873,4317.692383,4274.487305,4506.410156,4516.538574,4456.538574,4473.717773,5425,4,75,,,,0,4,4,4,4,4,4,4,4,4,4,4,4,4,4,100,,,,,,,,,,,,,,,,,2,0,0.586952,-0.586792,-0.380371,-0.40802,0.915639,-0.351117,-0.018557,-16.967737,-3.381124,87.534798,,,,,,,,,,,,,,,,,,,,,,,,,,,,,,,,,,,,,,,,,,,,,,,,,,,,,,,,,,,,,,,,,,,,,,,,,,,,,,,,,,,,,,,,,,,,,,,,,,,,,,,,,,
1702545551,1702545551,9,0,4320.641113,4247.05127,4300.512695,4367.692383,4283.077148,4422.179688,4293.974121,4306.538574,4297.307617,4278.205078,4486.922852,4491.282227,4441.153809,4453.205078,5437,4,75,,,,0,4,4,4,4,4,4,4,4,4,4,4,4,4,4,100,,,,,,,,,,,,,,,,,,,,,,,,,,,,,,,,,,,,,,,,,,,,,,,,,,,,,,,,,,,,,,,,,,,,,,,,,,,,,,,,,,,,,,,,,,,,,,,,,,,,,,,,,,,,,,,,,,,,,,,,,,,,,,,,,,,,,,
1702545551,1702545551,10,0,4325.769043,4237.820313,4303.974121,4374.102539,4307.563965,4423.461426,4298.205078,4306.153809,4292.436035,4282.179688,4483.461426,4495,4442.820313,4458.077148,6065,4,75,,,,0,4,4,4,4,4,4,4,4,4,4,4,4,4,4,100,,,,,,,,,,,,,,,,,,,,,,,,,,,,,,,,,,,,,,,,,,,,,,,,,,,,,,,,,,,,,,,,,,,,,,,,,,,,,,,,,,,,,,,,,,,,,,,,,,,,,,,,,,,,,,,,,,,,,,,,,,,,,,,,,,,,,,
1702545551,1702545551,11,0,4341.666504,4247.692383,4318.846191,4392.692383,4325.512695,4436.666504,4312.179688,4320.256348,4308.333496,4276.666504,4500.256348,4515.769043,4459.743652,4475.384766,6277,4,75,,,,0,4,4,4,4,4,4,4,4,4,4,4,4,4,4,100,,,,,,,,,,,,,,,,,,,,,,,,,,,,,,,,,,,,,,,,,,,,,,,,,,,,,,,,,,,,,,,,,,,,,,,,,,,,,,,,,,,,,,,,,,,,,,,,,,,,,,,,,,,,,,,,,,,,,,,,,,,,,,,,,,,,,,
1702545551,1702545551,12,0,4342.94873,4251.282227,4325.256348,4398.333496,4308.974121,4434.871582,4309.871582,4324.102539,4308.974121,4284.743652,4507.307617,4520.897461,4470.256348,4475.769043,6855,4,75,,,,0,4,4,4,4,4,4,4,4,4,4,4,4,4,4,100,,,,,,,,,,,,,,,,,3,0,0.586658,-0.58667,-0.380554,-0.408447,0.929313,-0.337444,-0.021975,-16.720963,-3.459678,87.631317,,,,,,,,,,,,,,,,,,,,,,,,,,,,,,,,,,,,,3.578562,2.721596,1.408112,0.811078,0.408163,12.27189,3.521878,3.277264,1.385422,0.488383,3.434097,2.851755,1.101741,0.785638,0.353872,26.232048,2.826031,1.812772,1.174662,0.47749,2.995687,2.146533,1.214393,2.646769,1.635579,49.261536,5.967696,3.249774,1.687968,0.689507,2.445701,1.721522,1.166275,0.876024,0.399008,4.16725,2.036252,0.786099,0.892602,0.247285,3.808996,2.104049,0.780053,1.157695,0.2721,3.422589,2.396481,1.60627,1.460413,1.149529,5.153384,5.612441,1.676873,1.136286,0.591984,5.110293,4.378761,1.112567,1.198989,0.444834,28.225435,10.872969,3.106755,0.827853,0.932561,3.916521,3.455851,1.326487,0.983893,0.404523
1702545551,1702545551,13,0,4340.512695,4245.769043,4326.922852,4400.897461,4289.871582,4429.871582,4306.666504,4322.820313,4303.717773,4297.692383,4509.615234,4521.282227,4473.461426,4471.538574,7197,4,75,,,,0,4,4,4,4,4,4,4,4,4,4,4,4,4,4,100,,,,,,,,,,,,,,,,,,,,,,,,,,,,,,,,,,,,,,,,,,,,,,,,,,,,,,,,,,,,,,,,,,,,,,,,,,,,,,,,,,,,,,,,,,,,,,,,,,,,,,,,,,,,,,,,,,,,,,,,,,,,,,,,,,,,,,
1702545551,1702545551,14,0,4347.436035,4248.589844,4331.282227,4409.743652,4291.025879,4432.692383,4309.487305,4323.077148,4309.230957,4285.897461,4515.897461,4530.128418,4475.128418,4474.743652,6065,4,75,,,,0,4,4,4,4,4,4,4,4,4,4,4,4,4,4,100,,,,,,,,,,,,,,,,,,,,,,,,,,,,,,,,,,,,,,,,,,,,,,,,,,,,,,,,,,,,,,,,,,,,,,,,,,,,,,,,,,,,,,,,,,,,,,,,,,,,,,,,,,,,,,,,,,,,,,,,,,,,,,,,,,,,,,
1702545551,1702545551,15,0,4351.794922,4257.94873,4334.358887,4417.05127,4314.615234,4433.589844,4311.794922,4327.05127,4312.94873,4274.358887,4515.769043,4534.743652,4478.589844,4478.205078,6277,4,75,,,,0,4,4,4,4,4,4,4,4,4,4,4,4,4,4,100,,,,,,,,,,,,,,,,,,,,,,,,,,,,,,,,,,,,,,,,,,,,,,,,,,,,,,,,,,,,,,,,,,,,,,,,,,,,,,,,,,,,,,,,,,,,,,,,,,,,,,,,,,,,,,,,,,,,,,,,,,,,,,,,,,,,,,
1702545551,1702545551,16,0,4346.025879,4254.743652,4331.410156,4415.897461,4324.615234,4431.153809,4312.94873,4326.410156,4309.102539,4276.153809,4507.05127,4528.205078,4478.461426,4474.487305,0,4,75,,,,0,4,4,4,4,4,4,4,4,4,4,4,4,4,4,100,,,,,,,,,,,,,,,,,4,0,0.586437,-0.586548,-0.380493,-0.408997,0.941033,-0.333048,-0.00879,-16.615534,-3.430377,87.618187,,,,,,,,,,,,,,,,,,,,,,,,,,,,,,,,,,,,,,,,,,,,,,,,,,,,,,,,,,,,,,,,,,,,,,,,,,,,,,,,,,,,,,,,,,,,,,,,,,,,,,,,,,
1702545551,1702545551,17,0,4338.589844,4242.94873,4322.563965,4405.769043,4296.153809,4425.897461,4311.282227,4315.128418,4298.077148,4270.384766,4493.333496,4516.794922,4461.410156,4461.794922,0,4,75,,,,0,4,4,4,4,4,4,4,4,4,4,4,4,4,4,100,,,,,,,,,,,,,,,,,,,,,,,,,,,,,,,,,,,,,,,,,,,,,,,,,,,,,,,,,,,,,,,,,,,,,,,,,,,,,,,,,,,,,,,,,,,,,,,,,,,,,,,,,,,,,,,,,,,,,,,,,,,,,,,,,,,,,,
1702545551,1702545551,18,0,4337.05127,4249.102539,4318.974121,4402.563965,4280.256348,4422.94873,4313.077148,4314.615234,4295.384766,4276.153809,4490.512695,4514.487305,4453.461426,4454.743652,0,4,75,,,,0,4,4,4,4,4,4,4,4,4,4,4,4,4,4,100,,,,,,,,,,,,,,,,,,,,,,,,,,,,,,,,,,,,,,,,,,,,,,,,,,,,,,,,,,,,,,,,,,,,,,,,,,,,,,,,,,,,,,,,,,,,,,,,,,,,,,,,,,,,,,,,,,,,,,,,,,,,,,,,,,,,,,
1702545551,1702545551,19,0,4342.05127,4272.436035,4325.256348,4419.743652,4312.179688,4425.384766,4326.153809,4335.128418,4316.794922,4304.358887,4505,4521.794922,4479.487305,4464.230957,0,4,75,,,,0,4,4,4,4,4,4,4,4,4,4,4,4,4,4,100,,,,,,,,,,,,,,,,,,,,,,,,,,,,,,,,,,,,,,,,,,,,,,,,,,,,,,,,,,,,,,,,,,,,,,,,,,,,,,,,,,,,,,,,,,,,,,,,,,,,,,,,,,,,,,,,,,,,,,,,,,,,,,,,,,,,,,
1702545551,1702545551,20,0,4343.461426,4278.205078,4327.692383,4429.230957,4332.05127,4415.512695,4331.410156,4341.666504,4328.589844,4309.487305,4513.461426,4523.205078,4495.641113,4467.436035,0,4,75,,,,0,4,4,4,4,4,4,4,4,4,4,4,4,4,4,100,,,,,,,,,,,,,,,,,5,0,0.586345,-0.58667,-0.380249,-0.40918,0.925894,-0.354047,-0.010743,-16.470646,-3.404006,87.689697,,,,,,,,,,,,,,,,,,,,,,,,,,,,,,,,,,,,,,,,,,,,,,,,,,,,,,,,,,,,,,,,,,,,,,,,,,,,,,,,,,,,,,,,,,,,,,,,,,,,,,,,,,
1702545551,1702545551,21,0,4339.487305,4273.974121,4323.974121,4419.230957,4316.153809,4394.487305,4324.102539,4326.922852,4315.128418,4290.769043,4511.025879,4525.256348,4490.512695,4462.436035,0,4,75,,,,0,4,4,4,4,4,4,4,4,4,4,4,4,4,4,100,,,,,,,,,,,,,,,,,,,,,,,,,,,,,,,,,,,,,,,,,,,,,,,,,,,,,,,,,,,,,,,,,,,,,,,,,,,,,,,,,,,,,,,,,,,,,,,,,,,,,,,,,,,,,,,,,,,,,,,,,,,,,,,,,,,,,,
1702545551,1702545551,22,0,4348.077148,4290.256348,4333.974121,4433.077148,4328.333496,4395.769043,4329.230957,4330,4318.461426,4292.05127,4524.615234,4544.358887,4507.179688,4473.461426,0,4,75,,,,0,4,4,4,4,4,4,4,4,4,4,4,4,4,4,100,,,,,,,,,,,,,,,,,,,,,,,,,,,,,,,,,,,,,,,,,,,,,,,,,,,,,,,,,,,,,,,,,,,,,,,,,,,,,,,,,,,,,,,,,,,,,,,,,,,,,,,,,,,,,,,,,,,,,,,,,,,,,,,,,,,,,,
1702545551,1702545551,23,0,4357.05127,4302.820313,4346.153809,4446.922852,4341.153809,4402.563965,4339.487305,4340.641113,4333.461426,4302.563965,4536.666504,4552.307617,4526.410156,4478.974121,0,4,75,,,,0,4,4,4,4,4,4,4,4,4,4,4,4,4,4,100,,,,,,,,,,,,,,,,,,,,,,,,,,,,,,,,,,,,,,,,,,,,,,,,,,,,,,,,,,,,,,,,,,,,,,,,,,,,,,,,,,,,,,,,,,,,,,,,,,,,,,,,,,,,,,,,,,,,,,,,,,,,,,,,,,,,,,
1702545551,1702545551,24,0,4343.717773,4287.94873,4333.333496,4421.410156,4309.615234,4384.358887,4326.538574,4331.922852,4320.897461,4290.769043,4519.871582,4528.205078,4512.692383,4462.94873,0,4,75,,,,0,4,4,4,4,4,4,4,4,4,4,4,4,4,4,100,,,,,,,,,,,,,,,,,6,0,0.586175,-0.586792,-0.380127,-0.409363,0.921499,-0.337444,-0.009767,-16.456915,-3.330272,87.737396,,,,,,,,,,,,,,,,,,,,,,,,,,,,,,,,,,,,,,,,,,,,,,,,,,,,,,,,,,,,,,,,,,,,,,,,,,,,,,,,,,,,,,,,,,,,,,,,,,,,,,,,,,
1702545551,1702545551,25,0,4331.922852,4273.846191,4314.487305,4401.153809,4293.461426,4368.717773,4308.461426,4322.179688,4304.358887,4281.666504,4507.820313,4512.179688,4503.077148,4451.666504,0,4,75,,,,0,4,4,4,4,4,4,4,4,4,4,4,4,4,4,100,,,,,,,,,,,,,,,,,,,,,,,,,,,,,,,,,,,,,,,,,,,,,,,,,,,,,,,,,,,,,,,,,,,,,,,,,,,,,,,,,,,,,,,,,,,,,,,,,,,,,,,,,,,,,,,,,,,,,,,,,,,,,,,,,,,,,,
1702545551,1702545551,26,0,4338.205078,4280.641113,4313.205078,4408.717773,4311.282227,4371.410156,4309.743652,4322.307617,4309.102539,4294.743652,4515,4514.487305,4510.769043,4455.512695,0,4,75,,,,0,4,4,4,4,4,4,4,4,4,4,4,4,4,4,100,,,,,,,,,,,,,,,,,,,,,,,,,,,,,,,,,,,,,,,,,,,,,,,,,,,,,,,,,,,,,,,,,,,,,,,,,,,,,,,,,,,,,,,,,,,,,,,,,,,,,,,,,,,,,,,,,,,,,,,,,,,,,,,,,,,,,,
1702545551,1702545551,27,0,4347.307617,4296.282227,4321.282227,4419.358887,4316.922852,4381.282227,4320.512695,4329.615234,4320.512695,4293.589844,4521.025879,4519.102539,4508.974121,4463.589844,0,4,75,,,,0,4,4,4,4,4,4,4,4,4,4,4,4,4,4,100,,,,,,,,,,,,,,,,,,,,,,,,,,,,,,,,,,,,,,,,,,,,,,,,,,,,,,,,,,,,,,,,,,,,,,,,,,,,,,,,,,,,,,,,,,,,,,,,,,,,,,,,,,,,,,,,,,,,,,,,,,,,,,,,,,,,,,
1702545551,1702545551,28,0,4354.871582,4307.307617,4320.512695,4424.743652,4311.025879,4394.358887,4330.512695,4340,4332.179688,4281.666504,4522.436035,4528.461426,4512.820313,4472.436035,0,4,75,,,,0,4,4,4,4,4,4,4,4,4,4,4,4,4,4,100,,,,,,,,,,,,,,,,,7,0,0.586053,-0.586792,-0.380249,-0.409424,0.946405,-0.334513,-0.016604,-16.677891,-3.363912,87.630325,,,,,,,,,,,,,,,,,,,,,,,,,,,,,,,,,,,,,4.494182,2.856665,1.328367,0.73808,0.360073,15.639222,3.170856,3.110063,1.222199,0.460662,4.383711,2.7374,1.161947,0.730001,0.346867,19.225319,2.996098,1.786359,1.005111,0.439335,3.407529,2.248027,1.209438,2.797903,1.591115,67.051666,7.693753,3.161013,1.775384,0.792545,3.03423,1.805055,1.022565,0.68048,0.369009,5.180701,2.270259,0.706514,0.838536,0.217291,4.885999,2.461973,0.872259,1.166948,0.250206,4.650393,2.742065,1.956308,1.541779,1.143769,6.994742,5.764936,1.754965,1.029375,0.504467,6.82,4.529596,1.146789,1.135707,0.398477,31.979767,12.499339,4.00035,0.761594,0.834619,5.32583,3.275789,1.146061,0.925671,0.36544
1702545551,1702545551,29,0,4357.05127,4305.384766,4312.692383,4422.94873,4311.538574,4399.487305,4336.922852,4345.128418,4337.820313,4293.461426,4527.05127,4532.179688,4525.256348,4479.487305,0,4,75,,,,0,4,4,4,4,4,4,4,4,4,4,4,4,4,4,100,,,,,,,,,,,,,,,,,,,,,,,,,,,,,,,,,,,,,,,,,,,,,,,,,,,,,,,,,,,,,,,,,,,,,,,,,,,,,,,,,,,,,,,,,,,,,,,,,,,,,,,,,,,,,,,,,,,,,,,,,,,,,,,,,,,,,,
1702545551,1702545551,30,0,4347.94873,4296.538574,4309.102539,4413.077148,4302.692383,4392.307617,4335.384766,4339.102539,4331.153809,4308.846191,4527.179688,4523.717773,4517.05127,4474.358887,0,4,75,,,,0,4,4,4,4,4,4,4,4,4,4,4,4,4,4,100,,,,,,,,,,,,,,,,,,,,,,,,,,,,,,,,,,,,,,,,,,,,,,,,,,,,,,,,,,,,,,,,,,,,,,,,,,,,,,,,,,,,,,,,,,,,,,,,,,,,,,,,,,,,,,,,,,,,,,,,,,,,,,,,,,,,,,
1702545551,1702545551,31,0,4341.153809,4294.230957,4307.563965,4407.820313,4295.641113,4388.461426,4332.05127,4332.05127,4323.717773,4296.410156,4520.256348,4516.922852,4502.563965,4462.94873,0,4,75,,,,0,4,4,4,4,4,4,4,4,4,4,4,4,4,4,100,,,,,,,,,,,,,,,,,,,,,,,,,,,,,,,,,,,,,,,,,,,,,,,,,,,,,,,,,,,,,,,,,,,,,,,,,,,,,,,,,,,,,,,,,,,,,,,,,,,,,,,,,,,,,,,,,,,,,,,,,,,,,,,,,,,,,,
1702545551,1702545551,32,0,4348.717773,4298.717773,4311.666504,4412.94873,4313.333496,4393.205078,4335.128418,4331.282227,4323.846191,4277.179688,4519.743652,4523.717773,4509.871582,4465,0,4,75,,,,0,4,4,4,4,4,4,4,4,4,4,4,4,4,4,100,,,,,,,,,,,,,,,,,8,0,0.585748,-0.586853,-0.380493,-0.409546,0.929801,-0.333048,-0.00879,-16.526768,-3.510854,87.650627,,,,,,,,,,,,,,,,,,,,,,,,,,,,,,,,,,,,,,,,,,,,,,,,,,,,,,,,,,,,,,,,,,,,,,,,,,,,,,,,,,,,,,,,,,,,,,,,,,,,,,,,,,
1702545551,1702545551,33,0,4361.282227,4310.897461,4326.922852,4425.256348,4330,4398.974121,4343.589844,4333.846191,4324.358887,4278.846191,4527.563965,4535.641113,4521.153809,4479.615234,0,4,75,,,,0,4,4,4,4,4,4,4,4,4,4,4,4,4,4,100,,,,,,,,,,,,,,,,,,,,,,,,,,,,,,,,,,,,,,,,,,,,,,,,,,,,,,,,,,,,,,,,,,,,,,,,,,,,,,,,,,,,,,,,,,,,,,,,,,,,,,,,,,,,,,,,,,,,,,,,,,,,,,,,,,,,,,
1702545551,1702545551,34,0,4361.410156,4313.974121,4330.128418,4433.589844,4314.871582,4398.077148,4343.333496,4329.615234,4317.179688,4288.846191,4525,4533.974121,4522.563965,4479.487305,0,4,75,,,,0,4,4,4,4,4,4,4,4,4,4,4,4,4,4,100,,,,,,,,,,,,,,,,,,,,,,,,,,,,,,,,,,,,,,,,,,,,,,,,,,,,,,,,,,,,,,,,,,,,,,,,,,,,,,,,,,,,,,,,,,,,,,,,,,,,,,,,,,,,,,,,,,,,,,,,,,,,,,,,,,,,,,
1702545551,1702545551,35,0,4351.538574,4300.256348,4313.461426,4426.025879,4297.563965,4388.461426,4328.717773,4313.974121,4305.384766,4280.769043,4506.794922,4516.666504,4517.820313,4461.922852,0,4,75,,,,0,4,4,4,4,4,4,4,4,4,4,4,4,4,4,100,,,,,,,,,,,,,,,,,,,,,,,,,,,,,,,,,,,,,,,,,,,,,,,,,,,,,,,,,,,,,,,,,,,,,,,,,,,,,,,,,,,,,,,,,,,,,,,,,,,,,,,,,,,,,,,,,,,,,,,,,,,,,,,,,,,,,,
1702545551,1702545551,36,0,4345.256348,4294.871582,4305.641113,4421.794922,4312.820313,4380.128418,4317.563965,4307.307617,4299.871582,4265.512695,4496.922852,4503.717773,4510,4450.897461,0,4,75,,,,0,4,4,4,4,4,4,4,4,4,4,4,4,4,4,100,,,,,,,,,,,,,,,,,9,0,0.585507,-0.586853,-0.380798,-0.409607,0.931266,-0.342815,-0.01758,-16.640759,-3.443102,87.802231,,,,,,,,,,,,,,,,,,,,,,,,,,,,,,,,,,,,,,,,,,,,,,,,,,,,,,,,,,,,,,,,,,,,,,,,,,,,,,,,,,,,,,,,,,,,,,,,,,,,,,,,,,
1702545551,1702545551,37,0,4347.179688,4304.230957,4312.307617,4433.846191,4318.077148,4376.153809,4319.102539,4310.384766,4298.205078,4272.94873,4504.230957,4507.436035,4516.282227,4451.410156,0,4,75,,,,0,4,4,4,4,4,4,4,4,4,4,4,4,4,4,100,,,,,,,,,,,,,,,,,,,,,,,,,,,,,,,,,,,,,,,,,,,,,,,,,,,,,,,,,,,,,,,,,,,,,,,,,,,,,,,,,,,,,,,,,,,,,,,,,,,,,,,,,,,,,,,,,,,,,,,,,,,,,,,,,,,,,,
1702545551,1702545551,38,0,4340.769043,4301.922852,4312.436035,4433.974121,4299.743652,4371.794922,4320,4307.692383,4294.743652,4272.563965,4497.436035,4508.333496,4522.692383,4445,0,4,75,,,,0,4,4,4,4,4,4,4,4,4,4,4,4,4,4,100,,,,,,,,,,,,,,,,,,,,,,,,,,,,,,,,,,,,,,,,,,,,,,,,,,,,,,,,,,,,,,,,,,,,,,,,,,,,,,,,,,,,,,,,,,,,,,,,,,,,,,,,,,,,,,,,,,,,,,,,,,,,,,,,,,,,,,
1702545551,1702545551,39,0,4324.230957,4286.025879,4309.358887,4417.820313,4302.436035,4375.769043,4328.205078,4316.538574,4303.589844,4257.692383,4480,4506.794922,4512.05127,4429.230957,0,4,75,,,,0,4,4,4,4,4,4,4,4,4,4,4,4,4,4,100,,,,,,,,,,,,,,,,,,,,,,,,,,,,,,,,,,,,,,,,,,,,,,,,,,,,,,,,,,,,,,,,,,,,,,,,,,,,,,,,,,,,,,,,,,,,,,,,,,,,,,,,,,,,,,,,,,,,,,,,,,,,,,,,,,,,,,
1702545551,1702545551,40,0,4324.743652,4281.025879,4317.307617,4414.230957,4312.563965,4386.794922,4348.974121,4343.461426,4322.820313,4273.717773,4496.282227,4519.358887,4527.820313,4436.410156,0,4,75,,,,0,4,4,4,4,4,4,4,4,4,4,4,4,4,4,100,,,,,,,,,,,,,,,,,10,0,0.585146,-0.586853,-0.381287,-0.409668,0.926383,-0.335979,-0.013185,-16.643349,-3.565458,87.755341,,,,,,,,,,,,,,,,,,,,,,,,,,,,,,,,,,,,,,,,,,,,,,,,,,,,,,,,,,,,,,,,,,,,,,,,,,,,,,,,,,,,,,,,,,,,,,,,,,,,,,,,,,
1702545551,1702545551,41,0,4354.615234,4284.615234,4338.974121,4428.589844,4316.153809,4399.487305,4366.025879,4367.94873,4343.589844,4311.794922,4546.282227,4552.307617,4596.282227,4475,0,4,75,,,,0,4,4,4,4,4,4,4,4,4,4,4,4,4,4,100,,,,,,,,,,,,,,,,,,,,,,,,,,,,,,,,,,,,,,,,,,,,,,,,,,,,,,,,,,,,,,,,,,,,,,,,,,,,,,,,,,,,,,,,,,,,,,,,,,,,,,,,,,,,,,,,,,,,,,,,,,,,,,,,,,,,,,
1702545551,1702545551,42,0,4382.179688,4274.615234,4360.897461,4431.922852,4337.563965,4411.153809,4373.589844,4375.769043,4363.974121,4335.384766,4584.230957,4586.282227,4664.487305,4506.153809,0,4,75,,,,0,4,4,4,4,4,4,4,4,4,4,4,4,4,4,100,,,,,,,,,,,,,,,,,,,,,,,,,,,,,,,,,,,,,,,,,,,,,,,,,,,,,,,,,,,,,,,,,,,,,,,,,,,,,,,,,,,,,,,,,,,,,,,,,,,,,,,,,,,,,,,,,,,,,,,,,,,,,,,,,,,,,,
1702545551,1702545551,43,0,4386.922852,4252.436035,4367.307617,4416.666504,4345.384766,4408.205078,4377.179688,4376.794922,4372.94873,4345.769043,4603.205078,4598.589844,4700.897461,4519.358887,0,4,75,,,,0,4,4,4,4,4,4,4,4,4,4,4,4,4,4,100,,,,,,,,,,,,,,,,,,,,,,,,,,,,,,,,,,,,,,,,,,,,,,,,,,,,,,,,,,,,,,,,,,,,,,,,,,,,,,,,,,,,,,,,,,,,,,,,,,,,,,,,,,,,,,,,,,,,,,,,,,,,,,,,,,,,,,
1702545551,1702545551,44,0,4389.487305,4227.94873,4361.153809,4402.436035,4309.102539,4400.128418,4375.641113,4378.461426,4368.461426,4349.102539,4616.538574,4594.871582,4718.846191,4528.974121,0,4,75,,,,0,4,4,4,4,4,4,4,4,4,4,4,4,4,4,100,1,25,4,1,3,3,1,1,4,3,3,4,4,3,1,4,11,0,0.584832,-0.58667,-0.381592,-0.410095,0.928336,-0.335979,-0.006837,-16.612347,-3.625579,87.663139,,,,,,,,,,,,,,,,,,,,,,,,,,,,,,,,,,,,,5.664073,2.963703,1.283692,0.748055,0.319215,20.729177,3.194067,3.020318,1.171386,0.42667,5.491865,2.56405,1.24669,0.768115,0.343222,13.263394,3.256423,1.76169,0.984577,0.405576,3.894928,2.253928,1.154469,2.970284,1.659564,80.765472,9.116764,2.951503,1.905735,0.8748,3.536495,1.844218,0.91989,0.576379,0.351618,6.187924,2.458694,0.657497,0.791664,0.205236,6.100368,2.740006,0.953922,1.162902,0.247432,6.072899,3.098707,2.191668,1.647675,1.106293,9.192027,5.889263,1.871745,0.991418,0.432227,8.797062,4.625175,1.2652,1.182476,0.375982,36.461044,13.823138,4.748604,0.800599,0.736161,7.065365,3.078702,1.01929,0.968208,0.330124
1702545551,1702545551,45,0,4382.179688,4199.871582,4348.333496,4385.769043,4285.128418,4398.333496,4365.384766,4373.589844,4362.692383,4331.025879,4605.769043,4581.282227,4709.487305,4517.563965,0,4,75,,,,0,4,4,4,4,4,4,4,4,4,4,4,4,4,4,100,,,,,,,,,,,,,,,,,,,,,,,,,,,,,,,,,,,,,,,,,,,,,,,,,,,,,,,,,,,,,,,,,,,,,,,,,,,,,,,,,,,,,,,,,,,,,,,,,,,,,,,,,,,,,,,,,,,,,,,,,,,,,,,,,,,,,,
1702545551,1702545551,46,0,4360.769043,4180.384766,4339.230957,4370.512695,4301.153809,4386.666504,4357.692383,4367.820313,4360.897461,4308.974121,4582.820313,4569.102539,4691.538574,4495.897461,0,4,75,,,,0,4,4,4,4,4,4,4,4,4,4,4,4,4,4,100,,,,,,,,,,,,,,,,,,,,,,,,,,,,,,,,,,,,,,,,,,,,,,,,,,,,,,,,,,,,,,,,,,,,,,,,,,,,,,,,,,,,,,,,,,,,,,,,,,,,,,,,,,,,,,,,,,,,,,,,,,,,,,,,,,,,,,
1702545551,1702545551,47,0,4353.974121,4178.974121,4340,4367.436035,4302.436035,4361.666504,4358.333496,4364.230957,4352.436035,4312.436035,4579.871582,4566.538574,4690.769043,4496.922852,0,4,75,,,,0,4,4,4,4,4,4,4,4,4,4,4,4,4,4,100,,,,,,,,,,,,,,,,,,,,,,,,,,,,,,,,,,,,,,,,,,,,,,,,,,,,,,,,,,,,,,,,,,,,,,,,,,,,,,,,,,,,,,,,,,,,,,,,,,,,,,,,,,,,,,,,,,,,,,,,,,,,,,,,,,,,,,
1702545551,1702545551,48,0,4359.230957,4184.102539,4342.307617,4369.230957,4296.282227,4352.94873,4359.230957,4360.897461,4340.384766,4323.205078,4584.615234,4568.846191,4687.563965,4504.743652,0,4,75,,,,0,4,4,4,4,4,4,4,4,4,4,4,4,4,4,100,,,,,,,,,,,,,,,,,12,0,0.584721,-0.586365,-0.381836,-0.410461,0.932731,-0.333537,-0.010255,-16.701113,-3.396355,87.546822,,,,,,,,,,,,,,,,,,,,,,,,,,,,,,,,,,,,,,,,,,,,,,,,,,,,,,,,,,,,,,,,,,,,,,,,,,,,,,,,,,,,,,,,,,,,,,,,,,,,,,,,,,
1702545551,1702545551,49,0,4361.025879,4194.102539,4345.384766,4376.922852,4316.025879,4364.487305,4358.333496,4362.820313,4342.307617,4319.358887,4581.025879,4568.333496,4674.871582,4504.615234,0,4,75,,,,0,4,4,4,4,4,4,4,4,4,4,4,4,4,4,100,,,,,,,,,,,,,,,,,,,,,,,,,,,,,,,,,,,,,,,,,,,,,,,,,,,,,,,,,,,,,,,,,,,,,,,,,,,,,,,,,,,,,,,,,,,,,,,,,,,,,,,,,,,,,,,,,,,,,,,,,,,,,,,,,,,,,,
1702545551,1702545551,50,0,4362.307617,4203.205078,4349.615234,4385,4324.743652,4365.256348,4357.820313,4362.436035,4349.615234,4313.717773,4578.205078,4565.384766,4670.256348,4504.102539,0,4,75,,,,0,4,4,4,4,4,4,4,4,4,4,4,4,4,4,100,,,,,,,,,,,,,,,,,,,,,,,,,,,,,,,,,,,,,,,,,,,,,,,,,,,,,,,,,,,,,,,,,,,,,,,,,,,,,,,,,,,,,,,,,,,,,,,,,,,,,,,,,,,,,,,,,,,,,,,,,,,,,,,,,,,,,,
1702545551,1702545551,51,0,4368.333496,4202.563965,4356.282227,4385.769043,4312.05127,4361.282227,4358.205078,4359.358887,4346.922852,4326.025879,4586.153809,4570.769043,4682.820313,4507.94873,0,4,75,,,,0,4,4,4,4,4,4,4,4,4,4,4,4,4,4,100,,,,,,,,,,,,,,,,,,,,,,,,,,,,,,,,,,,,,,,,,,,,,,,,,,,,,,,,,,,,,,,,,,,,,,,,,,,,,,,,,,,,,,,,,,,,,,,,,,,,,,,,,,,,,,,,,,,,,,,,,,,,,,,,,,,,,,
1702545551,1702545551,52,0,4367.179688,4193.077148,4357.563965,4378.717773,4309.871582,4366.025879,4355.384766,4359.487305,4341.666504,4332.307617,4594.871582,4572.692383,4690.512695,4507.563965,0,4,75,,,,0,4,4,4,4,4,4,4,4,4,4,4,4,4,4,100,,,,,,,,,,,,,,,,,13,0,0.584709,-0.586121,-0.381836,-0.410828,0.918081,-0.334025,-0.004883,-16.664335,-3.356719,87.60881,,,,,,,,,,,,,,,,,,,,,,,,,,,,,,,,,,,,,,,,,,,,,,,,,,,,,,,,,,,,,,,,,,,,,,,,,,,,,,,,,,,,,,,,,,,,,,,,,,,,,,,,,,
1702545551,1702545551,53,0,4351.922852,4176.794922,4345.128418,4361.538574,4316.666504,4359.102539,4344.743652,4353.077148,4337.05127,4308.333496,4583.717773,4555.641113,4674.743652,4494.487305,0,4,75,,,,0,4,4,4,4,4,4,4,4,4,4,4,4,4,4,100,,,,,,,,,,,,,,,,,,,,,,,,,,,,,,,,,,,,,,,,,,,,,,,,,,,,,,,,,,,,,,,,,,,,,,,,,,,,,,,,,,,,,,,,,,,,,,,,,,,,,,,,,,,,,,,,,,,,,,,,,,,,,,,,,,,,,,
1702545551,1702545551,54,0,4338.846191,4166.025879,4336.282227,4343.077148,4312.179688,4341.666504,4334.615234,4345.384766,4331.538574,4295.256348,4566.282227,4539.871582,4664.615234,4481.794922,0,4,75,,,,0,4,4,4,4,4,4,4,4,4,4,4,4,4,4,100,,,,,,,,,,,,,,,,,,,,,,,,,,,,,,,,,,,,,,,,,,,,,,,,,,,,,,,,,,,,,,,,,,,,,,,,,,,,,,,,,,,,,,,,,,,,,,,,,,,,,,,,,,,,,,,,,,,,,,,,,,,,,,,,,,,,,,
1702545551,1702545551,55,0,4344.102539,4165.512695,4345.256348,4338.974121,4294.358887,4342.563965,4342.436035,4357.307617,4339.615234,4325,4577.436035,4550.128418,4684.358887,4489.487305,0,4,75,,,,0,4,4,4,4,4,4,4,4,4,4,4,4,4,4,100,,,,,,,,,,,,,,,,,,,,,,,,,,,,,,,,,,,,,,,,,,,,,,,,,,,,,,,,,,,,,,,,,,,,,,,,,,,,,,,,,,,,,,,,,,,,,,,,,,,,,,,,,,,,,,,,,,,,,,,,,,,,,,,,,,,,,,
1702545551,1702545551,56,0,4349.487305,4158.717773,4348.717773,4336.410156,4276.025879,4352.820313,4352.820313,4367.94873,4344.487305,4333.077148,4586.538574,4559.615234,4693.974121,4494.487305,0,4,75,,,,0,4,4,4,4,4,4,4,4,4,4,4,4,4,4,100,,,,,,,,,,,,,,,,,14,0,0.584644,-0.585999,-0.381531,-0.411377,0.94201,-0.333537,-0.007325,-16.714567,-3.354381,87.697929,,,,,,,,,,,,,,,,,,,,,,,,,,,,,,,,,,,,,,,,,,,,,,,,,,,,,,,,,,,,,,,,,,,,,,,,,,,,,,,,,,,,,,,,,,,,,,,,,,,,,,,,,,
1702545552,1702545552,57,0,4336.410156,4146.025879,4335.512695,4321.794922,4289.102539,4352.436035,4349.743652,4359.487305,4336.922852,4303.974121,4569.102539,4547.692383,4674.230957,4478.333496,0,4,75,,,,0,4,4,4,4,4,4,4,4,4,4,4,4,4,4,100,,,,,,,,,,,,,,,,,,,,,,,,,,,,,,,,,,,,,,,,,,,,,,,,,,,,,,,,,,,,,,,,,,,,,,,,,,,,,,,,,,,,,,,,,,,,,,,,,,,,,,,,,,,,,,,,,,,,,,,,,,,,,,,,,,,,,,
1702545552,1702545552,58,0,4335,4147.563965,4334.871582,4316.538574,4317.563965,4363.717773,4351.794922,4362.436035,4346.794922,4313.461426,4569.487305,4545.384766,4674.615234,4478.205078,0,4,75,,,,0,4,4,4,4,4,4,4,4,4,4,4,4,4,4,100,,,,,,,,,,,,,,,,,,,,,,,,,,,,,,,,,,,,,,,,,,,,,,,,,,,,,,,,,,,,,,,,,,,,,,,,,,,,,,,,,,,,,,,,,,,,,,,,,,,,,,,,,,,,,,,,,,,,,,,,,,,,,,,,,,,,,,
1702545552,1702545552,59,0,4352.563965,4162.179688,4349.615234,4322.820313,4311.794922,4384.487305,4361.410156,4374.871582,4364.615234,4345.128418,4590.512695,4558.846191,4695.384766,4497.436035,0,4,75,,,,0,4,4,4,4,4,4,4,4,4,4,4,4,4,4,100,,,,,,,,,,,,,,,,,,,,,,,,,,,,,,,,,,,,,,,,,,,,,,,,,,,,,,,,,,,,,,,,,,,,,,,,,,,,,,,,,,,,,,,,,,,,,,,,,,,,,,,,,,,,,,,,,,,,,,,,,,,,,,,,,,,,,,
1702545552,1702545552,60,0,4354.871582,4168.717773,4352.820313,4318.846191,4296.794922,4381.922852,4357.563965,4367.563965,4354.358887,4331.410156,4588.974121,4557.563965,4693.589844,4497.179688,0,4,75,,,,0,4,4,4,4,4,4,4,4,4,4,4,4,4,4,100,,,,,,,,,,,,,,,,,15,0,0.584592,-0.585999,-0.381348,-0.411621,0.923941,-0.334513,-0.003907,-16.609777,-3.385609,87.644798,,,,,,,,,,,,,,,,,,,,,,,,,,,,,,,,,,,,,6.890757,2.985475,1.276624,0.777012,0.295532,25.812,3.401365,2.909685,1.156399,0.393827,6.713758,2.376179,1.370511,0.835645,0.343476,9.681674,3.534045,1.721805,1.050482,0.386987,4.565281,2.165225,1.087071,3.056744,1.846077,85.905273,9.748354,2.637358,1.944787,0.901868,3.948069,1.844332,0.883987,0.534593,0.348418,7.111218,2.550062,0.660572,0.737,0.21194,7.346375,2.851284,1.0164,1.104022,0.266038,7.562328,3.320501,2.261439,1.751236,1.055246,11.359784,5.875526,2.042609,0.977973,0.384788,10.767289,4.59824,1.490641,1.250387,0.376916,40.016819,14.099411,5.182755,0.880031,0.647552,8.771038,2.921204,1.004196,1.029833,0.307012
1702545552,1702545552,61,0,4347.820313,4166.410156,4349.743652,4314.615234,4303.974121,4369.487305,4348.846191,4352.94873,4338.205078,4316.666504,4577.307617,4547.692383,4684.743652,4488.461426,0,4,75,,,,0,4,4,4,4,4,4,4,4,4,4,4,4,4,4,100,,,,,,,,,,,,,,,,,,,,,,,,,,,,,,,,,,,,,,,,,,,,,,,,,,,,,,,,,,,,,,,,,,,,,,,,,,,,,,,,,,,,,,,,,,,,,,,,,,,,,,,,,,,,,,,,,,,,,,,,,,,,,,,,,,,,,,
1702545552,1702545552,62,0,4362.563965,4179.615234,4359.871582,4329.871582,4320.128418,4381.410156,4356.666504,4360.897461,4349.358887,4334.230957,4591.666504,4559.615234,4705.256348,4508.846191,0,4,75,,,,0,4,4,4,4,4,4,4,4,4,4,4,4,4,4,100,,,,,,,,,,,,,,,,,,,,,,,,,,,,,,,,,,,,,,,,,,,,,,,,,,,,,,,,,,,,,,,,,,,,,,,,,,,,,,,,,,,,,,,,,,,,,,,,,,,,,,,,,,,,,,,,,,,,,,,,,,,,,,,,,,,,,,
1702545552,1702545552,63,0,4379.743652,4198.077148,4370.384766,4346.153809,4329.487305,4401.666504,4368.077148,4376.922852,4360.256348,4342.05127,4607.05127,4577.692383,4731.025879,4528.077148,0,4,75,,,,0,4,4,4,4,4,4,4,4,4,4,4,4,4,4,100,,,,,,,,,,,,,,,,,,,,,,,,,,,,,,,,,,,,,,,,,,,,,,,,,,,,,,,,,,,,,,,,,,,,,,,,,,,,,,,,,,,,,,,,,,,,,,,,,,,,,,,,,,,,,,,,,,,,,,,,,,,,,,,,,,,,,,
1702545552,1702545552,64,0,4368.077148,4197.563965,4359.487305,4334.743652,4319.358887,4396.794922,4359.615234,4366.282227,4346.922852,4329.487305,4594.102539,4563.589844,4721.410156,4507.94873,5425,4,75,,,,0,4,4,4,4,4,4,4,4,4,4,4,4,4,4,100,,,,,,,,,,,,,,,,,16,0,0.584609,-0.585999,-0.380859,-0.412048,0.930778,-0.334513,-0.000488,-16.632133,-3.413715,87.663658,,,,,,,,,,,,,,,,,,,,,,,,,,,,,,,,,,,,,,,,,,,,,,,,,,,,,,,,,,,,,,,,,,,,,,,,,,,,,,,,,,,,,,,,,,,,,,,,,,,,,,,,,,
1702545552,1702545552,65,0,4356.153809,4192.94873,4351.153809,4321.666504,4306.282227,4381.922852,4348.205078,4352.563965,4343.589844,4323.717773,4580.384766,4546.153809,4708.717773,4492.05127,5517,4,75,,,,0,4,4,4,4,4,4,4,4,4,4,4,4,4,4,100,,,,,,,,,,,,,,,,,,,,,,,,,,,,,,,,,,,,,,,,,,,,,,,,,,,,,,,,,,,,,,,,,,,,,,,,,,,,,,,,,,,,,,,,,,,,,,,,,,,,,,,,,,,,,,,,,,,,,,,,,,,,,,,,,,,,,,
1702545552,1702545552,66,0,4370.384766,4202.05127,4362.436035,4332.436035,4306.282227,4387.05127,4352.179688,4364.487305,4360,4335.384766,4587.94873,4559.871582,4724.743652,4505.641113,5485,4,75,,,,0,4,4,4,4,4,4,4,4,4,4,4,4,4,4,100,,,,,,,,,,,,,,,,,,,,,,,,,,,,,,,,,,,,,,,,,,,,,,,,,,,,,,,,,,,,,,,,,,,,,,,,,,,,,,,,,,,,,,,,,,,,,,,,,,,,,,,,,,,,,,,,,,,,,,,,,,,,,,,,,,,,,,
1702545552,1702545552,67,0,4381.922852,4209.615234,4368.461426,4335.512695,4312.94873,4393.717773,4356.153809,4370.769043,4357.692383,4342.179688,4595.897461,4571.666504,4740.769043,4514.871582,5427,4,75,,,,0,4,4,4,4,4,4,4,4,4,4,4,4,4,4,100,,,,,,,,,,,,,,,,,,,,,,,,,,,,,,,,,,,,,,,,,,,,,,,,,,,,,,,,,,,,,,,,,,,,,,,,,,,,,,,,,,,,,,,,,,,,,,,,,,,,,,,,,,,,,,,,,,,,,,,,,,,,,,,,,,,,,,
1702545552,1702545552,68,0,4381.282227,4213.846191,4370.897461,4327.820313,4326.538574,4398.077148,4357.94873,4365.256348,4347.179688,4341.410156,4599.358887,4569.487305,4748.077148,4514.358887,5402,4,75,,,,0,4,4,4,4,4,4,4,4,4,4,4,4,4,4,100,,,,,,,,,,,,,,,,,17,0,0.584568,-0.58606,-0.380432,-0.412415,0.929313,-0.3267,0.00879,-16.535587,-3.38901,87.680626,,,,,,,,,,,,,,,,,,,,,,,,,,,,,,,,,,,,,,,,,,,,,,,,,,,,,,,,,,,,,,,,,,,,,,,,,,,,,,,,,,,,,,,,,,,,,,,,,,,,,,,,,,
1702545552,1702545552,69,0,4382.179688,4223.205078,4379.743652,4331.025879,4336.153809,4414.871582,4369.615234,4377.94873,4365.256348,4355.128418,4611.025879,4577.179688,4759.230957,4520.512695,5417,4,75,,,,0,4,4,4,4,4,4,4,4,4,4,4,4,4,4,100,,,,,,,,,,,,,,,,,,,,,,,,,,,,,,,,,,,,,,,,,,,,,,,,,,,,,,,,,,,,,,,,,,,,,,,,,,,,,,,,,,,,,,,,,,,,,,,,,,,,,,,,,,,,,,,,,,,,,,,,,,,,,,,,,,,,,,
1702545552,1702545552,70,0,4385.256348,4232.179688,4385.641113,4337.307617,4332.179688,4433.333496,4383.717773,4396.025879,4388.077148,4363.205078,4618.077148,4592.05127,4774.487305,4526.153809,5260,4,75,,,,0,4,4,4,4,4,4,4,4,4,4,4,4,4,4,100,,,,,,,,,,,,,,,,,,,,,,,,,,,,,,,,,,,,,,,,,,,,,,,,,,,,,,,,,,,,,,,,,,,,,,,,,,,,,,,,,,,,,,,,,,,,,,,,,,,,,,,,,,,,,,,,,,,,,,,,,,,,,,,,,,,,,,
1702545552,1702545552,71,0,4386.153809,4234.743652,4383.333496,4336.153809,4323.077148,4432.692383,4384.102539,4393.589844,4382.692383,4355.512695,4611.153809,4592.307617,4784.615234,4523.333496,5105,4,75,,,,0,4,4,4,4,4,4,4,4,4,4,4,4,4,4,100,,,,,,,,,,,,,,,,,,,,,,,,,,,,,,,,,,,,,,,,,,,,,,,,,,,,,,,,,,,,,,,,,,,,,,,,,,,,,,,,,,,,,,,,,,,,,,,,,,,,,,,,,,,,,,,,,,,,,,,,,,,,,,,,,,,,,,
1702545552,1702545552,72,0,4379.871582,4234.487305,4375.128418,4331.666504,4319.487305,4415.384766,4374.487305,4382.307617,4364.871582,4349.358887,4600.769043,4576.538574,4781.025879,4512.05127,5432,4,75,,,,0,4,4,4,4,4,4,4,4,4,4,4,4,4,4,100,,,,,,,,,,,,,,,,,18,0,0.584263,-0.58606,-0.380371,-0.412903,0.931754,-0.324747,-0.014162,-16.532028,-3.416776,87.695892,,,,,,,,,,,,,,,,,,,,,,,,,,,,,,,,,,,,,,,,,,,,,,,,,,,,,,,,,,,,,,,,,,,,,,,,,,,,,,,,,,,,,,,,,,,,,,,,,,,,,,,,,,
1702545552,1702545552,73,0,4376.025879,4242.05127,4373.717773,4335.512695,4327.05127,4414.743652,4373.461426,4382.05127,4365.897461,4347.05127,4600,4574.871582,4779.743652,4506.922852,5435,4,75,,,,0,4,4,4,4,4,4,4,4,4,4,4,4,4,4,100,,,,,,,,,,,,,,,,,,,,,,,,,,,,,,,,,,,,,,,,,,,,,,,,,,,,,,,,,,,,,,,,,,,,,,,,,,,,,,,,,,,,,,,,,,,,,,,,,,,,,,,,,,,,,,,,,,,,,,,,,,,,,,,,,,,,,,
1702545552,1702545552,74,0,4380.384766,4253.333496,4381.153809,4346.025879,4341.538574,4433.717773,4383.846191,4388.461426,4378.333496,4347.563965,4603.205078,4586.666504,4797.05127,4516.025879,6025,4,75,,,,0,4,4,4,4,4,4,4,4,4,4,4,4,4,4,100,,,,,,,,,,,,,,,,,,,,,,,,,,,,,,,,,,,,,,,,,,,,,,,,,,,,,,,,,,,,,,,,,,,,,,,,,,,,,,,,,,,,,,,,,,,,,,,,,,,,,,,,,,,,,,,,,,,,,,,,,,,,,,,,,,,,,,
1702545552,1702545552,75,0,4378.974121,4252.563965,4380.512695,4344.743652,4336.410156,4434.358887,4384.615234,4384.615234,4376.410156,4357.436035,4593.333496,4583.077148,4803.205078,4516.153809,6277,4,75,,,,0,4,4,4,4,4,4,4,4,4,4,4,4,4,4,100,,,,,,,,,,,,,,,,,,,,,,,,,,,,,,,,,,,,,,,,,,,,,,,,,,,,,,,,,,,,,,,,,,,,,,,,,,,,,,,,,,,,,,,,,,,,,,,,,,,,,,,,,,,,,,,,,,,,,,,,,,,,,,,,,,,,,,
1702545552,1702545552,76,0,4368.717773,4243.589844,4370.512695,4335.128418,4320.897461,4412.820313,4371.922852,4376.025879,4366.922852,4353.717773,4582.05127,4566.922852,4784.102539,4503.974121,6850,4,75,,,,0,4,4,4,4,4,4,4,4,4,4,4,4,4,4,100,,,,,,,,,,,,,,,,,19,0,0.58395,-0.586121,-0.380493,-0.413147,0.917592,-0.333537,-0.009278,-16.378824,-3.575098,87.826302,,,,,,,,,,,,,,,,,,,,,,,,,,,,,,,,,,,,,7.423159,2.893829,1.299358,0.795165,0.293226,28.200924,3.574405,2.665062,1.135832,0.37106,7.379667,2.194328,1.54791,0.881886,0.346359,8.033739,3.723196,1.649439,1.147766,0.389355,4.904104,1.992295,1.032652,3.015006,2.094246,79.902901,9.383532,2.219848,1.823321,0.857853,4.011761,1.823822,0.917726,0.528234,0.35431,7.46316,2.551183,0.720128,0.675504,0.233735,8.019227,2.816693,1.064544,0.987456,0.304408,8.442839,3.337081,2.163472,1.845255,1.010766,12.716334,5.724515,2.278742,0.974924,0.365064,11.894299,4.442826,1.832801,1.286799,0.396431,43.254074,13.167171,5.313961,0.97818,0.577549,9.655507,2.860389,1.107237,1.069779,0.303098
1702545552,1702545552,77,0,4365.769043,4246.666504,4370.769043,4338.717773,4326.538574,4412.05127,4371.025879,4376.922852,4364.615234,4333.846191,4581.282227,4566.025879,4778.077148,4502.820313,7189,4,75,,,,0,4,4,4,4,4,4,4,4,4,4,4,4,4,4,100,,,,,,,,,,,,,,,,,,,,,,,,,,,,,,,,,,,,,,,,,,,,,,,,,,,,,,,,,,,,,,,,,,,,,,,,,,,,,,,,,,,,,,,,,,,,,,,,,,,,,,,,,,,,,,,,,,,,,,,,,,,,,,,,,,,,,,
1702545552,1702545552,78,0,4378.717773,4268.461426,4381.538574,4356.025879,4343.077148,4432.563965,4382.436035,4382.94873,4371.922852,4338.205078,4587.692383,4580.769043,4797.820313,4514.487305,6025,4,75,,,,0,4,4,4,4,4,4,4,4,4,4,4,4,4,4,100,,,,,,,,,,,,,,,,,,,,,,,,,,,,,,,,,,,,,,,,,,,,,,,,,,,,,,,,,,,,,,,,,,,,,,,,,,,,,,,,,,,,,,,,,,,,,,,,,,,,,,,,,,,,,,,,,,,,,,,,,,,,,,,,,,,,,,
1702545552,1702545552,79,0,4384.230957,4277.436035,4382.94873,4363.846191,4338.077148,4429.615234,4382.179688,4382.179688,4375.128418,4353.589844,4588.205078,4581.666504,4809.487305,4515.384766,6277,4,75,,,,0,4,4,4,4,4,4,4,4,4,4,4,4,4,4,100,,,,,,,,,,,,,,,,,,,,,,,,,,,,,,,,,,,,,,,,,,,,,,,,,,,,,,,,,,,,,,,,,,,,,,,,,,,,,,,,,,,,,,,,,,,,,,,,,,,,,,,,,,,,,,,,,,,,,,,,,,,,,,,,,,,,,,
1702545552,1702545552,80,0,4368.205078,4257.05127,4371.410156,4351.410156,4311.794922,4415.256348,4374.743652,4374.487305,4360.384766,4342.820313,4568.589844,4562.94873,4783.589844,4498.077148,6850,4,75,,,,0,4,4,4,4,4,4,4,4,4,4,4,4,4,4,100,,,,,,,,,,,,,,,,,20,0,0.583827,-0.586121,-0.380615,-0.413208,0.927359,-0.318398,-0.015139,-16.240942,-3.550922,87.810341,,,,,,,,,,,,,,,,,,,,,,,,,,,,,,,,,,,,,,,,,,,,,,,,,,,,,,,,,,,,,,,,,,,,,,,,,,,,,,,,,,,,,,,,,,,,,,,,,,,,,,,,,,
1702545552,1702545552,81,0,4351.410156,4241.538574,4361.410156,4337.94873,4311.025879,4416.025879,4371.538574,4366.794922,4347.94873,4321.282227,4549.358887,4546.666504,4753.974121,4485.769043,7189,4,75,,,,0,4,4,4,4,4,4,4,4,4,4,4,4,4,4,100,,,,,,,,,,,,,,,,,,,,,,,,,,,,,,,,,,,,,,,,,,,,,,,,,,,,,,,,,,,,,,,,,,,,,,,,,,,,,,,,,,,,,,,,,,,,,,,,,,,,,,,,,,,,,,,,,,,,,,,,,,,,,,,,,,,,,,
1702545552,1702545552,82,0,4357.05127,4255,4364.487305,4345.897461,4334.871582,4415.384766,4365.384766,4365.128418,4351.922852,4322.179688,4553.205078,4549.871582,4757.307617,4492.692383,6025,4,75,,,,0,4,4,4,4,4,4,4,4,4,4,4,4,4,4,100,,,,,,,,,,,,,,,,,,,,,,,,,,,,,,,,,,,,,,,,,,,,,,,,,,,,,,,,,,,,,,,,,,,,,,,,,,,,,,,,,,,,,,,,,,,,,,,,,,,,,,,,,,,,,,,,,,,,,,,,,,,,,,,,,,,,,,
1702545552,1702545552,83,0,4357.692383,4254.871582,4365.384766,4347.179688,4321.666504,4402.563965,4359.102539,4367.179688,4348.974121,4330,4552.563965,4553.077148,4753.974121,4491.410156,6277,4,75,,,,0,4,4,4,4,4,4,4,4,4,4,4,4,4,4,100,,,,,,,,,,,,,,,,,,,,,,,,,,,,,,,,,,,,,,,,,,,,,,,,,,,,,,,,,,,,,,,,,,,,,,,,,,,,,,,,,,,,,,,,,,,,,,,,,,,,,,,,,,,,,,,,,,,,,,,,,,,,,,,,,,,,,,
1702545552,1702545552,84,0,4341.025879,4229.230957,4353.461426,4327.05127,4286.922852,4389.102539,4354.871582,4361.666504,4334.615234,4313.333496,4539.743652,4545.128418,4738.333496,4477.94873,6850,4,75,,,,0,4,4,4,4,4,4,4,4,4,4,4,4,4,4,100,,,,,,,,,,,,,,,,,21,0,0.583625,-0.586243,-0.380737,-0.413208,0.921988,-0.322305,-0.008302,-16.200182,-3.579163,87.84597,,,,,,,,,,,,,,,,,,,,,,,,,,,,,,,,,,,,,,,,,,,,,,,,,,,,,,,,,,,,,,,,,,,,,,,,,,,,,,,,,,,,,,,,,,,,,,,,,,,,,,,,,,
1702545552,1702545552,85,0,4348.717773,4222.179688,4352.05127,4324.743652,4288.974121,4383.205078,4349.487305,4356.025879,4334.487305,4308.333496,4554.358887,4546.282227,4766.282227,4487.820313,7189,4,75,,,,0,4,4,4,4,4,4,4,4,4,4,4,4,4,4,100,,,,,,,,,,,,,,,,,,,,,,,,,,,,,,,,,,,,,,,,,,,,,,,,,,,,,,,,,,,,,,,,,,,,,,,,,,,,,,,,,,,,,,,,,,,,,,,,,,,,,,,,,,,,,,,,,,,,,,,,,,,,,,,,,,,,,,
1702545552,1702545552,86,0,4366.794922,4219.102539,4360,4328.205078,4298.333496,4386.282227,4349.230957,4359.102539,4342.05127,4334.358887,4583.077148,4555.384766,4815.769043,4508.589844,6025,4,75,,,,0,4,4,4,4,4,4,4,4,4,4,4,4,4,4,100,,,,,,,,,,,,,,,,,,,,,,,,,,,,,,,,,,,,,,,,,,,,,,,,,,,,,,,,,,,,,,,,,,,,,,,,,,,,,,,,,,,,,,,,,,,,,,,,,,,,,,,,,,,,,,,,,,,,,,,,,,,,,,,,,,,,,,
1702545552,1702545552,87,0,4364.743652,4189.102539,4361.794922,4304.871582,4292.05127,4395.641113,4355.384766,4364.358887,4343.717773,4343.846191,4589.230957,4561.666504,4836.922852,4516.538574,6277,4,75,,,,0,4,4,4,4,4,4,4,4,4,4,4,4,4,4,100,,,,,,,,,,,,,,,,,,,,,,,,,,,,,,,,,,,,,,,,,,,,,,,,,,,,,,,,,,,,,,,,,,,,,,,,,,,,,,,,,,,,,,,,,,,,,,,,,,,,,,,,,,,,,,,,,,,,,,,,,,,,,,,,,,,,,,
1702545552,1702545552,88,0,4376.922852,4178.974121,4376.282227,4298.205078,4313.846191,4404.358887,4367.436035,4377.436035,4361.794922,4345.128418,4610.641113,4583.077148,4869.358887,4537.307617,6850,4,75,,,,0,4,4,4,4,4,4,4,4,4,4,4,4,4,4,100,,,,,,,,,,,,,,,,,22,0,0.583466,-0.586487,-0.380737,-0.413086,0.928336,-0.322793,-0.012209,-16.263496,-3.587913,87.92804,,,,,,,,,,,,,,,,,,,,,,,,,,,,,,,,,,,,,,,,,,,,,,,,,,,,,,,,,,,,,,,,,,,,,,,,,,,,,,,,,,,,,,,,,,,,,,,,,,,,,,,,,,
1702545552,1702545552,89,0,4405.897461,4198.974121,4402.820313,4316.282227,4331.922852,4416.922852,4382.692383,4396.153809,4391.666504,4370.769043,4656.025879,4615.641113,4918.974121,4569.358887,7189,4,75,,,,0,4,4,4,4,4,4,4,4,4,4,4,4,4,4,100,,,,,,,,,,,,,,,,,,,,,,,,,,,,,,,,,,,,,,,,,,,,,,,,,,,,,,,,,,,,,,,,,,,,,,,,,,,,,,,,,,,,,,,,,,,,,,,,,,,,,,,,,,,,,,,,,,,,,,,,,,,,,,,,,,,,,,
1702545552,1702545552,90,0,4405.769043,4185.256348,4405.128418,4311.025879,4309.743652,4429.743652,4388.974121,4399.615234,4398.077148,4392.436035,4665.256348,4621.025879,4931.410156,4572.820313,6025,4,75,,,,0,4,4,4,4,4,4,4,4,4,4,4,4,4,4,100,,,,,,,,,,,,,,,,,,,,,,,,,,,,,,,,,,,,,,,,,,,,,,,,,,,,,,,,,,,,,,,,,,,,,,,,,,,,,,,,,,,,,,,,,,,,,,,,,,,,,,,,,,,,,,,,,,,,,,,,,,,,,,,,,,,,,,
1702545552,1702545552,91,0,4383.333496,4150.384766,4386.922852,4290.769043,4299.358887,4424.871582,4382.05127,4387.436035,4384.230957,4378.077148,4639.230957,4601.666504,4911.794922,4550.641113,6277,4,75,,,,0,4,4,4,4,4,4,4,4,4,4,4,4,4,4,100,,,,,,,,,,,,,,,,,,,,,,,,,,,,,,,,,,,,,,,,,,,,,,,,,,,,,,,,,,,,,,,,,,,,,,,,,,,,,,,,,,,,,,,,,,,,,,,,,,,,,,,,,,,,,,,,,,,,,,,,,,,,,,,,,,,,,,
1702545552,1702545552,92,0,4375.512695,4148.461426,4381.922852,4284.743652,4316.153809,4415.897461,4373.461426,4379.230957,4380.128418,4354.615234,4629.871582,4589.743652,4896.666504,4540.512695,6850,4,75,,,,0,4,4,4,4,4,4,4,4,4,4,4,4,4,4,100,,,,,,,,,,,,,,,,,23,0,0.583451,-0.586548,-0.380798,-0.412964,0.921011,-0.3267,-0.009767,-16.22048,-3.612455,87.868568,,,,,,,,,,,,,,,,,,,,,,,,,,,,,,,,,,,,,7.256525,2.702081,1.393964,0.818065,0.311222,26.979342,3.763482,2.341275,1.116595,0.365428,7.536818,2.008358,1.817369,0.89258,0.350928,7.746542,3.755712,1.557263,1.247658,0.41163,5.016254,1.756236,1.0516,2.877163,2.308981,65.291374,8.213415,1.765476,1.570541,0.754664,3.908073,1.818694,1.016854,0.545661,0.360499,7.438809,2.551849,0.831477,0.623049,0.264794,8.29073,2.769033,1.1293,0.847964,0.354937,8.853416,3.191006,1.988442,1.937929,0.988294,13.376987,5.524756,2.659252,1.003324,0.372751,12.270784,4.204196,2.319833,1.295853,0.429736,44.332932,11.444415,5.379999,1.118188,0.539001,9.706621,2.924845,1.353083,1.102249,0.323072
1702545552,1702545552,93,0,4373.333496,4159.615234,4385.641113,4282.05127,4313.461426,4410.384766,4362.94873,4376.666504,4378.717773,4358.974121,4633.461426,4591.025879,4894.743652,4542.179688,7189,4,75,,,,0,4,4,4,4,4,4,4,4,4,4,4,4,4,4,100,,,,,,,,,,,,,,,,,,,,,,,,,,,,,,,,,,,,,,,,,,,,,,,,,,,,,,,,,,,,,,,,,,,,,,,,,,,,,,,,,,,,,,,,,,,,,,,,,,,,,,,,,,,,,,,,,,,,,,,,,,,,,,,,,,,,,,
1702545552,1702545552,94,0,4365.128418,4152.563965,4381.153809,4277.820313,4298.717773,4398.974121,4352.436035,4371.025879,4363.717773,4366.922852,4621.410156,4587.436035,4892.692383,4536.153809,6025,4,75,,,,0,4,4,4,4,4,4,4,4,4,4,4,4,4,4,100,,,,,,,,,,,,,,,,,,,,,,,,,,,,,,,,,,,,,,,,,,,,,,,,,,,,,,,,,,,,,,,,,,,,,,,,,,,,,,,,,,,,,,,,,,,,,,,,,,,,,,,,,,,,,,,,,,,,,,,,,,,,,,,,,,,,,,
1702545552,1702545552,95,0,4357.436035,4137.179688,4374.487305,4277.179688,4293.333496,4390.641113,4350,4364.871582,4352.436035,4352.05127,4604.615234,4575.897461,4882.436035,4522.563965,6277,4,75,,,,0,4,4,4,4,4,4,4,4,4,4,4,4,4,4,100,,,,,,,,,,,,,,,,,,,,,,,,,,,,,,,,,,,,,,,,,,,,,,,,,,,,,,,,,,,,,,,,,,,,,,,,,,,,,,,,,,,,,,,,,,,,,,,,,,,,,,,,,,,,,,,,,,,,,,,,,,,,,,,,,,,,,,
1702545552,1702545552,96,0,4353.974121,4133.333496,4374.615234,4277.563965,4293.333496,4395.769043,4352.307617,4368.461426,4357.820313,4351.282227,4602.94873,4573.333496,4871.153809,4517.179688,6850,4,75,,,,0,4,4,4,4,4,4,4,4,4,4,4,4,4,4,100,,,,,,,,,,,,,,,,,24,0,0.583433,-0.586609,-0.380798,-0.412903,0.932243,-0.324258,-0.006348,-16.265099,-3.667876,87.815048,,,,,,,,,,,,,,,,,,,,,,,,,,,,,,,,,,,,,,,,,,,,,,,,,,,,,,,,,,,,,,,,,,,,,,,,,,,,,,,,,,,,,,,,,,,,,,,,,,,,,,,,,,
1702545552,1702545552,97,0,4359.615234,4146.794922,4382.563965,4289.102539,4309.358887,4410.256348,4366.410156,4386.538574,4373.717773,4362.94873,4616.666504,4584.487305,4873.974121,4528.333496,7189,4,75,,,,0,4,4,4,4,4,4,4,4,4,4,4,4,4,4,100,,,,,,,,,,,,,,,,,,,,,,,,,,,,,,,,,,,,,,,,,,,,,,,,,,,,,,,,,,,,,,,,,,,,,,,,,,,,,,,,,,,,,,,,,,,,,,,,,,,,,,,,,,,,,,,,,,,,,,,,,,,,,,,,,,,,,,
1702545552,1702545552,98,0,4369.358887,4163.461426,4386.922852,4305,4319.871582,4415.641113,4382.692383,4400,4385,4355.769043,4629.615234,4593.077148,4888.974121,4542.436035,6025,4,75,,,,0,4,4,4,4,4,4,4,4,4,4,4,4,4,4,100,,,,,,,,,,,,,,,,,,,,,,,,,,,,,,,,,,,,,,,,,,,,,,,,,,,,,,,,,,,,,,,,,,,,,,,,,,,,,,,,,,,,,,,,,,,,,,,,,,,,,,,,,,,,,,,,,,,,,,,,,,,,,,,,,,,,,,
1702545552,1702545552,99,0,4365.128418,4161.922852,4382.94873,4302.307617,4307.692383,4399.102539,4376.410156,4395.384766,4380.256348,4359.871582,4623.717773,4587.307617,4890,4537.436035,6277,4,75,,,,0,4,4,4,4,4,4,4,4,4,4,4,4,4,4,100,,,,,,,,,,,,,,,,,,,,,,,,,,,,,,,,,,,,,,,,,,,,,,,,,,,,,,,,,,,,,,,,,,,,,,,,,,,,,,,,,,,,,,,,,,,,,,,,,,,,,,,,,,,,,,,,,,,,,,,,,,,,,,,,,,,,,,
1702545552,1702545552,100,0,4349.487305,4152.820313,4377.692383,4293.333496,4304.743652,4383.333496,4366.922852,4394.871582,4380.384766,4376.282227,4612.05127,4581.922852,4871.153809,4522.692383,6850,4,75,,,,0,4,4,4,4,4,4,4,4,4,4,4,4,4,4,100,,,,,,,,,,,,,,,,,25,0,0.583386,-0.586609,-0.380737,-0.413025,0.932243,-0.340862,-0.010255,-16.38859,-3.567755,87.800209,,,,,,,,,,,,,,,,,,,,,,,,,,,,,,,,,,,,,,,,,,,,,,,,,,,,,,,,,,,,,,,,,,,,,,,,,,,,,,,,,,,,,,,,,,,,,,,,,,,,,,,,,,
1702545552,1702545552,101,0,4345.256348,4155.897461,4374.358887,4294.615234,4312.94873,4391.282227,4377.436035,4403.846191,4392.94873,4368.077148,4616.025879,4581.538574,4858.974121,4519.871582,7189,4,75,,,,0,4,4,4,4,4,4,4,4,4,4,4,4,4,4,100,,,,,,,,,,,,,,,,,,,,,,,,,,,,,,,,,,,,,,,,,,,,,,,,,,,,,,,,,,,,,,,,,,,,,,,,,,,,,,,,,,,,,,,,,,,,,,,,,,,,,,,,,,,,,,,,,,,,,,,,,,,,,,,,,,,,,,
1702545552,1702545552,102,0,4348.589844,4165.128418,4371.025879,4302.436035,4310.384766,4395.769043,4383.461426,4398.589844,4385.641113,4363.077148,4615.256348,4576.538574,4861.282227,4518.974121,6025,4,75,,,,0,4,4,4,4,4,4,4,4,4,4,4,4,4,4,100,,,,,,,,,,,,,,,,,,,,,,,,,,,,,,,,,,,,,,,,,,,,,,,,,,,,,,,,,,,,,,,,,,,,,,,,,,,,,,,,,,,,,,,,,,,,,,,,,,,,,,,,,,,,,,,,,,,,,,,,,,,,,,,,,,,,,,
1702545552,1702545552,103,0,4346.025879,4170,4373.077148,4309.871582,4310.128418,4379.487305,4372.307617,4384.487305,4366.922852,4369.358887,4604.871582,4571.410156,4857.179688,4509.871582,6277,4,75,,,,0,4,4,4,4,4,4,4,4,4,4,4,4,4,4,100,,,,,,,,,,,,,,,,,,,,,,,,,,,,,,,,,,,,,,,,,,,,,,,,,,,,,,,,,,,,,,,,,,,,,,,,,,,,,,,,,,,,,,,,,,,,,,,,,,,,,,,,,,,,,,,,,,,,,,,,,,,,,,,,,,,,,,
1702545552,1702545552,104,0,4343.077148,4166.282227,4380.256348,4311.282227,4311.666504,4370,4359.615234,4375.128418,4362.692383,4351.282227,4600.512695,4569.487305,4841.538574,4505.769043,6850,4,75,,,,0,4,4,4,4,4,4,4,4,4,4,4,4,4,4,100,,,,,,,,,,,,,,,,,26,0,0.58322,-0.586609,-0.380859,-0.413147,0.930289,-0.321817,-0.003418,-16.633064,-3.477647,87.920189,,,,,,,,,,,,,,,,,,,,,,,,,,,,,,,,,,,,,,,,,,,,,,,,,,,,,,,,,,,,,,,,,,,,,,,,,,,,,,,,,,,,,,,,,,,,,,,,,,,,,,,,,,
1702545552,1702545552,105,0,4339.743652,4157.563965,4378.846191,4307.179688,4302.307617,4371.282227,4346.282227,4363.974121,4358.589844,4332.179688,4591.922852,4566.410156,4828.461426,4504.871582,7189,4,75,,,,0,4,4,4,4,4,4,4,4,4,4,4,4,4,4,100,,,,,,,,,,,,,,,,,,,,,,,,,,,,,,,,,,,,,,,,,,,,,,,,,,,,,,,,,,,,,,,,,,,,,,,,,,,,,,,,,,,,,,,,,,,,,,,,,,,,,,,,,,,,,,,,,,,,,,,,,,,,,,,,,,,,,,
1702545552,1702545552,106,0,4346.282227,4162.563965,4384.230957,4322.820313,4318.077148,4379.358887,4347.563965,4368.717773,4359.615234,4347.307617,4591.538574,4572.307617,4824.871582,4511.025879,6025,4,75,,,,0,4,4,4,4,4,4,4,4,4,4,4,4,4,4,100,,,,,,,,,,,,,,,,,,,,,,,,,,,,,,,,,,,,,,,,,,,,,,,,,,,,,,,,,,,,,,,,,,,,,,,,,,,,,,,,,,,,,,,,,,,,,,,,,,,,,,,,,,,,,,,,,,,,,,,,,,,,,,,,,,,,,,
1702545552,1702545552,107,0,4368.205078,4183.717773,4405.256348,4354.102539,4339.358887,4396.153809,4366.666504,4392.563965,4380.256348,4374.615234,4614.743652,4594.102539,4829.615234,4529.487305,6277,4,75,,,,0,4,4,4,4,4,4,4,4,4,4,4,4,4,4,100,,,,,,,,,,,,,,,,,,,,,,,,,,,,,,,,,,,,,,,,,,,,,,,,,,,,,,,,,,,,,,,,,,,,,,,,,,,,,,,,,,,,,,,,,,,,,,,,,,,,,,,,,,,,,,,,,,,,,,,,,,,,,,,,,,,,,,
1702545552,1702545552,108,0,4374.358887,4193.461426,4408.846191,4356.794922,4317.692383,4399.358887,4370.897461,4396.922852,4391.410156,4389.615234,4620.384766,4598.974121,4833.077148,4534.102539,6850,4,75,,,,0,4,4,4,4,4,4,4,4,4,4,4,4,4,4,100,1,25,4,1,4,1,3,1,4,4,4,4,4,4,1,4,27,0,0.583,-0.586609,-0.380798,-0.413513,0.920523,-0.33256,-0.000977,-16.619757,-3.413215,87.794838,,,,,,,,,,,,,,,,,,,,,,,,,,,,,,,,,,,,,6.342301,2.437256,1.612878,0.868266,0.344217,22.791676,4.045112,2.064929,1.104493,0.379299,7.008343,1.783592,2.196723,0.873865,0.357437,7.534063,3.637485,1.50028,1.327684,0.446412,4.595745,1.470604,1.203329,2.698633,2.405068,46.226608,6.690577,1.421051,1.275936,0.629326,3.614771,1.864576,1.178917,0.574149,0.359237,6.967829,2.652398,0.982308,0.589555,0.2995,7.964352,2.847981,1.233135,0.726176,0.40939,8.578374,2.993846,1.85967,2.020293,0.992871,13.28989,5.433262,3.250651,1.077578,0.406011,11.76896,3.949172,2.941804,1.299709,0.473449,46.196434,9.926073,5.665349,1.315585,0.547101,8.920376,3.086236,1.757023,1.151812,0.367352
1702545552,1702545552,109,0,4351.282227,4182.692383,4387.692383,4336.666504,4296.922852,4381.282227,4361.410156,4380,4375.512695,4369.615234,4594.871582,4572.94873,4818.974121,4510.641113,7189,4,75,,,,0,4,4,4,4,4,4,4,4,4,4,4,4,4,4,100,,,,,,,,,,,,,,,,,,,,,,,,,,,,,,,,,,,,,,,,,,,,,,,,,,,,,,,,,,,,,,,,,,,,,,,,,,,,,,,,,,,,,,,,,,,,,,,,,,,,,,,,,,,,,,,,,,,,,,,,,,,,,,,,,,,,,,
1702545552,1702545552,110,0,4328.846191,4169.871582,4371.922852,4325.897461,4314.743652,4372.820313,4361.922852,4376.410156,4359.358887,4327.307617,4577.692383,4553.461426,4788.461426,4489.615234,6025,4,75,,,,0,4,4,4,4,4,4,4,4,4,4,4,4,4,4,100,,,,,,,,,,,,,,,,,,,,,,,,,,,,,,,,,,,,,,,,,,,,,,,,,,,,,,,,,,,,,,,,,,,,,,,,,,,,,,,,,,,,,,,,,,,,,,,,,,,,,,,,,,,,,,,,,,,,,,,,,,,,,,,,,,,,,,
1702545552,1702545552,111,0,4323.461426,4167.05127,4369.615234,4321.282227,4318.333496,4375.384766,4363.333496,4380.769043,4356.666504,4324.487305,4573.333496,4554.102539,4768.077148,4486.794922,6277,4,75,,,,0,4,4,4,4,4,4,4,4,4,4,4,4,4,4,100,,,,,,,,,,,,,,,,,,,,,,,,,,,,,,,,,,,,,,,,,,,,,,,,,,,,,,,,,,,,,,,,,,,,,,,,,,,,,,,,,,,,,,,,,,,,,,,,,,,,,,,,,,,,,,,,,,,,,,,,,,,,,,,,,,,,,,
1702545552,1702545552,112,0,4328.205078,4175,4373.717773,4319.487305,4296.153809,4361.538574,4356.794922,4378.589844,4361.922852,4350.384766,4574.230957,4554.871582,4770.384766,4489.743652,6850,4,75,,,,0,4,4,4,4,4,4,4,4,4,4,4,4,4,4,100,,,,,,,,,,,,,,,,,28,0,0.582951,-0.586426,-0.380493,-0.414124,0.929313,-0.33549,-0.001465,-16.691114,-3.555227,87.76535,,,,,,,,,,,,,,,,,,,,,,,,,,,,,,,,,,,,,,,,,,,,,,,,,,,,,,,,,,,,,,,,,,,,,,,,,,,,,,,,,,,,,,,,,,,,,,,,,,,,,,,,,,
1702545552,1702545552,113,0,4334.358887,4179.743652,4380.897461,4316.025879,4289.102539,4342.307617,4354.358887,4380.769043,4366.794922,4348.205078,4580.641113,4554.487305,4771.410156,4489.871582,7189,4,75,,,,0,4,4,4,4,4,4,4,4,4,4,4,4,4,4,100,,,,,,,,,,,,,,,,,,,,,,,,,,,,,,,,,,,,,,,,,,,,,,,,,,,,,,,,,,,,,,,,,,,,,,,,,,,,,,,,,,,,,,,,,,,,,,,,,,,,,,,,,,,,,,,,,,,,,,,,,,,,,,,,,,,,,,
1702545552,1702545552,114,0,4337.692383,4181.922852,4383.077148,4298.333496,4296.666504,4337.563965,4356.153809,4384.358887,4367.563965,4342.436035,4578.077148,4563.333496,4759.358887,4492.820313,6025,4,75,,,,0,4,4,4,4,4,4,4,4,4,4,4,4,4,4,100,,,,,,,,,,,,,,,,,,,,,,,,,,,,,,,,,,,,,,,,,,,,,,,,,,,,,,,,,,,,,,,,,,,,,,,,,,,,,,,,,,,,,,,,,,,,,,,,,,,,,,,,,,,,,,,,,,,,,,,,,,,,,,,,,,,,,,
1702545552,1702545552,115,0,4345.512695,4196.794922,4383.205078,4286.794922,4306.153809,4342.692383,4353.333496,4382.179688,4367.436035,4358.205078,4576.794922,4570.769043,4754.871582,4504.871582,6277,4,75,,,,0,4,4,4,4,4,4,4,4,4,4,4,4,4,4,100,,,,,,,,,,,,,,,,,,,,,,,,,,,,,,,,,,,,,,,,,,,,,,,,,,,,,,,,,,,,,,,,,,,,,,,,,,,,,,,,,,,,,,,,,,,,,,,,,,,,,,,,,,,,,,,,,,,,,,,,,,,,,,,,,,,,,,
1702545552,1702545552,116,0,4355.641113,4209.871582,4383.717773,4294.743652,4313.205078,4342.692383,4346.922852,4376.410156,4357.307617,4342.820313,4582.307617,4563.846191,4750.769043,4512.307617,6850,4,75,,,,0,4,4,4,4,4,4,4,4,4,4,4,4,4,4,100,,,,,,,,,,,,,,,,,29,0,0.582915,-0.586609,-0.380066,-0.414307,0.915151,-0.329142,-0.011232,-16.755337,-3.483038,87.738815,,,,,,,,,,,,,,,,,,,,,,,,,,,,,,,,,,,,,,,,,,,,,,,,,,,,,,,,,,,,,,,,,,,,,,,,,,,,,,,,,,,,,,,,,,,,,,,,,,,,,,,,,,
1702545552,1702545552,117,0,4352.820313,4203.589844,4374.230957,4294.487305,4301.794922,4329.230957,4337.563965,4365.256348,4338.333496,4309.102539,4566.794922,4550.769043,4724.743652,4506.025879,7189,4,75,,,,0,4,4,4,4,4,4,4,4,4,4,4,4,4,4,100,,,,,,,,,,,,,,,,,,,,,,,,,,,,,,,,,,,,,,,,,,,,,,,,,,,,,,,,,,,,,,,,,,,,,,,,,,,,,,,,,,,,,,,,,,,,,,,,,,,,,,,,,,,,,,,,,,,,,,,,,,,,,,,,,,,,,,
1702545552,1702545552,118,0,4344.743652,4197.563965,4368.077148,4287.563965,4275.769043,4322.94873,4332.307617,4358.461426,4334.615234,4315.512695,4549.102539,4548.333496,4696.153809,4503.717773,6025,4,75,,,,0,4,4,4,4,4,4,4,4,4,4,4,4,4,4,100,,,,,,,,,,,,,,,,,,,,,,,,,,,,,,,,,,,,,,,,,,,,,,,,,,,,,,,,,,,,,,,,,,,,,,,,,,,,,,,,,,,,,,,,,,,,,,,,,,,,,,,,,,,,,,,,,,,,,,,,,,,,,,,,,,,,,,
1702545552,1702545552,119,0,4345.897461,4203.077148,4375.256348,4293.461426,4276.025879,4335.769043,4334.871582,4364.487305,4346.282227,4330,4559.871582,4552.436035,4682.94873,4506.922852,6277,4,75,,,,0,4,4,4,4,4,4,4,4,4,4,4,4,4,4,100,,,,,,,,,,,,,,,,,,,,,,,,,,,,,,,,,,,,,,,,,,,,,,,,,,,,,,,,,,,,,,,,,,,,,,,,,,,,,,,,,,,,,,,,,,,,,,,,,,,,,,,,,,,,,,,,,,,,,,,,,,,,,,,,,,,,,,
1702545552,1702545552,120,0,4342.563965,4202.692383,4375.769043,4298.077148,4309.358887,4341.153809,4338.461426,4366.794922,4346.025879,4325,4564.487305,4544.230957,4665.512695,4500.128418,6850,4,75,,,,0,4,4,4,4,4,4,4,4,4,4,4,4,4,4,100,,,,,,,,,,,,,,,,,30,0,0.582948,-0.586853,-0.379639,-0.414307,0.927359,-0.322305,-0.007325,-16.746469,-3.551401,87.731606,,,,,,,,,,,,,,,,,,,,,,,,,,,,,,,,,,,,,,,,,,,,,,,,,,,,,,,,,,,,,,,,,,,,,,,,,,,,,,,,,,,,,,,,,,,,,,,,,,,,,,,,,,
1702545552,1702545552,121,0,4331.410156,4198.205078,4363.077148,4292.307617,4312.179688,4323.589844,4327.820313,4351.025879,4330.769043,4318.461426,4542.692383,4527.307617,4639.230957,4487.05127,7189,4,75,,,,0,4,4,4,4,4,4,4,4,4,4,4,4,4,4,100,,,,,,,,,,,,,,,,,,,,,,,,,,,,,,,,,,,,,,,,,,,,,,,,,,,,,,,,,,,,,,,,,,,,,,,,,,,,,,,,,,,,,,,,,,,,,,,,,,,,,,,,,,,,,,,,,,,,,,,,,,,,,,,,,,,,,,
1702545552,1702545552,122,0,4332.05127,4204.230957,4363.974121,4292.820313,4279.743652,4307.820313,4311.922852,4340.384766,4322.307617,4312.179688,4532.436035,4525.512695,4619.358887,4486.153809,6025,4,75,,,,0,4,4,4,4,4,4,4,4,4,4,4,4,4,4,100,,,,,,,,,,,,,,,,,,,,,,,,,,,,,,,,,,,,,,,,,,,,,,,,,,,,,,,,,,,,,,,,,,,,,,,,,,,,,,,,,,,,,,,,,,,,,,,,,,,,,,,,,,,,,,,,,,,,,,,,,,,,,,,,,,,,,,
1702545552,1702545552,123,0,4341.666504,4212.692383,4379.871582,4304.871582,4279.230957,4308.077148,4314.743652,4348.846191,4329.230957,4305.897461,4548.589844,4537.05127,4604.102539,4498.077148,6277,4,75,,,,0,4,4,4,4,4,4,4,4,4,4,4,4,4,4,100,,,,,,,,,,,,,,,,,,,,,,,,,,,,,,,,,,,,,,,,,,,,,,,,,,,,,,,,,,,,,,,,,,,,,,,,,,,,,,,,,,,,,,,,,,,,,,,,,,,,,,,,,,,,,,,,,,,,,,,,,,,,,,,,,,,,,,
1702545552,1702545552,124,0,4344.743652,4217.820313,4384.487305,4311.153809,4299.487305,4310.256348,4324.615234,4358.077148,4337.179688,4310.384766,4560.384766,4541.410156,4585.384766,4510.769043,6850,4,75,,,,0,4,4,4,4,4,4,4,4,4,4,4,4,4,4,100,,,,,,,,,,,,,,,,,31,0,0.582861,-0.586975,-0.379517,-0.414368,0.929801,-0.329142,-0.017092,-16.871822,-3.579594,87.691772,,,,,,,,,,,,,,,,,,,,,,,,,,,,,,,,,,,,,5.229983,2.195566,1.961077,0.944763,0.386464,16.594337,4.421154,1.950395,1.08501,0.413778,6.137866,1.525219,2.635266,0.832354,0.366877,7.210885,3.429922,1.511752,1.360538,0.484742,3.884946,1.186238,1.502382,2.515103,2.34878,28.65959,5.309207,1.327091,1.032473,0.524662,3.347162,1.989737,1.409096,0.597803,0.347784,6.396636,2.924136,1.166257,0.569485,0.333107,7.439746,3.177328,1.396088,0.64378,0.461469,8.008735,2.916857,1.867548,2.058047,1.02005,13.102585,5.712214,4.01019,1.179828,0.462986,10.891467,3.81177,3.606467,1.3043,0.524382,46.157681,9.72325,6.258789,1.546323,0.611499,7.924462,3.389637,2.296054,1.220018,0.431369
1702545552,1702545552,125,0,4341.410156,4217.179688,4376.794922,4308.461426,4292.307617,4308.077148,4325.897461,4359.615234,4337.820313,4319.102539,4555.897461,4538.846191,4558.717773,4509.102539,7189,4,75,,,,0,4,4,4,4,4,4,4,4,4,4,4,4,4,4,100,,,,,,,,,,,,,,,,,,,,,,,,,,,,,,,,,,,,,,,,,,,,,,,,,,,,,,,,,,,,,,,,,,,,,,,,,,,,,,,,,,,,,,,,,,,,,,,,,,,,,,,,,,,,,,,,,,,,,,,,,,,,,,,,,,,,,,
1702545552,1702545552,126,0,4339.230957,4207.692383,4371.666504,4306.922852,4287.692383,4306.282227,4325.769043,4358.717773,4341.153809,4325.128418,4549.615234,4534.743652,4530.769043,4496.282227,6025,4,75,,,,0,4,4,4,4,4,4,4,4,4,4,4,4,4,4,100,,,,,,,,,,,,,,,,,,,,,,,,,,,,,,,,,,,,,,,,,,,,,,,,,,,,,,,,,,,,,,,,,,,,,,,,,,,,,,,,,,,,,,,,,,,,,,,,,,,,,,,,,,,,,,,,,,,,,,,,,,,,,,,,,,,,,,
1702545552,1702545552,127,0,4339.358887,4204.743652,4369.487305,4311.153809,4299.615234,4308.589844,4328.333496,4358.589844,4341.922852,4324.230957,4548.846191,4530.897461,4513.717773,4492.820313,75,4,75,,,,0,4,4,4,4,4,4,4,4,4,4,4,4,4,4,100,,,,,,,,,,,,,,,,,,,,,,,,,,,,,,,,,,,,,,,,,,,,,,,,,,,,,,,,,,,,,,,,,,,,,,,,,,,,,,,,,,,,,,,,,,,,,,,,,,,,,,,,,,,,,,,,,,,,,,,,,,,,,,,,,,,,,,
1702545552,1702545552,0,0,4341.282227,4215.512695,4368.846191,4316.794922,4296.282227,4315.384766,4330.512695,4358.205078,4330.769043,4310.256348,4551.410156,4531.410156,4504.102539,4496.666504,5427,4,75,,,,0,4,4,4,4,4,4,4,4,4,4,4,4,4,4,100,,,,,,,,,,,,,,,,,0,0,0.582788,-0.587219,-0.379517,-0.414124,0.938591,-0.322305,0.005372,-16.917974,-3.454968,87.755928,,,,,,,,,,,,,,,,,,,,,,,,,,,,,,,,,,,,,,,,,,,,,,,,,,,,,,,,,,,,,,,,,,,,,,,,,,,,,,,,,,,,,,,,,,,,,,,,,,,,,,,,,,
1702545552,1702545552,1,0,4337.563965,4217.563965,4365.256348,4316.282227,4287.307617,4319.871582,4322.563965,4351.794922,4321.410156,4300.512695,4543.589844,4526.410156,4491.282227,4491.666504,5521,4,75,,,,0,4,4,4,4,4,4,4,4,4,4,4,4,4,4,100,,,,,,,,,,,,,,,,,,,,,,,,,,,,,,,,,,,,,,,,,,,,,,,,,,,,,,,,,,,,,,,,,,,,,,,,,,,,,,,,,,,,,,,,,,,,,,,,,,,,,,,,,,,,,,,,,,,,,,,,,,,,,,,,,,,,,,
1702545552,1702545552,2,0,4335.897461,4213.846191,4364.230957,4321.282227,4293.846191,4322.820313,4312.05127,4342.307617,4327.563965,4306.025879,4537.692383,4521.282227,4485.769043,4492.307617,5485,4,75,,,,0,4,4,4,4,4,4,4,4,4,4,4,4,4,4,100,,,,,,,,,,,,,,,,,,,,,,,,,,,,,,,,,,,,,,,,,,,,,,,,,,,,,,,,,,,,,,,,,,,,,,,,,,,,,,,,,,,,,,,,,,,,,,,,,,,,,,,,,,,,,,,,,,,,,,,,,,,,,,,,,,,,,,
1702545552,1702545552,3,0,4349.487305,4228.589844,4375.256348,4337.436035,4296.794922,4322.692383,4308.077148,4339.615234,4336.666504,4312.94873,4549.743652,4533.461426,4488.589844,4506.922852,5424,4,75,,,,0,4,4,4,4,4,4,4,4,4,4,4,4,4,4,100,,,,,,,,,,,,,,,,,,,,,,,,,,,,,,,,,,,,,,,,,,,,,,,,,,,,,,,,,,,,,,,,,,,,,,,,,,,,,,,,,,,,,,,,,,,,,,,,,,,,,,,,,,,,,,,,,,,,,,,,,,,,,,,,,,,,,,
1702545552,1702545552,4,0,4355,4241.282227,4381.538574,4340.512695,4283.589844,4313.717773,4301.794922,4342.692383,4336.666504,4313.846191,4559.230957,4542.307617,4478.589844,4512.307617,5387,4,75,,,,0,4,4,4,4,4,4,4,4,4,4,4,4,4,4,100,,,,,,,,,,,,,,,,,1,0,0.582842,-0.587341,-0.379578,-0.413818,0.927848,-0.328653,-0.012209,-16.90951,-3.642804,87.763672,,,,,,,,,,,,,,,,,,,,,,,,,,,,,,,,,,,,,,,,,,,,,,,,,,,,,,,,,,,,,,,,,,,,,,,,,,,,,,,,,,,,,,,,,,,,,,,,,,,,,,,,,,
1702545552,1702545552,5,0,4344.230957,4228.461426,4373.589844,4328.077148,4276.666504,4304.615234,4291.153809,4340.512695,4329.230957,4322.179688,4553.717773,4533.205078,4456.025879,4504.487305,5424,4,75,,,,0,4,4,4,4,4,4,4,4,4,4,4,4,4,4,100,,,,,,,,,,,,,,,,,,,,,,,,,,,,,,,,,,,,,,,,,,,,,,,,,,,,,,,,,,,,,,,,,,,,,,,,,,,,,,,,,,,,,,,,,,,,,,,,,,,,,,,,,,,,,,,,,,,,,,,,,,,,,,,,,,,,,,
1702545552,1702545552,6,0,4343.589844,4219.102539,4373.077148,4327.94873,4285.512695,4309.102539,4293.205078,4337.436035,4323.205078,4331.025879,4548.717773,4529.358887,4443.974121,4503.205078,5260,4,75,,,,0,4,4,4,4,4,4,4,4,4,4,4,4,4,4,100,,,,,,,,,,,,,,,,,,,,,,,,,,,,,,,,,,,,,,,,,,,,,,,,,,,,,,,,,,,,,,,,,,,,,,,,,,,,,,,,,,,,,,,,,,,,,,,,,,,,,,,,,,,,,,,,,,,,,,,,,,,,,,,,,,,,,,
1702545552,1702545552,7,0,4354.615234,4229.871582,4383.974121,4337.692383,4301.794922,4321.153809,4303.846191,4348.717773,4331.025879,4322.94873,4553.717773,4537.436035,4443.461426,4508.461426,5105,4,75,,,,0,4,4,4,4,4,4,4,4,4,4,4,4,4,4,100,,,,,,,,,,,,,,,,,,,,,,,,,,,,,,,,,,,,,,,,,,,,,,,,,,,,,,,,,,,,,,,,,,,,,,,,,,,,,,,,,,,,,,,,,,,,,,,,,,,,,,,,,,,,,,,,,,,,,,,,,,,,,,,,,,,,,,
1702545552,1702545552,8,0,4359.487305,4242.692383,4387.820313,4345.512695,4306.666504,4330.256348,4309.102539,4363.717773,4347.307617,4311.666504,4564.230957,4548.717773,4443.205078,4512.307617,5434,4,75,,,,0,4,4,4,4,4,4,4,4,4,4,4,4,4,4,100,,,,,,,,,,,,,,,,,2,0,0.582759,-0.587524,-0.379822,-0.413452,0.926383,-0.330607,-0.005372,-16.885225,-3.578524,87.753967,,,,,,,,,,,,,,,,,,,,,,,,,,,,,,,,,,,,,,,,,,,,,,,,,,,,,,,,,,,,,,,,,,,,,,,,,,,,,,,,,,,,,,,,,,,,,,,,,,,,,,,,,,
1702545552,1702545552,9,0,4358.461426,4250.256348,4384.487305,4352.94873,4295.897461,4333.846191,4311.282227,4363.974121,4352.692383,4318.589844,4566.922852,4552.563965,4441.666504,4510.897461,5439,4,75,,,,0,4,4,4,4,4,4,4,4,4,4,4,4,4,4,100,,,,,,,,,,,,,,,,,,,,,,,,,,,,,,,,,,,,,,,,,,,,,,,,,,,,,,,,,,,,,,,,,,,,,,,,,,,,,,,,,,,,,,,,,,,,,,,,,,,,,,,,,,,,,,,,,,,,,,,,,,,,,,,,,,,,,,
1702545552,1702545552,10,0,4359.615234,4257.692383,4382.820313,4355.384766,4298.205078,4332.563965,4311.922852,4356.410156,4348.461426,4334.871582,4558.974121,4545.897461,4442.179688,4506.922852,6057,4,75,,,,0,4,4,4,4,4,4,4,4,4,4,4,4,4,4,100,,,,,,,,,,,,,,,,,,,,,,,,,,,,,,,,,,,,,,,,,,,,,,,,,,,,,,,,,,,,,,,,,,,,,,,,,,,,,,,,,,,,,,,,,,,,,,,,,,,,,,,,,,,,,,,,,,,,,,,,,,,,,,,,,,,,,,
1702545552,1702545552,11,0,4360,4262.179688,4379.743652,4354.358887,4312.692383,4326.025879,4309.871582,4353.717773,4342.94873,4332.05127,4551.666504,4536.538574,4440.384766,4504.615234,6279,4,75,,,,0,4,4,4,4,4,4,4,4,4,4,4,4,4,4,100,,,,,,,,,,,,,,,,,,,,,,,,,,,,,,,,,,,,,,,,,,,,,,,,,,,,,,,,,,,,,,,,,,,,,,,,,,,,,,,,,,,,,,,,,,,,,,,,,,,,,,,,,,,,,,,,,,,,,,,,,,,,,,,,,,,,,,
1702545552,1702545552,12,0,4359.743652,4270,4380,4358.205078,4313.333496,4318.461426,4311.153809,4353.974121,4340.641113,4325.256348,4554.102539,4536.410156,4439.230957,4504.743652,6860,4,75,,,,0,4,4,4,4,4,4,4,4,4,4,4,4,4,4,100,,,,,,,,,,,,,,,,,3,0,0.582719,-0.587524,-0.379883,-0.413452,0.918569,-0.337444,-0.006837,-16.930037,-3.704005,87.761909,,,,,,,,,,,,,,,,,,,,,,,,,,,,,,,,,,,,,4.437099,2.07025,2.416973,1.02344,0.433632,11.186661,4.767039,2.011517,1.043313,0.470684,5.292898,1.280889,3.048316,0.775953,0.379114,6.663074,3.205807,1.587088,1.326967,0.519719,3.067563,0.964187,1.893164,2.329895,2.166065,16.498095,4.370341,1.554008,0.891101,0.470047,3.220185,2.180144,1.714583,0.607304,0.329589,5.944515,3.319013,1.391763,0.55359,0.362291,7.052303,3.744477,1.647627,0.606017,0.507035,7.535485,3.057305,2.035661,2.028366,1.060854,13.525996,6.480096,4.824347,1.270179,0.539554,10.300117,3.877281,4.201735,1.300039,0.577648,47.986416,11.42693,7.113687,1.74937,0.724891,7.336528,3.848323,2.939437,1.283828,0.506244
1702545552,1702545552,13,0,4363.589844,4277.94873,4386.538574,4361.538574,4309.487305,4317.563965,4317.307617,4355.512695,4346.666504,4336.282227,4562.94873,4545.128418,4447.563965,4505.384766,7202,4,75,,,,0,4,4,4,4,4,4,4,4,4,4,4,4,4,4,100,,,,,,,,,,,,,,,,,,,,,,,,,,,,,,,,,,,,,,,,,,,,,,,,,,,,,,,,,,,,,,,,,,,,,,,,,,,,,,,,,,,,,,,,,,,,,,,,,,,,,,,,,,,,,,,,,,,,,,,,,,,,,,,,,,,,,,
1702545552,1702545552,14,0,4369.871582,4282.05127,4392.05127,4364.358887,4306.794922,4327.307617,4321.922852,4357.436035,4352.179688,4343.461426,4571.410156,4552.307617,4459.102539,4506.666504,6057,4,75,,,,0,4,4,4,4,4,4,4,4,4,4,4,4,4,4,100,,,,,,,,,,,,,,,,,,,,,,,,,,,,,,,,,,,,,,,,,,,,,,,,,,,,,,,,,,,,,,,,,,,,,,,,,,,,,,,,,,,,,,,,,,,,,,,,,,,,,,,,,,,,,,,,,,,,,,,,,,,,,,,,,,,,,,
1702545552,1702545552,15,0,4369.743652,4289.615234,4389.743652,4366.282227,4301.794922,4329.743652,4321.410156,4359.743652,4353.205078,4336.282227,4573.974121,4552.179688,4464.743652,4508.974121,6279,4,75,,,,0,4,4,4,4,4,4,4,4,4,4,4,4,4,4,100,,,,,,,,,,,,,,,,,,,,,,,,,,,,,,,,,,,,,,,,,,,,,,,,,,,,,,,,,,,,,,,,,,,,,,,,,,,,,,,,,,,,,,,,,,,,,,,,,,,,,,,,,,,,,,,,,,,,,,,,,,,,,,,,,,,,,,
1702545552,1702545552,16,0,4363.077148,4290.769043,4385.769043,4355.512695,4313.461426,4317.820313,4320.641113,4364.487305,4358.205078,4335.256348,4573.333496,4547.179688,4464.615234,4505.641113,0,4,75,,,,0,4,4,4,4,4,4,4,4,4,4,4,4,4,4,100,,,,,,,,,,,,,,,,,4,0,0.582669,-0.587402,-0.379883,-0.413696,0.926871,-0.330118,-0.012209,-16.870365,-3.633604,87.669052,,,,,,,,,,,,,,,,,,,,,,,,,,,,,,,,,,,,,,,,,,,,,,,,,,,,,,,,,,,,,,,,,,,,,,,,,,,,,,,,,,,,,,,,,,,,,,,,,,,,,,,,,,
1702545552,1702545552,17,0,4358.077148,4282.307617,4380,4331.410156,4320.384766,4308.717773,4316.153809,4363.717773,4353.717773,4341.538574,4571.410156,4542.563965,4458.717773,4496.922852,0,4,75,,,,0,4,4,4,4,4,4,4,4,4,4,4,4,4,4,100,,,,,,,,,,,,,,,,,,,,,,,,,,,,,,,,,,,,,,,,,,,,,,,,,,,,,,,,,,,,,,,,,,,,,,,,,,,,,,,,,,,,,,,,,,,,,,,,,,,,,,,,,,,,,,,,,,,,,,,,,,,,,,,,,,,,,,
1702545552,1702545552,18,0,4356.025879,4282.820313,4374.487305,4314.743652,4302.820313,4311.025879,4312.94873,4356.153809,4342.307617,4333.461426,4567.05127,4537.563965,4455.897461,4491.538574,0,4,75,,,,0,4,4,4,4,4,4,4,4,4,4,4,4,4,4,100,,,,,,,,,,,,,,,,,,,,,,,,,,,,,,,,,,,,,,,,,,,,,,,,,,,,,,,,,,,,,,,,,,,,,,,,,,,,,,,,,,,,,,,,,,,,,,,,,,,,,,,,,,,,,,,,,,,,,,,,,,,,,,,,,,,,,,
1702545552,1702545552,19,0,4358.846191,4292.820313,4379.743652,4316.025879,4296.410156,4321.666504,4317.563965,4355.256348,4346.025879,4321.666504,4569.102539,4537.436035,4467.820313,4494.615234,0,4,75,,,,0,4,4,4,4,4,4,4,4,4,4,4,4,4,4,100,,,,,,,,,,,,,,,,,,,,,,,,,,,,,,,,,,,,,,,,,,,,,,,,,,,,,,,,,,,,,,,,,,,,,,,,,,,,,,,,,,,,,,,,,,,,,,,,,,,,,,,,,,,,,,,,,,,,,,,,,,,,,,,,,,,,,,
1702545552,1702545552,20,0,4360.256348,4293.717773,4384.871582,4319.102539,4309.615234,4325.641113,4317.94873,4357.179688,4353.717773,4328.077148,4569.230957,4539.743652,4474.102539,4495.384766,0,4,75,,,,0,4,4,4,4,4,4,4,4,4,4,4,4,4,4,100,,,,,,,,,,,,,,,,,5,0,0.582546,-0.587341,-0.3797,-0.414124,0.920034,-0.330607,-0.008302,-16.849997,-3.536911,87.468811,,,,,,,,,,,,,,,,,,,,,,,,,,,,,,,,,,,,,,,,,,,,,,,,,,,,,,,,,,,,,,,,,,,,,,,,,,,,,,,,,,,,,,,,,,,,,,,,,,,,,,,,,,
1702545552,1702545552,21,0,4349.358887,4288.205078,4375.769043,4312.179688,4314.487305,4301.922852,4310.384766,4351.538574,4345.256348,4336.666504,4558.974121,4530.384766,4463.461426,4482.563965,0,4,75,,,,0,4,4,4,4,4,4,4,4,4,4,4,4,4,4,100,,,,,,,,,,,,,,,,,,,,,,,,,,,,,,,,,,,,,,,,,,,,,,,,,,,,,,,,,,,,,,,,,,,,,,,,,,,,,,,,,,,,,,,,,,,,,,,,,,,,,,,,,,,,,,,,,,,,,,,,,,,,,,,,,,,,,,
1702545552,1702545552,22,0,4331.538574,4271.410156,4357.307617,4296.666504,4295.641113,4263.589844,4303.077148,4339.871582,4330.384766,4322.307617,4540.256348,4508.461426,4455.512695,4462.692383,0,4,75,,,,0,4,4,4,4,4,4,4,4,4,4,4,4,4,4,100,,,,,,,,,,,,,,,,,,,,,,,,,,,,,,,,,,,,,,,,,,,,,,,,,,,,,,,,,,,,,,,,,,,,,,,,,,,,,,,,,,,,,,,,,,,,,,,,,,,,,,,,,,,,,,,,,,,,,,,,,,,,,,,,,,,,,,
1702545552,1702545552,23,0,4321.025879,4248.974121,4344.358887,4280.897461,4273.077148,4241.282227,4297.179688,4332.436035,4323.461426,4306.666504,4523.333496,4491.153809,4457.692383,4451.025879,0,4,75,,,,0,4,4,4,4,4,4,4,4,4,4,4,4,4,4,100,,,,,,,,,,,,,,,,,,,,,,,,,,,,,,,,,,,,,,,,,,,,,,,,,,,,,,,,,,,,,,,,,,,,,,,,,,,,,,,,,,,,,,,,,,,,,,,,,,,,,,,,,,,,,,,,,,,,,,,,,,,,,,,,,,,,,,
1702545552,1702545552,24,0,4322.563965,4250.769043,4345.512695,4277.820313,4283.846191,4240.384766,4295.384766,4335,4323.461426,4311.153809,4525.641113,4491.794922,4458.717773,4448.846191,0,4,75,,,,0,4,4,4,4,4,4,4,4,4,4,4,4,4,4,100,,,,,,,,,,,,,,,,,6,0,0.582546,-0.587402,-0.379272,-0.414429,0.923941,-0.331095,-0.01465,-16.814997,-3.549886,87.5886,,,,,,,,,,,,,,,,,,,,,,,,,,,,,,,,,,,,,,,,,,,,,,,,,,,,,,,,,,,,,,,,,,,,,,,,,,,,,,,,,,,,,,,,,,,,,,,,,,,,,,,,,,
1702545552,1702545552,25,0,4324.102539,4263.846191,4351.666504,4279.743652,4302.692383,4242.436035,4297.05127,4338.846191,4323.205078,4313.717773,4535,4495.641113,4456.922852,4446.410156,0,4,75,,,,0,4,4,4,4,4,4,4,4,4,4,4,4,4,4,100,,,,,,,,,,,,,,,,,,,,,,,,,,,,,,,,,,,,,,,,,,,,,,,,,,,,,,,,,,,,,,,,,,,,,,,,,,,,,,,,,,,,,,,,,,,,,,,,,,,,,,,,,,,,,,,,,,,,,,,,,,,,,,,,,,,,,,
1702545552,1702545552,26,0,4324.230957,4262.94873,4355.769043,4271.922852,4288.333496,4245.512695,4295.128418,4339.615234,4321.794922,4304.102539,4534.615234,4496.794922,4465.384766,4449.358887,0,4,75,,,,0,4,4,4,4,4,4,4,4,4,4,4,4,4,4,100,,,,,,,,,,,,,,,,,,,,,,,,,,,,,,,,,,,,,,,,,,,,,,,,,,,,,,,,,,,,,,,,,,,,,,,,,,,,,,,,,,,,,,,,,,,,,,,,,,,,,,,,,,,,,,,,,,,,,,,,,,,,,,,,,,,,,,
1702545552,1702545552,27,0,4330.128418,4261.666504,4359.487305,4262.820313,4277.692383,4252.436035,4293.846191,4346.153809,4331.794922,4301.282227,4536.025879,4503.974121,4476.153809,4459.102539,0,4,75,,,,0,4,4,4,4,4,4,4,4,4,4,4,4,4,4,100,,,,,,,,,,,,,,,,,,,,,,,,,,,,,,,,,,,,,,,,,,,,,,,,,,,,,,,,,,,,,,,,,,,,,,,,,,,,,,,,,,,,,,,,,,,,,,,,,,,,,,,,,,,,,,,,,,,,,,,,,,,,,,,,,,,,,,
1702545552,1702545552,28,0,4332.820313,4265.128418,4362.820313,4260.512695,4281.922852,4258.077148,4297.94873,4355,4345.769043,4316.922852,4538.717773,4510.897461,4477.820313,4462.563965,0,4,75,,,,0,4,4,4,4,4,4,4,4,4,4,4,4,4,4,100,,,,,,,,,,,,,,,,,7,0,0.582639,-0.587402,-0.378662,-0.414856,0.929801,-0.336955,-0.00293,-16.866831,-3.478231,87.496407,,,,,,,,,,,,,,,,,,,,,,,,,,,,,,,,,,,,,4.288704,2.103344,2.930425,1.067295,0.481288,7.225739,4.892798,2.167676,0.97154,0.547587,4.743464,1.121361,3.348192,0.714152,0.391875,6.711822,3.004443,1.688238,1.224634,0.548166,2.446307,0.84448,2.265816,2.128278,1.932572,10.525921,3.872138,2.054854,0.841975,0.469132,3.290047,2.395236,2.076554,0.604127,0.310794,5.705797,3.709267,1.657116,0.538505,0.384275,6.988811,4.393007,1.988439,0.610628,0.542703,7.396836,3.371778,2.310771,1.947844,1.104838,14.801167,7.581968,5.510855,1.306457,0.626527,10.232634,4.108495,4.620916,1.270963,0.625045,50.077732,14.62633,7.96428,1.855145,0.85982,7.518198,4.400682,3.628877,1.306283,0.579484
1702545552,1702545552,29,0,4327.94873,4251.282227,4360.384766,4253.461426,4278.333496,4261.666504,4296.922852,4349.487305,4342.692383,4327.94873,4530.384766,4503.205078,4475,4460.641113,0,4,75,,,,0,4,4,4,4,4,4,4,4,4,4,4,4,4,4,100,,,,,,,,,,,,,,,,,,,,,,,,,,,,,,,,,,,,,,,,,,,,,,,,,,,,,,,,,,,,,,,,,,,,,,,,,,,,,,,,,,,,,,,,,,,,,,,,,,,,,,,,,,,,,,,,,,,,,,,,,,,,,,,,,,,,,,
1702545552,1702545552,30,0,4322.179688,4227.05127,4350.641113,4241.410156,4282.307617,4260.512695,4286.410156,4332.692383,4326.538574,4315.256348,4521.794922,4489.871582,4470.897461,4454.230957,0,4,75,,,,0,4,4,4,4,4,4,4,4,4,4,4,4,4,4,100,,,,,,,,,,,,,,,,,,,,,,,,,,,,,,,,,,,,,,,,,,,,,,,,,,,,,,,,,,,,,,,,,,,,,,,,,,,,,,,,,,,,,,,,,,,,,,,,,,,,,,,,,,,,,,,,,,,,,,,,,,,,,,,,,,,,,,
1702545552,1702545552,31,0,4319.358887,4224.358887,4343.333496,4239.358887,4289.358887,4262.820313,4279.615234,4326.025879,4315.769043,4304.358887,4522.179688,4485.641113,4463.974121,4446.794922,0,4,75,,,,0,4,4,4,4,4,4,4,4,4,4,4,4,4,4,100,,,,,,,,,,,,,,,,,,,,,,,,,,,,,,,,,,,,,,,,,,,,,,,,,,,,,,,,,,,,,,,,,,,,,,,,,,,,,,,,,,,,,,,,,,,,,,,,,,,,,,,,,,,,,,,,,,,,,,,,,,,,,,,,,,,,,,
1702545552,1702545552,32,0,4322.307617,4238.077148,4348.717773,4251.282227,4276.666504,4278.717773,4286.025879,4327.692383,4314.358887,4308.461426,4523.717773,4489.615234,4460,4448.974121,0,4,75,,,,0,4,4,4,4,4,4,4,4,4,4,4,4,4,4,100,,,,,,,,,,,,,,,,,8,0,0.582768,-0.587341,-0.378357,-0.415039,0.926383,-0.331095,0.006348,-16.780148,-3.413741,87.580093,,,,,,,,,,,,,,,,,,,,,,,,,,,,,,,,,,,,,,,,,,,,,,,,,,,,,,,,,,,,,,,,,,,,,,,,,,,,,,,,,,,,,,,,,,,,,,,,,,,,,,,,,,
1702545552,1702545552,33,0,4332.94873,4247.820313,4362.179688,4266.538574,4278.461426,4301.666504,4292.692383,4328.077148,4315.769043,4306.922852,4529.487305,4497.820313,4463.846191,4460.384766,0,4,75,,,,0,4,4,4,4,4,4,4,4,4,4,4,4,4,4,100,,,,,,,,,,,,,,,,,,,,,,,,,,,,,,,,,,,,,,,,,,,,,,,,,,,,,,,,,,,,,,,,,,,,,,,,,,,,,,,,,,,,,,,,,,,,,,,,,,,,,,,,,,,,,,,,,,,,,,,,,,,,,,,,,,,,,,
1702545552,1702545552,34,0,4344.487305,4258.205078,4371.153809,4279.102539,4308.589844,4321.153809,4294.871582,4336.025879,4325.384766,4306.282227,4538.717773,4506.666504,4463.077148,4470.897461,0,4,75,,,,0,4,4,4,4,4,4,4,4,4,4,4,4,4,4,100,,,,,,,,,,,,,,,,,,,,,,,,,,,,,,,,,,,,,,,,,,,,,,,,,,,,,,,,,,,,,,,,,,,,,,,,,,,,,,,,,,,,,,,,,,,,,,,,,,,,,,,,,,,,,,,,,,,,,,,,,,,,,,,,,,,,,,
1702545552,1702545552,35,0,4342.436035,4265.512695,4371.666504,4279.871582,4313.205078,4330.384766,4296.794922,4346.922852,4336.153809,4316.666504,4539.358887,4507.94873,4453.589844,4472.94873,0,4,75,,,,0,4,4,4,4,4,4,4,4,4,4,4,4,4,4,100,,,,,,,,,,,,,,,,,,,,,,,,,,,,,,,,,,,,,,,,,,,,,,,,,,,,,,,,,,,,,,,,,,,,,,,,,,,,,,,,,,,,,,,,,,,,,,,,,,,,,,,,,,,,,,,,,,,,,,,,,,,,,,,,,,,,,,
1702545552,1702545552,36,0,4328.077148,4254.615234,4362.94873,4268.589844,4284.102539,4328.717773,4289.358887,4339.487305,4332.436035,4318.589844,4528.205078,4493.205078,4445.128418,4463.974121,0,4,75,,,,0,4,4,4,4,4,4,4,4,4,4,4,4,4,4,100,,,,,,,,,,,,,,,,,9,0,0.582842,-0.58728,-0.377869,-0.415466,0.938103,-0.331095,0.004395,-16.668798,-3.3557,87.655418,,,,,,,,,,,,,,,,,,,,,,,,,,,,,,,,,,,,,,,,,,,,,,,,,,,,,,,,,,,,,,,,,,,,,,,,,,,,,,,,,,,,,,,,,,,,,,,,,,,,,,,,,,
1702545552,1702545552,37,0,4319.230957,4245.769043,4352.94873,4262.436035,4269.487305,4330.128418,4278.589844,4325.256348,4321.538574,4315.769043,4517.94873,4477.94873,4441.410156,4454.743652,0,4,75,,,,0,4,4,4,4,4,4,4,4,4,4,4,4,4,4,100,,,,,,,,,,,,,,,,,,,,,,,,,,,,,,,,,,,,,,,,,,,,,,,,,,,,,,,,,,,,,,,,,,,,,,,,,,,,,,,,,,,,,,,,,,,,,,,,,,,,,,,,,,,,,,,,,,,,,,,,,,,,,,,,,,,,,,
1702545552,1702545552,38,0,4324.102539,4258.333496,4353.461426,4267.307617,4289.102539,4346.922852,4286.794922,4329.615234,4322.179688,4316.794922,4520.897461,4479.871582,4440.384766,4456.025879,0,4,75,,,,0,4,4,4,4,4,4,4,4,4,4,4,4,4,4,100,,,,,,,,,,,,,,,,,,,,,,,,,,,,,,,,,,,,,,,,,,,,,,,,,,,,,,,,,,,,,,,,,,,,,,,,,,,,,,,,,,,,,,,,,,,,,,,,,,,,,,,,,,,,,,,,,,,,,,,,,,,,,,,,,,,,,,
1702545552,1702545552,39,0,4328.333496,4262.94873,4355.641113,4268.461426,4302.692383,4357.692383,4298.717773,4338.333496,4331.538574,4307.563965,4526.538574,4486.794922,4437.179688,4460.256348,0,4,75,,,,0,4,4,4,4,4,4,4,4,4,4,4,4,4,4,100,,,,,,,,,,,,,,,,,,,,,,,,,,,,,,,,,,,,,,,,,,,,,,,,,,,,,,,,,,,,,,,,,,,,,,,,,,,,,,,,,,,,,,,,,,,,,,,,,,,,,,,,,,,,,,,,,,,,,,,,,,,,,,,,,,,,,,
1702545552,1702545552,40,0,4324.230957,4251.410156,4351.025879,4266.282227,4283.461426,4349.487305,4291.794922,4329.615234,4328.077148,4305.256348,4518.077148,4479.102539,4425.641113,4456.025879,0,4,75,,,,0,4,4,4,4,4,4,4,4,4,4,4,4,4,4,100,,,,,,,,,,,,,,,,,10,0,0.58266,-0.58728,-0.377747,-0.415833,0.930778,-0.323282,-0.007325,-16.485252,-3.22013,87.889877,,,,,,,,,,,,,,,,,,,,,,,,,,,,,,,,,,,,,,,,,,,,,,,,,,,,,,,,,,,,,,,,,,,,,,,,,,,,,,,,,,,,,,,,,,,,,,,,,,,,,,,,,,
1702545552,1702545552,41,0,4316.410156,4246.410156,4342.05127,4264.230957,4258.589844,4338.974121,4275.769043,4309.871582,4310.256348,4311.153809,4497.563965,4461.410156,4406.794922,4442.563965,0,4,75,,,,0,4,4,4,4,4,4,4,4,4,4,4,4,4,4,100,,,,,,,,,,,,,,,,,,,,,,,,,,,,,,,,,,,,,,,,,,,,,,,,,,,,,,,,,,,,,,,,,,,,,,,,,,,,,,,,,,,,,,,,,,,,,,,,,,,,,,,,,,,,,,,,,,,,,,,,,,,,,,,,,,,,,,
1702545552,1702545552,42,0,4309.487305,4244.743652,4337.94873,4261.538574,4267.820313,4339.871582,4274.358887,4304.871582,4301.410156,4298.846191,4487.94873,4456.794922,4403.077148,4435.641113,0,4,75,,,,0,4,4,4,4,4,4,4,4,4,4,4,4,4,4,100,,,,,,,,,,,,,,,,,,,,,,,,,,,,,,,,,,,,,,,,,,,,,,,,,,,,,,,,,,,,,,,,,,,,,,,,,,,,,,,,,,,,,,,,,,,,,,,,,,,,,,,,,,,,,,,,,,,,,,,,,,,,,,,,,,,,,,
1702545552,1702545552,43,0,4312.563965,4244.230957,4345.769043,4267.692383,4285,4353.333496,4287.307617,4316.025879,4311.410156,4287.05127,4494.743652,4464.871582,4417.820313,4440.128418,0,4,75,,,,0,4,4,4,4,4,4,4,4,4,4,4,4,4,4,100,,,,,,,,,,,,,,,,,,,,,,,,,,,,,,,,,,,,,,,,,,,,,,,,,,,,,,,,,,,,,,,,,,,,,,,,,,,,,,,,,,,,,,,,,,,,,,,,,,,,,,,,,,,,,,,,,,,,,,,,,,,,,,,,,,,,,,
1702545552,1702545552,44,0,4312.307617,4248.205078,4346.153809,4271.282227,4269.230957,4356.794922,4287.563965,4315.512695,4312.179688,4291.025879,4489.871582,4459.615234,4413.077148,4435.641113,0,4,75,,,,0,4,4,4,4,4,4,4,4,4,4,4,4,4,4,100,1,25,4,3,4,1,3,1,4,4,4,4,4,4,1,4,11,0,0.582468,-0.587341,-0.377747,-0.416016,0.934684,-0.315468,-0.003907,-16.353394,-3.214784,87.850891,,,,,,,,,,,,,,,,,,,,,,,,,,,,,,,,,,,,,4.679784,2.237576,3.41763,1.047847,0.522612,5.66257,4.688744,2.279846,0.876932,0.633621,4.533365,1.068951,3.472915,0.655713,0.401315,7.928139,2.852427,1.750934,1.070926,0.568689,2.146177,0.81908,2.500288,1.890106,1.729676,8.825581,3.538345,2.690328,0.836397,0.501202,3.424535,2.57575,2.43398,0.591313,0.295164,5.517557,3.943177,1.936464,0.525664,0.396235,7.084703,4.8731,2.371274,0.655721,0.563864,7.469774,3.681965,2.587209,1.865232,1.139619,16.414572,8.589262,5.898556,1.265306,0.709748,10.515279,4.327834,4.802265,1.208164,0.656926,51.793995,18.030396,8.512965,1.820294,0.976141,8.251669,4.871476,4.273463,1.25987,0.636474
1702545552,1702545552,45,0,4298.846191,4240.256348,4330.769043,4262.436035,4262.05127,4345.128418,4272.94873,4305.128418,4301.153809,4283.846191,4475.256348,4444.615234,4396.922852,4423.846191,0,4,75,,,,0,4,4,4,4,4,4,4,4,4,4,4,4,4,4,100,,,,,,,,,,,,,,,,,,,,,,,,,,,,,,,,,,,,,,,,,,,,,,,,,,,,,,,,,,,,,,,,,,,,,,,,,,,,,,,,,,,,,,,,,,,,,,,,,,,,,,,,,,,,,,,,,,,,,,,,,,,,,,,,,,,,,,
1702545552,1702545552,46,0,4290,4218.846191,4322.563965,4258.205078,4280.256348,4340,4271.794922,4304.743652,4299.743652,4278.077148,4472.820313,4438.589844,4404.743652,4417.820313,0,4,75,,,,0,4,4,4,4,4,4,4,4,4,4,4,4,4,4,100,,,,,,,,,,,,,,,,,,,,,,,,,,,,,,,,,,,,,,,,,,,,,,,,,,,,,,,,,,,,,,,,,,,,,,,,,,,,,,,,,,,,,,,,,,,,,,,,,,,,,,,,,,,,,,,,,,,,,,,,,,,,,,,,,,,,,,
1702545552,1702545552,47,0,4294.871582,4216.153809,4330.769043,4269.358887,4277.563965,4344.358887,4280.897461,4312.820313,4304.230957,4292.307617,4476.025879,4443.589844,4418.461426,4418.461426,0,4,75,,,,0,4,4,4,4,4,4,4,4,4,4,4,4,4,4,100,,,,,,,,,,,,,,,,,,,,,,,,,,,,,,,,,,,,,,,,,,,,,,,,,,,,,,,,,,,,,,,,,,,,,,,,,,,,,,,,,,,,,,,,,,,,,,,,,,,,,,,,,,,,,,,,,,,,,,,,,,,,,,,,,,,,,,
1702545552,1702545552,48,0,4306.282227,4233.974121,4344.743652,4287.307617,4263.205078,4345.384766,4281.666504,4320.769043,4312.307617,4306.538574,4481.666504,4459.615234,4427.179688,4431.538574,0,4,75,,,,0,4,4,4,4,4,4,4,4,4,4,4,4,4,4,100,,,,,,,,,,,,,,,,,12,0,0.582251,-0.587524,-0.37793,-0.415894,0.940056,-0.345745,0.000977,-16.518055,-3.359972,87.749138,,,,,,,,,,,,,,,,,,,,,,,,,,,,,,,,,,,,,,,,,,,,,,,,,,,,,,,,,,,,,,,,,,,,,,,,,,,,,,,,,,,,,,,,,,,,,,,,,,,,,,,,,,
1702545552,1702545552,49,0,4315.256348,4235.641113,4353.589844,4297.436035,4271.538574,4345.641113,4281.538574,4330.128418,4323.589844,4312.563965,4495.256348,4475.384766,4442.563965,4449.358887,0,4,75,,,,0,4,4,4,4,4,4,4,4,4,4,4,4,4,4,100,,,,,,,,,,,,,,,,,,,,,,,,,,,,,,,,,,,,,,,,,,,,,,,,,,,,,,,,,,,,,,,,,,,,,,,,,,,,,,,,,,,,,,,,,,,,,,,,,,,,,,,,,,,,,,,,,,,,,,,,,,,,,,,,,,,,,,
1702545552,1702545552,50,0,4313.333496,4217.820313,4351.025879,4295.384766,4274.615234,4342.05127,4282.179688,4332.05127,4322.94873,4298.205078,4498.974121,4473.077148,4445.256348,4447.05127,0,4,75,,,,0,4,4,4,4,4,4,4,4,4,4,4,4,4,4,100,,,,,,,,,,,,,,,,,,,,,,,,,,,,,,,,,,,,,,,,,,,,,,,,,,,,,,,,,,,,,,,,,,,,,,,,,,,,,,,,,,,,,,,,,,,,,,,,,,,,,,,,,,,,,,,,,,,,,,,,,,,,,,,,,,,,,,
1702545552,1702545552,51,0,4302.820313,4207.94873,4337.820313,4291.025879,4259.871582,4329.102539,4268.974121,4316.153809,4303.333496,4264.358887,4478.333496,4454.615234,4424.743652,4430.128418,0,4,75,,,,0,4,4,4,4,4,4,4,4,4,4,4,4,4,4,100,,,,,,,,,,,,,,,,,,,,,,,,,,,,,,,,,,,,,,,,,,,,,,,,,,,,,,,,,,,,,,,,,,,,,,,,,,,,,,,,,,,,,,,,,,,,,,,,,,,,,,,,,,,,,,,,,,,,,,,,,,,,,,,,,,,,,,
1702545552,1702545552,52,0,4295,4201.282227,4329.358887,4291.153809,4264.102539,4328.077148,4263.205078,4307.05127,4290.384766,4262.94873,4458.589844,4443.077148,4409.102539,4417.692383,0,4,75,,,,0,4,4,4,4,4,4,4,4,4,4,4,4,4,4,100,,,,,,,,,,,,,,,,,13,0,0.582118,-0.587708,-0.378052,-0.41571,0.922964,-0.324747,-0.010743,-16.549582,-3.307308,87.72422,,,,,,,,,,,,,,,,,,,,,,,,,,,,,,,,,,,,,,,,,,,,,,,,,,,,,,,,,,,,,,,,,,,,,,,,,,,,,,,,,,,,,,,,,,,,,,,,,,,,,,,,,,
1702545552,1702545552,53,0,4290,4184.615234,4331.538574,4285.897461,4273.846191,4338.077148,4272.692383,4317.05127,4297.94873,4292.820313,4457.436035,4445,4412.179688,4413.589844,0,4,75,,,,0,4,4,4,4,4,4,4,4,4,4,4,4,4,4,100,,,,,,,,,,,,,,,,,,,,,,,,,,,,,,,,,,,,,,,,,,,,,,,,,,,,,,,,,,,,,,,,,,,,,,,,,,,,,,,,,,,,,,,,,,,,,,,,,,,,,,,,,,,,,,,,,,,,,,,,,,,,,,,,,,,,,,
1702545552,1702545552,54,0,4285.256348,4181.794922,4327.692383,4281.538574,4260.641113,4333.333496,4274.102539,4316.410156,4297.179688,4295.897461,4459.487305,4439.743652,4415.897461,4413.077148,0,4,75,,,,0,4,4,4,4,4,4,4,4,4,4,4,4,4,4,100,,,,,,,,,,,,,,,,,,,,,,,,,,,,,,,,,,,,,,,,,,,,,,,,,,,,,,,,,,,,,,,,,,,,,,,,,,,,,,,,,,,,,,,,,,,,,,,,,,,,,,,,,,,,,,,,,,,,,,,,,,,,,,,,,,,,,,
1702545552,1702545552,55,0,4274.743652,4183.974121,4312.820313,4277.436035,4249.230957,4315.641113,4258.461426,4296.410156,4278.846191,4263.974121,4449.230957,4418.205078,4398.461426,4400.256348,0,4,75,,,,0,4,4,4,4,4,4,4,4,4,4,4,4,4,4,100,,,,,,,,,,,,,,,,,,,,,,,,,,,,,,,,,,,,,,,,,,,,,,,,,,,,,,,,,,,,,,,,,,,,,,,,,,,,,,,,,,,,,,,,,,,,,,,,,,,,,,,,,,,,,,,,,,,,,,,,,,,,,,,,,,,,,,
1702545552,1702545552,56,0,4260.897461,4162.692383,4298.974121,4268.077148,4245.256348,4304.230957,4246.666504,4284.615234,4266.538574,4239.230957,4433.717773,4400.641113,4372.820313,4381.538574,0,4,75,,,,0,4,4,4,4,4,4,4,4,4,4,4,4,4,4,100,,,,,,,,,,,,,,,,,14,0,0.582079,-0.588013,-0.378174,-0.415222,0.919057,-0.327677,-0.009767,-16.544624,-3.259911,87.618469,,,,,,,,,,,,,,,,,,,,,,,,,,,,,,,,,,,,,,,,,,,,,,,,,,,,,,,,,,,,,,,,,,,,,,,,,,,,,,,,,,,,,,,,,,,,,,,,,,,,,,,,,,
1702545553,1702545553,57,0,4265.769043,4151.794922,4304.487305,4271.538574,4248.461426,4313.717773,4258.333496,4297.692383,4280.128418,4258.461426,4441.282227,4412.692383,4387.307617,4389.615234,0,4,75,,,,0,4,4,4,4,4,4,4,4,4,4,4,4,4,4,100,,,,,,,,,,,,,,,,,,,,,,,,,,,,,,,,,,,,,,,,,,,,,,,,,,,,,,,,,,,,,,,,,,,,,,,,,,,,,,,,,,,,,,,,,,,,,,,,,,,,,,,,,,,,,,,,,,,,,,,,,,,,,,,,,,,,,,
1702545553,1702545553,58,0,4282.05127,4175.769043,4319.871582,4289.743652,4273.589844,4333.974121,4276.794922,4319.358887,4307.05127,4298.333496,4468.589844,4436.410156,4424.743652,4412.307617,0,4,75,,,,0,4,4,4,4,4,4,4,4,4,4,4,4,4,4,100,,,,,,,,,,,,,,,,,,,,,,,,,,,,,,,,,,,,,,,,,,,,,,,,,,,,,,,,,,,,,,,,,,,,,,,,,,,,,,,,,,,,,,,,,,,,,,,,,,,,,,,,,,,,,,,,,,,,,,,,,,,,,,,,,,,,,,
1702545553,1702545553,59,0,4283.974121,4194.102539,4320.512695,4297.94873,4298.846191,4341.025879,4282.179688,4327.820313,4319.102539,4294.358887,4481.282227,4440.897461,4421.025879,4410.256348,0,4,75,,,,0,4,4,4,4,4,4,4,4,4,4,4,4,4,4,100,,,,,,,,,,,,,,,,,,,,,,,,,,,,,,,,,,,,,,,,,,,,,,,,,,,,,,,,,,,,,,,,,,,,,,,,,,,,,,,,,,,,,,,,,,,,,,,,,,,,,,,,,,,,,,,,,,,,,,,,,,,,,,,,,,,,,,
1702545553,1702545553,60,0,4276.538574,4185.641113,4316.282227,4294.615234,4299.871582,4336.025879,4286.153809,4327.05127,4315.512695,4272.307617,4472.307617,4435.897461,4404.230957,4398.077148,0,4,75,,,,0,4,4,4,4,4,4,4,4,4,4,4,4,4,4,100,,,,,,,,,,,,,,,,,15,0,0.582159,-0.588318,-0.378113,-0.414734,0.922964,-0.351117,-0.024905,-16.423494,-3.350586,87.539955,,,,,,,,,,,,,,,,,,,,,,,,,,,,,,,,,,,,,5.206522,2.339936,3.784745,0.965663,0.547077,5.760027,4.104608,2.24579,0.794479,0.709757,4.469625,1.070963,3.418205,0.615654,0.402549,10.669209,2.72049,1.730973,0.903879,0.578747,2.126718,0.823622,2.516179,1.607955,1.601614,9.225354,3.073578,3.296905,0.837209,0.538258,3.467293,2.641392,2.697823,0.574061,0.282962,5.127165,3.89204,2.195088,0.520767,0.395816,6.975019,4.947923,2.721385,0.741239,0.565325,7.382432,3.751004,2.758948,1.824062,1.149949,17.346605,8.97724,5.898664,1.158188,0.770339,10.604761,4.294926,4.747934,1.125822,0.663934,51.090336,20.076691,8.535816,1.650654,1.033826,8.927944,5.035119,4.760974,1.14865,0.662069
1702545553,1702545553,61,0,4278.077148,4183.205078,4322.820313,4295.641113,4283.974121,4333.333496,4295.897461,4329.871582,4310.512695,4285.897461,4466.666504,4438.717773,4417.05127,4401.794922,0,4,75,,,,0,4,4,4,4,4,4,4,4,4,4,4,4,4,4,100,,,,,,,,,,,,,,,,,,,,,,,,,,,,,,,,,,,,,,,,,,,,,,,,,,,,,,,,,,,,,,,,,,,,,,,,,,,,,,,,,,,,,,,,,,,,,,,,,,,,,,,,,,,,,,,,,,,,,,,,,,,,,,,,,,,,,,
1702545553,1702545553,62,0,4285,4201.922852,4329.358887,4297.05127,4273.974121,4325.641113,4294.871582,4332.563965,4310.641113,4299.102539,4470,4445.641113,4426.922852,4406.282227,0,4,75,,,,0,4,4,4,4,4,4,4,4,4,4,4,4,4,4,100,,,,,,,,,,,,,,,,,,,,,,,,,,,,,,,,,,,,,,,,,,,,,,,,,,,,,,,,,,,,,,,,,,,,,,,,,,,,,,,,,,,,,,,,,,,,,,,,,,,,,,,,,,,,,,,,,,,,,,,,,,,,,,,,,,,,,,
1702545553,1702545553,63,0,4297.820313,4226.410156,4338.077148,4306.922852,4286.922852,4319.871582,4295.128418,4335.512695,4317.179688,4297.05127,4482.05127,4459.487305,4430.512695,4415.512695,0,4,75,,,,0,4,4,4,4,4,4,4,4,4,4,4,4,4,4,100,,,,,,,,,,,,,,,,,,,,,,,,,,,,,,,,,,,,,,,,,,,,,,,,,,,,,,,,,,,,,,,,,,,,,,,,,,,,,,,,,,,,,,,,,,,,,,,,,,,,,,,,,,,,,,,,,,,,,,,,,,,,,,,,,,,,,,
1702545553,1702545553,64,0,4312.563965,4238.077148,4357.563965,4317.436035,4309.615234,4329.102539,4308.461426,4345.512695,4325.384766,4298.333496,4498.717773,4477.692383,4446.794922,4432.94873,5427,4,75,,,,0,4,4,4,4,4,4,4,4,4,4,4,4,4,4,100,,,,,,,,,,,,,,,,,16,0,0.581952,-0.58844,-0.378174,-0.414795,0.929313,-0.32963,-0.00586,-16.381145,-3.298861,87.452621,,,,,,,,,,,,,,,,,,,,,,,,,,,,,,,,,,,,,,,,,,,,,,,,,,,,,,,,,,,,,,,,,,,,,,,,,,,,,,,,,,,,,,,,,,,,,,,,,,,,,,,,,,
1702545553,1702545553,65,0,4304.102539,4229.743652,4353.717773,4291.410156,4298.461426,4325.769043,4302.820313,4340.512695,4317.05127,4284.871582,4486.922852,4469.358887,4440.641113,4423.333496,5522,4,75,,,,0,4,4,4,4,4,4,4,4,4,4,4,4,4,4,100,,,,,,,,,,,,,,,,,,,,,,,,,,,,,,,,,,,,,,,,,,,,,,,,,,,,,,,,,,,,,,,,,,,,,,,,,,,,,,,,,,,,,,,,,,,,,,,,,,,,,,,,,,,,,,,,,,,,,,,,,,,,,,,,,,,,,,
1702545553,1702545553,66,0,4287.05127,4223.846191,4331.794922,4262.563965,4282.94873,4310.256348,4286.410156,4325.641113,4302.563965,4273.974121,4463.333496,4450,4418.846191,4401.410156,5497,4,75,,,,0,4,4,4,4,4,4,4,4,4,4,4,4,4,4,100,,,,,,,,,,,,,,,,,,,,,,,,,,,,,,,,,,,,,,,,,,,,,,,,,,,,,,,,,,,,,,,,,,,,,,,,,,,,,,,,,,,,,,,,,,,,,,,,,,,,,,,,,,,,,,,,,,,,,,,,,,,,,,,,,,,,,,
1702545553,1702545553,67,0,4295.256348,4231.025879,4338.077148,4270.256348,4294.871582,4316.922852,4296.025879,4332.179688,4311.410156,4293.077148,4477.179688,4459.102539,4429.102539,4413.077148,5429,4,75,,,,0,4,4,4,4,4,4,4,4,4,4,4,4,4,4,100,,,,,,,,,,,,,,,,,,,,,,,,,,,,,,,,,,,,,,,,,,,,,,,,,,,,,,,,,,,,,,,,,,,,,,,,,,,,,,,,,,,,,,,,,,,,,,,,,,,,,,,,,,,,,,,,,,,,,,,,,,,,,,,,,,,,,,
1702545553,1702545553,68,0,4304.487305,4237.307617,4348.589844,4273.461426,4293.974121,4331.666504,4308.461426,4341.794922,4321.666504,4298.205078,4491.922852,4467.820313,4437.179688,4425.384766,5395,4,75,,,,0,4,4,4,4,4,4,4,4,4,4,4,4,4,4,100,,,,,,,,,,,,,,,,,17,0,0.581784,-0.588684,-0.378052,-0.414795,0.921499,-0.331095,-0.015139,-16.376364,-3.352308,87.47403,,,,,,,,,,,,,,,,,,,,,,,,,,,,,,,,,,,,,,,,,,,,,,,,,,,,,,,,,,,,,,,,,,,,,,,,,,,,,,,,,,,,,,,,,,,,,,,,,,,,,,,,,,
1702545553,1702545553,69,0,4294.743652,4238.589844,4336.794922,4255.384766,4284.487305,4326.666504,4298.974121,4335.897461,4316.666504,4282.820313,4477.563965,4457.94873,4421.666504,4411.282227,5424,4,75,,,,0,4,4,4,4,4,4,4,4,4,4,4,4,4,4,100,,,,,,,,,,,,,,,,,,,,,,,,,,,,,,,,,,,,,,,,,,,,,,,,,,,,,,,,,,,,,,,,,,,,,,,,,,,,,,,,,,,,,,,,,,,,,,,,,,,,,,,,,,,,,,,,,,,,,,,,,,,,,,,,,,,,,,
1702545553,1702545553,70,0,4296.922852,4245.769043,4336.666504,4258.717773,4290.512695,4321.153809,4297.692383,4337.05127,4323.205078,4293.846191,4479.102539,4463.589844,4425.897461,4411.794922,5262,4,75,,,,0,4,4,4,4,4,4,4,4,4,4,4,4,4,4,100,,,,,,,,,,,,,,,,,,,,,,,,,,,,,,,,,,,,,,,,,,,,,,,,,,,,,,,,,,,,,,,,,,,,,,,,,,,,,,,,,,,,,,,,,,,,,,,,,,,,,,,,,,,,,,,,,,,,,,,,,,,,,,,,,,,,,,
1702545553,1702545553,71,0,4312.05127,4255.769043,4352.307617,4276.538574,4300.641113,4321.922852,4305,4347.563965,4336.282227,4313.205078,4498.333496,4482.179688,4432.820313,4430.897461,5110,4,75,,,,0,4,4,4,4,4,4,4,4,4,4,4,4,4,4,100,,,,,,,,,,,,,,,,,,,,,,,,,,,,,,,,,,,,,,,,,,,,,,,,,,,,,,,,,,,,,,,,,,,,,,,,,,,,,,,,,,,,,,,,,,,,,,,,,,,,,,,,,,,,,,,,,,,,,,,,,,,,,,,,,,,,,,
1702545553,1702545553,72,0,4315.897461,4264.743652,4355.512695,4280.641113,4305.384766,4316.025879,4301.025879,4347.692383,4336.153809,4314.230957,4501.025879,4487.179688,4398.333496,4443.077148,5444,4,75,,,,0,4,4,4,4,4,4,4,4,4,4,4,4,4,4,100,,,,,,,,,,,,,,,,,18,0,0.581451,-0.588806,-0.378174,-0.414978,0.927359,-0.337932,-0.024417,-16.488728,-3.350411,87.409958,,,,,,,,,,,,,,,,,,,,,,,,,,,,,,,,,,,,,,,,,,,,,,,,,,,,,,,,,,,,,,,,,,,,,,,,,,,,,,,,,,,,,,,,,,,,,,,,,,,,,,,,,,
1702545553,1702545553,73,0,4314.358887,4275.256348,4349.358887,4280.256348,4302.820313,4310.384766,4294.615234,4334.230957,4324.487305,4304.230957,4492.563965,4478.205078,4350.384766,4441.794922,5452,4,75,,,,0,4,4,4,4,4,4,4,4,4,4,4,4,4,4,100,,,,,,,,,,,,,,,,,,,,,,,,,,,,,,,,,,,,,,,,,,,,,,,,,,,,,,,,,,,,,,,,,,,,,,,,,,,,,,,,,,,,,,,,,,,,,,,,,,,,,,,,,,,,,,,,,,,,,,,,,,,,,,,,,,,,,,
1702545553,1702545553,74,0,4313.846191,4277.436035,4344.358887,4278.461426,4292.436035,4308.589844,4291.282227,4323.077148,4312.94873,4287.05127,4489.230957,4470.897461,4332.563965,4431.666504,6062,4,75,,,,0,4,4,4,4,4,4,4,4,4,4,4,4,4,4,100,,,,,,,,,,,,,,,,,,,,,,,,,,,,,,,,,,,,,,,,,,,,,,,,,,,,,,,,,,,,,,,,,,,,,,,,,,,,,,,,,,,,,,,,,,,,,,,,,,,,,,,,,,,,,,,,,,,,,,,,,,,,,,,,,,,,,,
1702545553,1702545553,75,0,4314.487305,4281.282227,4344.871582,4277.94873,4288.974121,4308.461426,4292.692383,4327.179688,4312.94873,4294.487305,4491.153809,4478.077148,4343.077148,4431.153809,6290,4,75,,,,0,4,4,4,4,4,4,4,4,4,4,4,4,4,4,100,,,,,,,,,,,,,,,,,,,,,,,,,,,,,,,,,,,,,,,,,,,,,,,,,,,,,,,,,,,,,,,,,,,,,,,,,,,,,,,,,,,,,,,,,,,,,,,,,,,,,,,,,,,,,,,,,,,,,,,,,,,,,,,,,,,,,,
1702545553,1702545553,76,0,4309.102539,4283.077148,4344.230957,4274.487305,4291.794922,4305.897461,4293.589844,4327.307617,4312.436035,4308.974121,4484.102539,4475,4347.692383,4431.153809,6870,4,75,,,,0,4,4,4,4,4,4,4,4,4,4,4,4,4,4,100,,,,,,,,,,,,,,,,,19,0,0.581301,-0.588684,-0.377991,-0.415527,0.930778,-0.336467,-0.003907,-16.439856,-3.46537,87.452293,,,,,,,,,,,,,,,,,,,,,,,,,,,,,,,,,,,,,5.479651,2.288648,3.938133,0.854196,0.545023,6.973915,3.227731,2.072562,0.769233,0.754534,4.322751,1.049997,3.213701,0.611558,0.392094,13.990273,2.547046,1.636294,0.766536,0.573591,2.261376,0.801664,2.314465,1.304193,1.549261,10.614869,2.471063,3.754824,0.845699,0.561201,3.302671,2.557334,2.782168,0.554475,0.273061,4.390148,3.549998,2.388658,0.52659,0.383677,6.420716,4.559952,2.95192,0.859769,0.544982,6.876282,3.459658,2.757663,1.834802,1.125566,16.843655,8.456827,5.504589,1.025632,0.791497,10.020822,3.88667,4.487915,1.057257,0.641246,47.184422,19.833162,7.925138,1.400333,1.010815,9.015815,4.753687,4.962298,1.011172,0.646773
1702545553,1702545553,77,0,4288.846191,4263.846191,4327.307617,4256.922852,4282.94873,4293.205078,4283.205078,4311.153809,4296.666504,4275,4462.94873,4446.538574,4332.820313,4406.794922,7211,4,75,,,,0,4,4,4,4,4,4,4,4,4,4,4,4,4,4,100,,,,,,,,,,,,,,,,,,,,,,,,,,,,,,,,,,,,,,,,,,,,,,,,,,,,,,,,,,,,,,,,,,,,,,,,,,,,,,,,,,,,,,,,,,,,,,,,,,,,,,,,,,,,,,,,,,,,,,,,,,,,,,,,,,,,,,
1702545553,1702545553,78,0,4271.666504,4247.820313,4309.358887,4242.179688,4266.410156,4278.333496,4270.384766,4303.333496,4285.128418,4243.846191,4452.179688,4431.025879,4327.692383,4386.025879,6062,4,75,,,,0,4,4,4,4,4,4,4,4,4,4,4,4,4,4,100,,,,,,,,,,,,,,,,,,,,,,,,,,,,,,,,,,,,,,,,,,,,,,,,,,,,,,,,,,,,,,,,,,,,,,,,,,,,,,,,,,,,,,,,,,,,,,,,,,,,,,,,,,,,,,,,,,,,,,,,,,,,,,,,,,,,,,
1702545553,1702545553,79,0,4280.641113,4260.384766,4313.717773,4245.256348,4262.307617,4275.897461,4273.461426,4312.05127,4292.692383,4269.487305,4460.512695,4444.358887,4349.615234,4397.307617,6290,4,75,,,,0,4,4,4,4,4,4,4,4,4,4,4,4,4,4,100,,,,,,,,,,,,,,,,,,,,,,,,,,,,,,,,,,,,,,,,,,,,,,,,,,,,,,,,,,,,,,,,,,,,,,,,,,,,,,,,,,,,,,,,,,,,,,,,,,,,,,,,,,,,,,,,,,,,,,,,,,,,,,,,,,,,,,
1702545553,1702545553,80,0,4290.897461,4270.769043,4323.205078,4250.641113,4268.589844,4276.410156,4279.871582,4314.230957,4298.333496,4286.410156,4462.563965,4450.128418,4369.871582,4405.897461,6870,4,75,,,,0,4,4,4,4,4,4,4,4,4,4,4,4,4,4,100,,,,,,,,,,,,,,,,,20,0,0.581242,-0.588684,-0.377747,-0.415833,0.946405,-0.342815,-0.012697,-16.595869,-3.418833,87.640404,,,,,,,,,,,,,,,,,,,,,,,,,,,,,,,,,,,,,,,,,,,,,,,,,,,,,,,,,,,,,,,,,,,,,,,,,,,,,,,,,,,,,,,,,,,,,,,,,,,,,,,,,,
1702545553,1702545553,81,0,4282.563965,4253.846191,4316.282227,4244.230957,4265.512695,4267.692383,4275.384766,4308.333496,4293.846191,4270.512695,4457.692383,4440.384766,4375,4395.897461,7211,4,75,,,,0,4,4,4,4,4,4,4,4,4,4,4,4,4,4,100,,,,,,,,,,,,,,,,,,,,,,,,,,,,,,,,,,,,,,,,,,,,,,,,,,,,,,,,,,,,,,,,,,,,,,,,,,,,,,,,,,,,,,,,,,,,,,,,,,,,,,,,,,,,,,,,,,,,,,,,,,,,,,,,,,,,,,
1702545553,1702545553,82,0,4276.794922,4246.153809,4310.897461,4236.666504,4263.717773,4263.205078,4271.666504,4308.333496,4294.230957,4267.692383,4460.641113,4442.563965,4387.692383,4392.563965,6062,4,75,,,,0,4,4,4,4,4,4,4,4,4,4,4,4,4,4,100,,,,,,,,,,,,,,,,,,,,,,,,,,,,,,,,,,,,,,,,,,,,,,,,,,,,,,,,,,,,,,,,,,,,,,,,,,,,,,,,,,,,,,,,,,,,,,,,,,,,,,,,,,,,,,,,,,,,,,,,,,,,,,,,,,,,,,
1702545553,1702545553,83,0,4280.512695,4252.692383,4312.179688,4230.641113,4262.563965,4263.974121,4273.077148,4309.358887,4294.358887,4271.282227,4460.769043,4447.179688,4407.563965,4392.94873,6290,4,75,,,,0,4,4,4,4,4,4,4,4,4,4,4,4,4,4,100,,,,,,,,,,,,,,,,,,,,,,,,,,,,,,,,,,,,,,,,,,,,,,,,,,,,,,,,,,,,,,,,,,,,,,,,,,,,,,,,,,,,,,,,,,,,,,,,,,,,,,,,,,,,,,,,,,,,,,,,,,,,,,,,,,,,,,
1702545553,1702545553,84,0,4279.358887,4246.410156,4308.717773,4226.410156,4249.743652,4263.717773,4277.05127,4305.641113,4290,4264.487305,4449.615234,4436.282227,4412.563965,4383.205078,6870,4,75,,,,0,4,4,4,4,4,4,4,4,4,4,4,4,4,4,100,,,,,,,,,,,,,,,,,21,0,0.581119,-0.588867,-0.37738,-0.416077,0.921988,-0.331095,-0.00586,-16.386282,-3.493616,87.693024,,,,,,,,,,,,,,,,,,,,,,,,,,,,,,,,,,,,,,,,,,,,,,,,,,,,,,,,,,,,,,,,,,,,,,,,,,,,,,,,,,,,,,,,,,,,,,,,,,,,,,,,,,
1702545553,1702545553,85,0,4275.641113,4241.410156,4306.794922,4234.102539,4248.974121,4265.384766,4279.615234,4303.589844,4287.563965,4264.102539,4450.256348,4432.436035,4418.077148,4383.205078,7211,4,75,,,,0,4,4,4,4,4,4,4,4,4,4,4,4,4,4,100,,,,,,,,,,,,,,,,,,,,,,,,,,,,,,,,,,,,,,,,,,,,,,,,,,,,,,,,,,,,,,,,,,,,,,,,,,,,,,,,,,,,,,,,,,,,,,,,,,,,,,,,,,,,,,,,,,,,,,,,,,,,,,,,,,,,,,
1702545553,1702545553,86,0,4280.256348,4250.512695,4311.538574,4246.666504,4268.589844,4264.358887,4278.846191,4305.512695,4289.743652,4268.077148,4465.897461,4442.563965,4442.436035,4396.025879,6062,4,75,,,,0,4,4,4,4,4,4,4,4,4,4,4,4,4,4,100,,,,,,,,,,,,,,,,,,,,,,,,,,,,,,,,,,,,,,,,,,,,,,,,,,,,,,,,,,,,,,,,,,,,,,,,,,,,,,,,,,,,,,,,,,,,,,,,,,,,,,,,,,,,,,,,,,,,,,,,,,,,,,,,,,,,,,
1702545553,1702545553,87,0,4279.871582,4251.282227,4309.615234,4246.666504,4267.436035,4250.641113,4275.256348,4305.128418,4290.641113,4266.153809,4463.974121,4437.05127,4454.487305,4392.563965,6290,4,75,,,,0,4,4,4,4,4,4,4,4,4,4,4,4,4,4,100,,,,,,,,,,,,,,,,,,,,,,,,,,,,,,,,,,,,,,,,,,,,,,,,,,,,,,,,,,,,,,,,,,,,,,,,,,,,,,,,,,,,,,,,,,,,,,,,,,,,,,,,,,,,,,,,,,,,,,,,,,,,,,,,,,,,,,
1702545553,1702545553,88,0,4276.282227,4247.563965,4306.794922,4248.333496,4257.307617,4231.025879,4272.05127,4305.256348,4292.179688,4264.230957,4455.897461,4427.05127,4447.94873,4385.256348,6870,4,75,,,,0,4,4,4,4,4,4,4,4,4,4,4,4,4,4,100,,,,,,,,,,,,,,,,,22,0,0.581005,-0.58905,-0.377136,-0.416199,0.928336,-0.315957,-0.005372,-16.430988,-3.510921,87.673721,,,,,,,,,,,,,,,,,,,,,,,,,,,,,,,,,,,,,,,,,,,,,,,,,,,,,,,,,,,,,,,,,,,,,,,,,,,,,,,,,,,,,,,,,,,,,,,,,,,,,,,,,,
1702545553,1702545553,89,0,4288.846191,4261.153809,4322.436035,4269.487305,4272.436035,4230.769043,4278.205078,4312.436035,4301.794922,4280.897461,4472.179688,4446.282227,4462.307617,4399.743652,7211,4,75,,,,0,4,4,4,4,4,4,4,4,4,4,4,4,4,4,100,,,,,,,,,,,,,,,,,,,,,,,,,,,,,,,,,,,,,,,,,,,,,,,,,,,,,,,,,,,,,,,,,,,,,,,,,,,,,,,,,,,,,,,,,,,,,,,,,,,,,,,,,,,,,,,,,,,,,,,,,,,,,,,,,,,,,,
1702545553,1702545553,90,0,4294.871582,4267.179688,4329.615234,4278.461426,4265.641113,4240.256348,4281.025879,4313.461426,4303.333496,4296.153809,4480.128418,4456.538574,4476.666504,4404.230957,6062,4,75,,,,0,4,4,4,4,4,4,4,4,4,4,4,4,4,4,100,,,,,,,,,,,,,,,,,,,,,,,,,,,,,,,,,,,,,,,,,,,,,,,,,,,,,,,,,,,,,,,,,,,,,,,,,,,,,,,,,,,,,,,,,,,,,,,,,,,,,,,,,,,,,,,,,,,,,,,,,,,,,,,,,,,,,,
1702545553,1702545553,91,0,4288.974121,4259.871582,4323.077148,4270.384766,4250.769043,4237.94873,4276.794922,4311.538574,4301.794922,4285.384766,4469.615234,4448.974121,4467.05127,4395.128418,6290,4,75,,,,0,4,4,4,4,4,4,4,4,4,4,4,4,4,4,100,,,,,,,,,,,,,,,,,,,,,,,,,,,,,,,,,,,,,,,,,,,,,,,,,,,,,,,,,,,,,,,,,,,,,,,,,,,,,,,,,,,,,,,,,,,,,,,,,,,,,,,,,,,,,,,,,,,,,,,,,,,,,,,,,,,,,,
1702545553,1702545553,92,0,4299.230957,4266.410156,4334.102539,4277.179688,4274.358887,4241.153809,4285.128418,4325.128418,4314.102539,4277.692383,4480.512695,4467.820313,4466.538574,4406.922852,6870,4,75,,,,0,4,4,4,4,4,4,4,4,4,4,4,4,4,4,100,,,,,,,,,,,,,,,,,23,0,0.580964,-0.589172,-0.377075,-0.416138,0.937614,-0.338909,-0.00879,-16.354555,-3.693162,87.689682,,,,,,,,,,,,,,,,,,,,,,,,,,,,,,,,,,,,,5.400568,2.076354,3.807399,0.757231,0.515232,9.254385,2.334073,1.816492,0.826882,0.757165,4.079204,1.006716,2.890467,0.649086,0.372337,17.061483,2.366912,1.494555,0.689568,0.550569,2.530232,0.769508,1.952036,1.025689,1.543176,12.834058,1.897278,3.981891,0.878254,0.563624,3.043509,2.351387,2.643367,0.530777,0.267286,3.453717,3.055851,2.474516,0.53832,0.367082,5.5205,3.86456,2.995255,0.985026,0.509398,6.017068,2.897696,2.565911,1.86571,1.073915,14.855515,7.180381,4.79607,0.912237,0.771107,8.867831,3.241388,4.063656,1.0299,0.596255,39.941074,17.269911,6.746865,1.141472,0.917615,8.371468,4.101715,4.78806,0.896536,0.596358
1702545553,1702545553,93,0,4308.717773,4275.641113,4342.307617,4286.794922,4286.666504,4253.717773,4297.94873,4331.538574,4312.692383,4283.461426,4492.692383,4482.820313,4479.487305,4419.358887,7211,4,75,,,,0,4,4,4,4,4,4,4,4,4,4,4,4,4,4,100,,,,,,,,,,,,,,,,,,,,,,,,,,,,,,,,,,,,,,,,,,,,,,,,,,,,,,,,,,,,,,,,,,,,,,,,,,,,,,,,,,,,,,,,,,,,,,,,,,,,,,,,,,,,,,,,,,,,,,,,,,,,,,,,,,,,,,
1702545553,1702545553,94,0,4297.820313,4273.077148,4326.794922,4277.820313,4258.333496,4251.538574,4293.205078,4315.512695,4296.794922,4283.461426,4477.179688,4463.205078,4478.589844,4410.641113,6062,4,75,,,,0,4,4,4,4,4,4,4,4,4,4,4,4,4,4,100,,,,,,,,,,,,,,,,,,,,,,,,,,,,,,,,,,,,,,,,,,,,,,,,,,,,,,,,,,,,,,,,,,,,,,,,,,,,,,,,,,,,,,,,,,,,,,,,,,,,,,,,,,,,,,,,,,,,,,,,,,,,,,,,,,,,,,
1702545553,1702545553,95,0,4298.717773,4274.487305,4323.205078,4272.05127,4259.230957,4247.436035,4287.179688,4311.538574,4304.487305,4287.692383,4475.512695,4459.487305,4473.461426,4409.743652,6290,4,75,,,,0,4,4,4,4,4,4,4,4,4,4,4,4,4,4,100,,,,,,,,,,,,,,,,,,,,,,,,,,,,,,,,,,,,,,,,,,,,,,,,,,,,,,,,,,,,,,,,,,,,,,,,,,,,,,,,,,,,,,,,,,,,,,,,,,,,,,,,,,,,,,,,,,,,,,,,,,,,,,,,,,,,,,
1702545553,1702545553,96,0,4313.333496,4282.94873,4340.512695,4279.743652,4290.256348,4252.94873,4291.794922,4325,4318.461426,4296.538574,4494.487305,4479.358887,4482.820313,4421.922852,6870,4,75,,,,0,4,4,4,4,4,4,4,4,4,4,4,4,4,4,100,,,,,,,,,,,,,,,,,24,0,0.580946,-0.589233,-0.377075,-0.416077,0.934196,-0.318398,-0.014162,-16.119101,-3.557179,87.787384,,,,,,,,,,,,,,,,,,,,,,,,,,,,,,,,,,,,,,,,,,,,,,,,,,,,,,,,,,,,,,,,,,,,,,,,,,,,,,,,,,,,,,,,,,,,,,,,,,,,,,,,,,
1702545553,1702545553,97,0,4308.077148,4281.922852,4338.077148,4276.666504,4281.922852,4241.794922,4287.05127,4320,4306.538574,4282.820313,4487.307617,4471.410156,4482.563965,4415.256348,7211,4,75,,,,0,4,4,4,4,4,4,4,4,4,4,4,4,4,4,100,,,,,,,,,,,,,,,,,,,,,,,,,,,,,,,,,,,,,,,,,,,,,,,,,,,,,,,,,,,,,,,,,,,,,,,,,,,,,,,,,,,,,,,,,,,,,,,,,,,,,,,,,,,,,,,,,,,,,,,,,,,,,,,,,,,,,,
1702545553,1702545553,98,0,4288.589844,4267.05127,4315.512695,4261.153809,4256.153809,4224.358887,4273.589844,4297.05127,4285.641113,4259.102539,4457.692383,4442.820313,4454.871582,4387.179688,6062,4,75,,,,0,4,4,4,4,4,4,4,4,4,4,4,4,4,4,100,,,,,,,,,,,,,,,,,,,,,,,,,,,,,,,,,,,,,,,,,,,,,,,,,,,,,,,,,,,,,,,,,,,,,,,,,,,,,,,,,,,,,,,,,,,,,,,,,,,,,,,,,,,,,,,,,,,,,,,,,,,,,,,,,,,,,,
1702545553,1702545553,99,0,4285.769043,4262.307617,4312.05127,4256.410156,4256.538574,4227.179688,4272.436035,4295.128418,4282.692383,4266.025879,4452.563965,4442.563965,4441.153809,4380.897461,6290,4,75,,,,0,4,4,4,4,4,4,4,4,4,4,4,4,4,4,100,,,,,,,,,,,,,,,,,,,,,,,,,,,,,,,,,,,,,,,,,,,,,,,,,,,,,,,,,,,,,,,,,,,,,,,,,,,,,,,,,,,,,,,,,,,,,,,,,,,,,,,,,,,,,,,,,,,,,,,,,,,,,,,,,,,,,,
1702545553,1702545553,100,0,4296.538574,4271.538574,4323.846191,4265.128418,4265,4233.974121,4280,4311.410156,4290.769043,4280.897461,4463.077148,4458.846191,4453.461426,4395.384766,6870,4,75,,,,0,4,4,4,4,4,4,4,4,4,4,4,4,4,4,100,,,,,,,,,,,,,,,,,25,0,0.580761,-0.589294,-0.377197,-0.416138,0.924429,-0.33842,-0.000488,-16.140524,-3.584795,87.858643,,,,,,,,,,,,,,,,,,,,,,,,,,,,,,,,,,,,,,,,,,,,,,,,,,,,,,,,,,,,,,,,,,,,,,,,,,,,,,,,,,,,,,,,,,,,,,,,,,,,,,,,,,
