Timestamp,OriginalTimestamp,EEG.Counter,EEG.Interpolated,EEG.AF3,EEG.F7,EEG.F3,EEG.FC5,EEG.T7,EEG.P7,EEG.O1,EEG.O2,EEG.P8,EEG.T8,EEG.FC6,EEG.F4,EEG.F8,EEG.AF4,EEG.RawCq,EEG.Battery,EEG.BatteryPercent,MarkerIndex,MarkerType,MarkerValueInt,EEG.MarkerHardware,CQ.AF3,CQ.F7,CQ.F3,CQ.FC5,CQ.T7,CQ.P7,CQ.O1,CQ.O2,CQ.P8,CQ.T8,CQ.FC6,CQ.F4,CQ.F8,CQ.AF4,CQ.Overall,EQ.SampleRateQuality,EQ.OVERALL,EQ.AF3,EQ.F7,EQ.F3,EQ.FC5,EQ.T7,EQ.P7,EQ.O1,EQ.O2,EQ.P8,EQ.T8,EQ.FC6,EQ.F4,EQ.F8,EQ.AF4,MOT.CounterMems,MOT.InterpolatedMems,MOT.Q0,MOT.Q1,MOT.Q2,MOT.Q3,MOT.AccX,MOT.AccY,MOT.AccZ,MOT.MagX,MOT.MagY,MOT.MagZ,PM.Attention.IsActive,PM.Attention.Scaled,PM.Attention.Raw,PM.Attention.Min,PM.Attention.Max,PM.Engagement.IsActive,PM.Engagement.Scaled,PM.Engagement.Raw,PM.Engagement.Min,PM.Engagement.Max,PM.Excitement.IsActive,PM.Excitement.Scaled,PM.Excitement.Raw,PM.Excitement.Min,PM.Excitement.Max,PM.LongTermExcitement,PM.Stress.IsActive,PM.Stress.Scaled,PM.Stress.Raw,PM.Stress.Min,PM.Stress.Max,PM.Relaxation.IsActive,PM.Relaxation.Scaled,PM.Relaxation.Raw,PM.Relaxation.Min,PM.Relaxation.Max,PM.Interest.IsActive,PM.Interest.Scaled,PM.Interest.Raw,PM.Interest.Min,PM.Interest.Max,PM.Focus.IsActive,PM.Focus.Scaled,PM.Focus.Raw,PM.Focus.Min,PM.Focus.Max,POW.AF3.Theta,POW.AF3.Alpha,POW.AF3.BetaL,POW.AF3.BetaH,POW.AF3.Gamma,POW.F7.Theta,POW.F7.Alpha,POW.F7.BetaL,POW.F7.BetaH,POW.F7.Gamma,POW.F3.Theta,POW.F3.Alpha,POW.F3.BetaL,POW.F3.BetaH,POW.F3.Gamma,POW.FC5.Theta,POW.FC5.Alpha,POW.FC5.BetaL,POW.FC5.BetaH,POW.FC5.Gamma,POW.T7.Theta,POW.T7.Alpha,POW.T7.BetaL,POW.T7.BetaH,POW.T7.Gamma,POW.P7.Theta,POW.P7.Alpha,POW.P7.BetaL,POW.P7.BetaH,POW.P7.Gamma,POW.O1.Theta,POW.O1.Alpha,POW.O1.BetaL,POW.O1.BetaH,POW.O1.Gamma,POW.O2.Theta,POW.O2.Alpha,POW.O2.BetaL,POW.O2.BetaH,POW.O2.Gamma,POW.P8.Theta,POW.P8.Alpha,POW.P8.BetaL,POW.P8.BetaH,POW.P8.Gamma,POW.T8.Theta,POW.T8.Alpha,POW.T8.BetaL,POW.T8.BetaH,POW.T8.Gamma,POW.FC6.Theta,POW.FC6.Alpha,POW.FC6.BetaL,POW.FC6.BetaH,POW.FC6.Gamma,POW.F4.Theta,POW.F4.Alpha,POW.F4.BetaL,POW.F4.BetaH,POW.F4.Gamma,POW.F8.Theta,POW.F8.Alpha,POW.F8.BetaL,POW.F8.BetaH,POW.F8.Gamma,POW.AF4.Theta,POW.AF4.Alpha,POW.AF4.BetaL,POW.AF4.BetaH,POW.AF4.Gamma
,,,,,,,,,,,,,,,,,,,,,,,,,,,,,,,,,,,,,,,,,,,,,,,,,,,,,,,,,,,,,,,,,,,,,,,,,,,,,,,,,,,,,,,,,,,,,,,,,,,,,,,,,,,,,,,,,,,,,,,,,,,,,,,,,,,,,,,,,,,,,,,,,,,,,,,,,,,,,,,,,,,,,,,,,,,,,
1702545402,1702545402,22,0,4256.794922,3969.102539,4206.666504,4332.179688,4198.077148,4307.692383,4243.589844,4229.358887,4196.794922,4185.384766,4318.589844,4385.512695,3902.179443,4319.358887,0,4,76,,,,0,4,4,4,4,4,4,4,4,4,4,4,4,4,4,100,,,,,,,,,,,,,,,,,,,,,,,,,,,,,,,,,,,,,,,,,,,,,,,,,,,,,,,,,,,,,,,,,,,,,,,,,,,,,,,,,,,,,,,,,,,,,,,,,,,,,,,,,,,,,,,,,,,,,,,,,,,,,,,,,,,,,,
1702545402,1702545402,23,0,4269.871582,3986.794922,4219.230957,4346.794922,4212.94873,4309.358887,4257.05127,4236.538574,4210.512695,4205.512695,4332.563965,4401.025879,3907.564209,4335.256348,0,4,76,,,,0,4,4,4,4,4,4,4,4,4,4,4,4,4,4,100,,,,,,,,,,,,,,,,,,,,,,,,,,,,,,,,,,,,,,,,,,,,,,,,,,,,,,,,,,,,,,,,,,,,,,,,,,,,,,,,,,,,,,,,,,,,,,,,,,,,,,,,,,,,,,,,,,,,,,,,,,,,,,,,,,,,,,
1702545402,1702545402,24,0,4278.077148,3997.307617,4226.666504,4356.794922,4226.666504,4311.794922,4264.230957,4242.307617,4215.384766,4216.538574,4339.615234,4411.410156,3910,4346.794922,0,4,76,,,,0,4,4,4,4,4,4,4,4,4,4,4,4,4,4,100,,,,,,,,,,,,,,,,,6,0,0.71723,-0.156555,-0.673279,0.088135,0.946405,-0.294958,0.02344,-17.383209,0.673302,87.161636,,,,,,,,,,,,,,,,,,,,,,,,,,,,,,,,,,,,,,,,,,,,,,,,,,,,,,,,,,,,,,,,,,,,,,,,,,,,,,,,,,,,,,,,,,,,,,,,,,,,,,,,,,
1702545402,1702545402,25,0,4290.897461,4013.718018,4241.153809,4373.589844,4233.717773,4319.230957,4268.333496,4251.282227,4223.974121,4230.128418,4353.846191,4426.282227,3919.871826,4363.333496,0,4,76,,,,0,4,4,4,4,4,4,4,4,4,4,4,4,4,4,100,,,,,,,,,,,,,,,,,,,,,,,,,,,,,,,,,,,,,,,,,,,,,,,,,,,,,,,,,,,,,,,,,,,,,,,,,,,,,,,,,,,,,,,,,,,,,,,,,,,,,,,,,,,,,,,,,,,,,,,,,,,,,,,,,,,,,,
1702545402,1702545402,26,0,4298.205078,4023.846191,4247.563965,4378.974121,4207.692383,4316.282227,4265.128418,4251.794922,4226.282227,4233.846191,4358.974121,4432.563965,3927.179443,4368.205078,0,4,76,,,,0,4,4,4,4,4,4,4,4,4,4,4,4,4,4,100,,,,,,,,,,,,,,,,,,,,,,,,,,,,,,,,,,,,,,,,,,,,,,,,,,,,,,,,,,,,,,,,,,,,,,,,,,,,,,,,,,,,,,,,,,,,,,,,,,,,,,,,,,,,,,,,,,,,,,,,,,,,,,,,,,,,,,
1702545402,1702545402,27,0,4290.769043,4020.897461,4240.128418,4370.384766,4215.256348,4307.692383,4256.922852,4244.230957,4221.666504,4218.461426,4351.538574,4424.743652,3929.743652,4356.410156,0,4,76,,,,0,4,4,4,4,4,4,4,4,4,4,4,4,4,4,100,,,,,,,,,,,,,,,,,,,,,,,,,,,,,,,,,,,,,,,,,,,,,,,,,,,,,,,,,,,,,,,,,,,,,,,,,,,,,,,,,,,,,,,,,,,,,,,,,,,,,,,,,,,,,,,,,,,,,,,,,,,,,,,,,,,,,,
1702545402,1702545402,28,0,4297.692383,4024.230713,4244.230957,4376.794922,4248.974121,4305.769043,4257.436035,4247.179688,4229.743652,4220.512695,4358.974121,4429.871582,3952.94873,4361.794922,0,4,76,,,,0,4,4,4,4,4,4,4,4,4,4,4,4,4,4,100,,,,,,,,,,,,,,,,,7,0,0.717109,-0.156616,-0.673401,0.088074,0.951288,-0.290074,0.000977,-17.444889,0.655972,87.212143,,,,,,,,,,,,,,,,,,,,,,,,,,,,,,,,,,,,,9.748906,2.520944,3.381425,0.733891,0.303128,25.190308,5.055972,4.949795,0.979719,0.371704,7.198202,2.564795,2.851371,0.848698,0.290093,7.370565,3.419651,3.59606,0.903683,0.326601,7.230421,1.91986,2.869738,0.966529,1.335691,39.257366,9.055221,3.219273,1.133028,0.391937,7.419794,2.459597,2.410974,0.713804,0.238248,6.722464,2.614122,1.981891,0.576134,0.207472,8.684579,2.72219,2.444629,0.725122,0.265708,9.386847,3.035005,2.473939,0.708477,0.395451,13.516733,4.022375,3.985418,1.015929,0.363915,13.005199,4.677157,4.667392,1.255874,0.406694,27.906635,6.662127,7.435289,1.255826,0.368068,10.272046,3.588173,3.176309,1.076151,0.320461
1702545402,1702545402,29,0,4311.410156,4035.641113,4251.282227,4387.436035,4225.769043,4311.153809,4262.692383,4251.538574,4235.384766,4239.743652,4370.256348,4438.333496,3983.589844,4373.461426,0,4,76,,,,0,4,4,4,4,4,4,4,4,4,4,4,4,4,4,100,,,,,,,,,,,,,,,,,,,,,,,,,,,,,,,,,,,,,,,,,,,,,,,,,,,,,,,,,,,,,,,,,,,,,,,,,,,,,,,,,,,,,,,,,,,,,,,,,,,,,,,,,,,,,,,,,,,,,,,,,,,,,,,,,,,,,,
1702545402,1702545402,30,0,4307.820313,4043.333252,4247.563965,4382.563965,4199.358887,4320.769043,4260.384766,4249.743652,4228.717773,4243.077148,4367.179688,4432.820313,3997.307617,4367.307617,0,4,76,,,,0,4,4,4,4,4,4,4,4,4,4,4,4,4,4,100,,,,,,,,,,,,,,,,,,,,,,,,,,,,,,,,,,,,,,,,,,,,,,,,,,,,,,,,,,,,,,,,,,,,,,,,,,,,,,,,,,,,,,,,,,,,,,,,,,,,,,,,,,,,,,,,,,,,,,,,,,,,,,,,,,,,,,
1702545402,1702545402,31,0,4301.153809,4043.205078,4245.128418,4374.358887,4236.922852,4326.794922,4253.205078,4248.589844,4227.692383,4231.538574,4361.922852,4431.025879,4004.358887,4360.128418,0,4,76,,,,0,4,4,4,4,4,4,4,4,4,4,4,4,4,4,100,,,,,,,,,,,,,,,,,,,,,,,,,,,,,,,,,,,,,,,,,,,,,,,,,,,,,,,,,,,,,,,,,,,,,,,,,,,,,,,,,,,,,,,,,,,,,,,,,,,,,,,,,,,,,,,,,,,,,,,,,,,,,,,,,,,,,,
1702545402,1702545402,32,0,4309.743652,4045.897461,4249.615234,4377.05127,4266.025879,4327.436035,4259.230957,4249.743652,4235.128418,4227.179688,4365.512695,4436.666504,4019.871826,4367.05127,0,4,76,,,,0,4,4,4,4,4,4,4,4,4,4,4,4,4,4,100,,,,,,,,,,,,,,,,,8,0,0.716961,-0.15686,-0.673462,0.088379,0.937126,-0.313026,0.010255,-17.433733,0.623708,87.324257,,,,,,,,,,,,,,,,,,,,,,,,,,,,,,,,,,,,,,,,,,,,,,,,,,,,,,,,,,,,,,,,,,,,,,,,,,,,,,,,,,,,,,,,,,,,,,,,,,,,,,,,,,
1702545402,1702545402,33,0,4313.333496,4049.871826,4251.538574,4375,4226.025879,4321.538574,4265.897461,4249.871582,4236.282227,4232.563965,4366.794922,4436.153809,4030.512939,4368.589844,0,4,76,,,,0,4,4,4,4,4,4,4,4,4,4,4,4,4,4,100,,,,,,,,,,,,,,,,,,,,,,,,,,,,,,,,,,,,,,,,,,,,,,,,,,,,,,,,,,,,,,,,,,,,,,,,,,,,,,,,,,,,,,,,,,,,,,,,,,,,,,,,,,,,,,,,,,,,,,,,,,,,,,,,,,,,,,
1702545402,1702545402,34,0,4298.589844,4044.871826,4242.94873,4358.846191,4198.974121,4315,4254.871582,4245.384766,4228.333496,4232.692383,4356.282227,4426.153809,4026.666748,4358.077148,0,4,76,,,,0,4,4,4,4,4,4,4,4,4,4,4,4,4,4,100,,,,,,,,,,,,,,,,,,,,,,,,,,,,,,,,,,,,,,,,,,,,,,,,,,,,,,,,,,,,,,,,,,,,,,,,,,,,,,,,,,,,,,,,,,,,,,,,,,,,,,,,,,,,,,,,,,,,,,,,,,,,,,,,,,,,,,
1702545402,1702545402,35,0,4292.94873,4040.512939,4237.436035,4349.102539,4216.794922,4316.410156,4248.333496,4243.205078,4222.563965,4225.128418,4350.769043,4421.153809,4032.564209,4355.641113,0,4,76,,,,0,4,4,4,4,4,4,4,4,4,4,4,4,4,4,100,,,,,,,,,,,,,,,,,,,,,,,,,,,,,,,,,,,,,,,,,,,,,,,,,,,,,,,,,,,,,,,,,,,,,,,,,,,,,,,,,,,,,,,,,,,,,,,,,,,,,,,,,,,,,,,,,,,,,,,,,,,,,,,,,,,,,,
1702545402,1702545402,36,0,4311.666504,4054.871826,4250.384766,4358.461426,4235.128418,4316.666504,4259.615234,4251.282227,4233.333496,4234.230957,4365.769043,4434.871582,4056.666748,4370.384766,0,4,76,,,,0,4,4,4,4,4,4,4,4,4,4,4,4,4,4,100,,,,,,,,,,,,,,,,,9,0,0.716769,-0.157043,-0.673584,0.088684,0.936638,-0.310585,0.019045,-17.457026,0.628004,87.308502,,,,,,,,,,,,,,,,,,,,,,,,,,,,,,,,,,,,,,,,,,,,,,,,,,,,,,,,,,,,,,,,,,,,,,,,,,,,,,,,,,,,,,,,,,,,,,,,,,,,,,,,,,
1702545402,1702545402,37,0,4329.102539,4079.358887,4267.307617,4371.025879,4252.563965,4310.897461,4267.436035,4263.205078,4251.025879,4253.205078,4387.179688,4453.974121,4076.153809,4389.871582,0,4,76,,,,0,4,4,4,4,4,4,4,4,4,4,4,4,4,4,100,,,,,,,,,,,,,,,,,,,,,,,,,,,,,,,,,,,,,,,,,,,,,,,,,,,,,,,,,,,,,,,,,,,,,,,,,,,,,,,,,,,,,,,,,,,,,,,,,,,,,,,,,,,,,,,,,,,,,,,,,,,,,,,,,,,,,,
1702545402,1702545402,38,0,4327.692383,4091.666748,4266.153809,4371.282227,4251.025879,4306.153809,4263.333496,4264.871582,4253.333496,4252.436035,4389.615234,4453.205078,4083.205078,4395,0,4,76,,,,0,4,4,4,4,4,4,4,4,4,4,4,4,4,4,100,,,,,,,,,,,,,,,,,,,,,,,,,,,,,,,,,,,,,,,,,,,,,,,,,,,,,,,,,,,,,,,,,,,,,,,,,,,,,,,,,,,,,,,,,,,,,,,,,,,,,,,,,,,,,,,,,,,,,,,,,,,,,,,,,,,,,,
1702545402,1702545402,39,0,4326.666504,4096.922852,4262.436035,4374.358887,4234.487305,4301.538574,4263.333496,4262.94873,4248.846191,4253.717773,4385.641113,4450.897461,4096.922852,4390.769043,0,4,76,,,,0,4,4,4,4,4,4,4,4,4,4,4,4,4,4,100,,,,,,,,,,,,,,,,,,,,,,,,,,,,,,,,,,,,,,,,,,,,,,,,,,,,,,,,,,,,,,,,,,,,,,,,,,,,,,,,,,,,,,,,,,,,,,,,,,,,,,,,,,,,,,,,,,,,,,,,,,,,,,,,,,,,,,
1702545402,1702545402,40,0,4325.897461,4096.794922,4267.05127,4377.179688,4231.666504,4301.538574,4268.589844,4269.230957,4255,4264.230957,4389.230957,4462.563965,4109.743652,4389.230957,0,4,76,,,,0,4,4,4,4,4,4,4,4,4,4,4,4,4,4,100,,,,,,,,,,,,,,,,,10,0,0.716627,-0.157288,-0.673645,0.088928,0.939079,-0.312538,0.013185,-17.461325,0.698537,87.310982,,,,,,,,,,,,,,,,,,,,,,,,,,,,,,,,,,,,,,,,,,,,,,,,,,,,,,,,,,,,,,,,,,,,,,,,,,,,,,,,,,,,,,,,,,,,,,,,,,,,,,,,,,
1702545402,1702545402,41,0,4314.871582,4091.794922,4260.641113,4368.461426,4234.743652,4305.128418,4263.205078,4266.282227,4252.820313,4251.025879,4381.794922,4453.974121,4107.436035,4380.641113,0,4,76,,,,0,4,4,4,4,4,4,4,4,4,4,4,4,4,4,100,,,,,,,,,,,,,,,,,,,,,,,,,,,,,,,,,,,,,,,,,,,,,,,,,,,,,,,,,,,,,,,,,,,,,,,,,,,,,,,,,,,,,,,,,,,,,,,,,,,,,,,,,,,,,,,,,,,,,,,,,,,,,,,,,,,,,,
1702545402,1702545402,42,0,4306.410156,4095.769287,4248.589844,4367.307617,4237.692383,4303.205078,4250.384766,4248.461426,4232.692383,4230,4361.153809,4428.974121,4100.897461,4363.974121,0,4,76,,,,0,4,4,4,4,4,4,4,4,4,4,4,4,4,4,100,,,,,,,,,,,,,,,,,,,,,,,,,,,,,,,,,,,,,,,,,,,,,,,,,,,,,,,,,,,,,,,,,,,,,,,,,,,,,,,,,,,,,,,,,,,,,,,,,,,,,,,,,,,,,,,,,,,,,,,,,,,,,,,,,,,,,,
1702545402,1702545402,43,0,4299.102539,4101.282227,4243.589844,4373.717773,4234.487305,4300.641113,4243.589844,4230.641113,4215.512695,4228.846191,4345.256348,4420.512695,4090.769287,4351.666504,0,4,76,,,,0,4,4,4,4,4,4,4,4,4,4,4,4,4,4,100,,,,,,,,,,,,,,,,,,,,,,,,,,,,,,,,,,,,,,,,,,,,,,,,,,,,,,,,,,,,,,,,,,,,,,,,,,,,,,,,,,,,,,,,,,,,,,,,,,,,,,,,,,,,,,,,,,,,,,,,,,,,,,,,,,,,,,
1702545402,1702545402,44,0,4285.128418,4086.538574,4236.153809,4363.205078,4211.153809,4302.563965,4236.922852,4219.743652,4207.563965,4221.025879,4330.641113,4411.282227,4065.769287,4335.641113,0,4,76,,,,0,4,4,4,4,4,4,4,4,4,4,4,4,4,4,100,1,25,3,1,1,3,1,1,1,1,3,3,1,3,1,3,11,0,0.716549,-0.157349,-0.673706,0.088989,0.942986,-0.327188,0.014162,-17.448524,0.74535,87.413216,,,,,,,,,,,,,,,,,,,,,,,,,,,,,,,,,,,,,10.646421,2.759109,3.722819,0.736747,0.341234,29.121174,5.733519,6.411706,0.770346,0.393297,8.22174,2.875548,3.250688,0.842691,0.318843,8.678325,4.255551,4.484749,0.86553,0.338523,8.249136,2.22385,3.259302,0.970996,1.502758,35.318203,8.318998,3.741907,1.040025,0.381372,8.355919,2.59734,2.849999,0.573647,0.266952,7.552743,2.815353,2.076403,0.499872,0.221511,9.585222,3.09119,2.899235,0.624197,0.267579,10.495987,3.417912,2.990768,0.717278,0.438938,14.846228,4.558393,4.51651,0.941561,0.403444,14.821964,5.42059,5.195966,1.202338,0.457454,23.684019,5.868011,7.976165,1.182737,0.429557,11.667909,4.119644,3.525645,1.018042,0.366335
1702545402,1702545402,45,0,4271.538574,4072.179443,4224.743652,4347.820313,4195,4295.897461,4223.589844,4212.563965,4196.922852,4196.922852,4310.128418,4391.538574,4044.487061,4314.102539,0,4,76,,,,0,4,4,4,4,4,4,4,4,4,4,4,4,4,4,100,,,,,,,,,,,,,,,,,,,,,,,,,,,,,,,,,,,,,,,,,,,,,,,,,,,,,,,,,,,,,,,,,,,,,,,,,,,,,,,,,,,,,,,,,,,,,,,,,,,,,,,,,,,,,,,,,,,,,,,,,,,,,,,,,,,,,,
1702545402,1702545402,46,0,4265.512695,4078.589844,4218.717773,4348.846191,4214.102539,4291.282227,4220.384766,4206.025879,4186.666504,4180.897461,4298.461426,4380.641113,4044.102539,4303.461426,0,4,76,,,,0,4,4,4,4,4,4,4,4,4,4,4,4,4,4,100,,,,,,,,,,,,,,,,,,,,,,,,,,,,,,,,,,,,,,,,,,,,,,,,,,,,,,,,,,,,,,,,,,,,,,,,,,,,,,,,,,,,,,,,,,,,,,,,,,,,,,,,,,,,,,,,,,,,,,,,,,,,,,,,,,,,,,
1702545403,1702545403,47,0,4259.615234,4078.974365,4211.666504,4348.333496,4224.743652,4299.743652,4222.820313,4200.641113,4181.922852,4177.94873,4289.743652,4372.307617,4042.692383,4295.641113,0,4,76,,,,0,4,4,4,4,4,4,4,4,4,4,4,4,4,4,100,,,,,,,,,,,,,,,,,,,,,,,,,,,,,,,,,,,,,,,,,,,,,,,,,,,,,,,,,,,,,,,,,,,,,,,,,,,,,,,,,,,,,,,,,,,,,,,,,,,,,,,,,,,,,,,,,,,,,,,,,,,,,,,,,,,,,,
1702545403,1702545403,48,0,4260,4076.794922,4210.769043,4344.615234,4211.794922,4305.897461,4222.563965,4203.717773,4185.512695,4190.512695,4281.410156,4370.256348,4044.358887,4286.794922,0,4,76,,,,0,4,4,4,4,4,4,4,4,4,4,4,4,4,4,100,,,,,,,,,,,,,,,,,12,0,0.716545,-0.157593,-0.673645,0.08905,0.921988,-0.320352,0.009767,-17.220339,0.737481,87.421898,,,,,,,,,,,,,,,,,,,,,,,,,,,,,,,,,,,,,,,,,,,,,,,,,,,,,,,,,,,,,,,,,,,,,,,,,,,,,,,,,,,,,,,,,,,,,,,,,,,,,,,,,,
1702545403,1702545403,49,0,4270.256348,4089.615479,4226.666504,4357.94873,4210.512695,4313.333496,4229.743652,4220.384766,4201.794922,4210.641113,4297.05127,4387.05127,4068.205078,4293.846191,0,4,76,,,,0,4,4,4,4,4,4,4,4,4,4,4,4,4,4,100,,,,,,,,,,,,,,,,,,,,,,,,,,,,,,,,,,,,,,,,,,,,,,,,,,,,,,,,,,,,,,,,,,,,,,,,,,,,,,,,,,,,,,,,,,,,,,,,,,,,,,,,,,,,,,,,,,,,,,,,,,,,,,,,,,,,,,
1702545403,1702545403,50,0,4281.153809,4096.153809,4237.05127,4370.256348,4216.153809,4328.461426,4235.641113,4231.410156,4213.974121,4217.820313,4319.615234,4403.205078,4093.974365,4307.692383,0,4,76,,,,0,4,4,4,4,4,4,4,4,4,4,4,4,4,4,100,,,,,,,,,,,,,,,,,,,,,,,,,,,,,,,,,,,,,,,,,,,,,,,,,,,,,,,,,,,,,,,,,,,,,,,,,,,,,,,,,,,,,,,,,,,,,,,,,,,,,,,,,,,,,,,,,,,,,,,,,,,,,,,,,,,,,,
1702545403,1702545403,51,0,4289.230957,4091.923096,4233.717773,4365.384766,4227.820313,4339.230957,4236.410156,4229.102539,4214.358887,4211.666504,4322.05127,4408.461426,4106.025879,4315.641113,0,4,76,,,,0,4,4,4,4,4,4,4,4,4,4,4,4,4,4,100,,,,,,,,,,,,,,,,,,,,,,,,,,,,,,,,,,,,,,,,,,,,,,,,,,,,,,,,,,,,,,,,,,,,,,,,,,,,,,,,,,,,,,,,,,,,,,,,,,,,,,,,,,,,,,,,,,,,,,,,,,,,,,,,,,,,,,
1702545403,1702545403,52,0,4294.102539,4097.179688,4233.461426,4358.461426,4235.769043,4337.179688,4244.615234,4230.897461,4218.077148,4211.282227,4320,4413.717773,4112.692383,4321.666504,0,4,76,,,,0,4,4,4,4,4,4,4,4,4,4,4,4,4,4,100,,,,,,,,,,,,,,,,,13,0,0.716656,-0.157715,-0.673523,0.088867,0.947381,-0.32377,0.013185,-17.148306,0.663733,87.396378,,,,,,,,,,,,,,,,,,,,,,,,,,,,,,,,,,,,,,,,,,,,,,,,,,,,,,,,,,,,,,,,,,,,,,,,,,,,,,,,,,,,,,,,,,,,,,,,,,,,,,,,,,
1702545403,1702545403,53,0,4294.102539,4101.410156,4235,4358.205078,4230.641113,4327.05127,4248.974121,4232.94873,4219.743652,4226.666504,4325.512695,4412.179688,4114.743652,4323.333496,0,4,76,,,,0,4,4,4,4,4,4,4,4,4,4,4,4,4,4,100,,,,,,,,,,,,,,,,,,,,,,,,,,,,,,,,,,,,,,,,,,,,,,,,,,,,,,,,,,,,,,,,,,,,,,,,,,,,,,,,,,,,,,,,,,,,,,,,,,,,,,,,,,,,,,,,,,,,,,,,,,,,,,,,,,,,,,
1702545403,1702545403,54,0,4291.025879,4095,4232.820313,4356.410156,4235.897461,4321.922852,4245.512695,4230.769043,4214.743652,4231.410156,4326.153809,4405.641113,4113.589844,4321.025879,0,4,76,,,,0,4,4,4,4,4,4,4,4,4,4,4,4,4,4,100,,,,,,,,,,,,,,,,,,,,,,,,,,,,,,,,,,,,,,,,,,,,,,,,,,,,,,,,,,,,,,,,,,,,,,,,,,,,,,,,,,,,,,,,,,,,,,,,,,,,,,,,,,,,,,,,,,,,,,,,,,,,,,,,,,,,,,
1702545403,1702545403,55,0,4291.153809,4097.307617,4237.436035,4353.077148,4250.769043,4328.333496,4257.179688,4236.538574,4223.589844,4220.641113,4327.563965,4414.230957,4118.717773,4325.384766,0,4,76,,,,0,4,4,4,4,4,4,4,4,4,4,4,4,4,4,100,,,,,,,,,,,,,,,,,,,,,,,,,,,,,,,,,,,,,,,,,,,,,,,,,,,,,,,,,,,,,,,,,,,,,,,,,,,,,,,,,,,,,,,,,,,,,,,,,,,,,,,,,,,,,,,,,,,,,,,,,,,,,,,,,,,,,,
1702545403,1702545403,56,0,4297.692383,4105.256348,4249.743652,4353.461426,4257.94873,4338.846191,4276.282227,4253.461426,4242.05127,4228.333496,4341.538574,4430.384766,4126.922852,4337.94873,0,4,76,,,,0,4,4,4,4,4,4,4,4,4,4,4,4,4,4,100,,,,,,,,,,,,,,,,,14,0,0.716688,-0.157776,-0.673523,0.088501,0.94494,-0.298865,0.000977,-17.116808,0.714027,87.523407,,,,,,,,,,,,,,,,,,,,,,,,,,,,,,,,,,,,,,,,,,,,,,,,,,,,,,,,,,,,,,,,,,,,,,,,,,,,,,,,,,,,,,,,,,,,,,,,,,,,,,,,,,
1702545403,1702545403,57,0,4304.487305,4106.794922,4256.922852,4355.512695,4250,4344.102539,4284.615234,4264.615234,4249.743652,4251.025879,4350.769043,4439.102539,4131.153809,4347.179688,0,4,76,,,,0,4,4,4,4,4,4,4,4,4,4,4,4,4,4,100,,,,,,,,,,,,,,,,,,,,,,,,,,,,,,,,,,,,,,,,,,,,,,,,,,,,,,,,,,,,,,,,,,,,,,,,,,,,,,,,,,,,,,,,,,,,,,,,,,,,,,,,,,,,,,,,,,,,,,,,,,,,,,,,,,,,,,
1702545403,1702545403,58,0,4305,4109.230957,4256.538574,4351.794922,4237.563965,4348.461426,4285.128418,4262.94873,4251.410156,4252.05127,4345.512695,4439.615234,4125,4346.922852,0,4,76,,,,0,4,4,4,4,4,4,4,4,4,4,4,4,4,4,100,,,,,,,,,,,,,,,,,,,,,,,,,,,,,,,,,,,,,,,,,,,,,,,,,,,,,,,,,,,,,,,,,,,,,,,,,,,,,,,,,,,,,,,,,,,,,,,,,,,,,,,,,,,,,,,,,,,,,,,,,,,,,,,,,,,,,,
1702545403,1702545403,59,0,4312.179688,4128.589844,4260.897461,4352.436035,4263.333496,4362.05127,4291.922852,4266.922852,4261.666504,4249.487305,4350.512695,4448.205078,4126.794922,4355.641113,0,4,76,,,,0,4,4,4,4,4,4,4,4,4,4,4,4,4,4,100,,,,,,,,,,,,,,,,,,,,,,,,,,,,,,,,,,,,,,,,,,,,,,,,,,,,,,,,,,,,,,,,,,,,,,,,,,,,,,,,,,,,,,,,,,,,,,,,,,,,,,,,,,,,,,,,,,,,,,,,,,,,,,,,,,,,,,
1702545403,1702545403,60,0,4325.128418,4151.922852,4268.333496,4363.205078,4296.410156,4377.563965,4305.128418,4277.692383,4270.641113,4258.077148,4364.487305,4459.615234,4147.820313,4368.589844,0,4,76,,,,0,4,4,4,4,4,4,4,4,4,4,4,4,4,4,100,,,,,,,,,,,,,,,,,15,0,0.716683,-0.157776,-0.673584,0.088074,0.936638,-0.318887,0.013185,-17.305126,0.925957,87.521065,,,,,,,,,,,,,,,,,,,,,,,,,,,,,,,,,,,,,11.276041,3.113533,4.287655,0.770063,0.372282,31.569239,6.674831,8.177786,0.635731,0.415898,9.449594,3.309953,3.840515,0.842474,0.346911,10.27955,5.181273,5.540556,0.870636,0.353302,9.2007,2.572623,3.805631,1.083529,1.677353,29.07078,7.000755,4.226822,0.920117,0.351588,9.127471,2.916736,3.338845,0.466206,0.296558,8.404566,2.956034,2.165093,0.434938,0.23373,10.838597,3.495518,3.442711,0.541,0.267497,12.120327,3.871724,3.60469,0.750347,0.527196,16.70709,5.141657,5.206001,0.917085,0.447668,16.811422,6.187449,5.953623,1.186671,0.50565,21.56732,5.323096,8.47408,1.140682,0.504402,12.916964,4.70718,4.104289,1.027009,0.423811
1702545403,1702545403,61,0,4318.461426,4148.333496,4257.820313,4359.487305,4268.717773,4379.615234,4302.436035,4272.307617,4257.94873,4251.538574,4353.077148,4448.333496,4152.820313,4357.94873,0,4,76,,,,0,4,4,4,4,4,4,4,4,4,4,4,4,4,4,100,,,,,,,,,,,,,,,,,,,,,,,,,,,,,,,,,,,,,,,,,,,,,,,,,,,,,,,,,,,,,,,,,,,,,,,,,,,,,,,,,,,,,,,,,,,,,,,,,,,,,,,,,,,,,,,,,,,,,,,,,,,,,,,,,,,,,,
1702545403,1702545403,62,0,4305.512695,4138.461426,4247.820313,4343.333496,4240.512695,4373.205078,4285.256348,4262.05127,4244.871582,4244.358887,4336.410156,4433.333496,4140.256348,4338.974121,0,4,76,,,,0,4,4,4,4,4,4,4,4,4,4,4,4,4,4,100,,,,,,,,,,,,,,,,,,,,,,,,,,,,,,,,,,,,,,,,,,,,,,,,,,,,,,,,,,,,,,,,,,,,,,,,,,,,,,,,,,,,,,,,,,,,,,,,,,,,,,,,,,,,,,,,,,,,,,,,,,,,,,,,,,,,,,
1702545403,1702545403,63,0,4310.769043,4148.846191,4254.102539,4341.410156,4260.384766,4371.153809,4279.102539,4266.794922,4254.743652,4250.256348,4345.384766,4440.512695,4144.358887,4341.538574,0,4,76,,,,0,4,4,4,4,4,4,4,4,4,4,4,4,4,4,100,,,,,,,,,,,,,,,,,,,,,,,,,,,,,,,,,,,,,,,,,,,,,,,,,,,,,,,,,,,,,,,,,,,,,,,,,,,,,,,,,,,,,,,,,,,,,,,,,,,,,,,,,,,,,,,,,,,,,,,,,,,,,,,,,,,,,,
1702545403,1702545403,64,0,4316.410156,4155.897461,4256.025879,4342.563965,4254.615234,4376.153809,4284.615234,4271.153809,4262.820313,4250.641113,4351.922852,4447.820313,4155.256348,4349.358887,5410,4,76,,,,0,4,4,4,4,4,4,4,4,4,4,4,4,4,4,100,,,,,,,,,,,,,,,,,16,0,0.717066,-0.157837,-0.673218,0.087646,0.957636,-0.305213,0.011232,-17.291281,0.933361,87.585625,,,,,,,,,,,,,,,,,,,,,,,,,,,,,,,,,,,,,,,,,,,,,,,,,,,,,,,,,,,,,,,,,,,,,,,,,,,,,,,,,,,,,,,,,,,,,,,,,,,,,,,,,,
1702545403,1702545403,65,0,4317.563965,4155.641113,4255.128418,4338.717773,4240.512695,4385.769043,4289.102539,4268.333496,4257.94873,4246.410156,4348.205078,4447.692383,4158.205078,4351.153809,5529,4,76,,,,0,4,4,4,4,4,4,4,4,4,4,4,4,4,4,100,,,,,,,,,,,,,,,,,,,,,,,,,,,,,,,,,,,,,,,,,,,,,,,,,,,,,,,,,,,,,,,,,,,,,,,,,,,,,,,,,,,,,,,,,,,,,,,,,,,,,,,,,,,,,,,,,,,,,,,,,,,,,,,,,,,,,,
1702545403,1702545403,66,0,4333.717773,4176.282227,4274.230957,4346.538574,4281.410156,4394.230957,4296.666504,4275.384766,4268.205078,4256.025879,4363.717773,4461.282227,4176.282227,4368.461426,5522,4,76,,,,0,4,4,4,4,4,4,4,4,4,4,4,4,4,4,100,,,,,,,,,,,,,,,,,,,,,,,,,,,,,,,,,,,,,,,,,,,,,,,,,,,,,,,,,,,,,,,,,,,,,,,,,,,,,,,,,,,,,,,,,,,,,,,,,,,,,,,,,,,,,,,,,,,,,,,,,,,,,,,,,,,,,,
1702545403,1702545403,67,0,4348.205078,4194.743652,4288.205078,4353.461426,4291.794922,4390.384766,4299.743652,4284.615234,4284.230957,4266.282227,4382.05127,4475.897461,4198.205078,4385,5460,4,76,,,,0,4,4,4,4,4,4,4,4,4,4,4,4,4,4,100,,,,,,,,,,,,,,,,,,,,,,,,,,,,,,,,,,,,,,,,,,,,,,,,,,,,,,,,,,,,,,,,,,,,,,,,,,,,,,,,,,,,,,,,,,,,,,,,,,,,,,,,,,,,,,,,,,,,,,,,,,,,,,,,,,,,,,
1702545403,1702545403,68,0,4331.282227,4175.128418,4271.282227,4333.461426,4240.128418,4375.769043,4289.743652,4283.077148,4275.128418,4258.205078,4370.512695,4464.743652,4188.589844,4370.897461,5405,4,76,,,,0,4,4,4,4,4,4,4,4,4,4,4,4,4,4,100,,,,,,,,,,,,,,,,,17,0,0.717184,-0.158203,-0.672974,0.087891,0.938103,-0.301795,0.01172,-17.37882,0.956692,87.860397,,,,,,,,,,,,,,,,,,,,,,,,,,,,,,,,,,,,,,,,,,,,,,,,,,,,,,,,,,,,,,,,,,,,,,,,,,,,,,,,,,,,,,,,,,,,,,,,,,,,,,,,,,
1702545403,1702545403,69,0,4301.922852,4161.025879,4244.615234,4309.871582,4221.025879,4363.333496,4275.384766,4275.256348,4255.512695,4245.769043,4343.974121,4435.769043,4169.615234,4342.307617,5440,4,76,,,,0,4,4,4,4,4,4,4,4,4,4,4,4,4,4,100,,,,,,,,,,,,,,,,,,,,,,,,,,,,,,,,,,,,,,,,,,,,,,,,,,,,,,,,,,,,,,,,,,,,,,,,,,,,,,,,,,,,,,,,,,,,,,,,,,,,,,,,,,,,,,,,,,,,,,,,,,,,,,,,,,,,,,
1702545403,1702545403,70,0,4295.128418,4188.205078,4231.538574,4309.102539,4240.384766,4355.384766,4266.025879,4260.769043,4241.794922,4237.563965,4328.205078,4415.256348,4168.205078,4329.102539,5272,4,76,,,,0,4,4,4,4,4,4,4,4,4,4,4,4,4,4,100,,,,,,,,,,,,,,,,,,,,,,,,,,,,,,,,,,,,,,,,,,,,,,,,,,,,,,,,,,,,,,,,,,,,,,,,,,,,,,,,,,,,,,,,,,,,,,,,,,,,,,,,,,,,,,,,,,,,,,,,,,,,,,,,,,,,,,
1702545403,1702545403,71,0,4297.05127,4212.94873,4226.922852,4314.102539,4251.666504,4349.871582,4259.743652,4251.282227,4236.153809,4227.307617,4322.179688,4408.333496,4162.05127,4323.589844,5116,4,76,,,,0,4,4,4,4,4,4,4,4,4,4,4,4,4,4,100,,,,,,,,,,,,,,,,,,,,,,,,,,,,,,,,,,,,,,,,,,,,,,,,,,,,,,,,,,,,,,,,,,,,,,,,,,,,,,,,,,,,,,,,,,,,,,,,,,,,,,,,,,,,,,,,,,,,,,,,,,,,,,,,,,,,,,
1702545403,1702545403,72,0,4282.692383,4212.05127,4219.487305,4310.128418,4246.794922,4344.230957,4251.922852,4245.256348,4229.615234,4210,4307.563965,4393.461426,4137.179688,4307.05127,5457,4,76,,,,0,4,4,4,4,4,4,4,4,4,4,4,4,4,4,100,,,,,,,,,,,,,,,,,18,0,0.717154,-0.158813,-0.672791,0.08844,0.939079,-0.311073,0.001953,-17.407604,0.861023,87.791023,,,,,,,,,,,,,,,,,,,,,,,,,,,,,,,,,,,,,,,,,,,,,,,,,,,,,,,,,,,,,,,,,,,,,,,,,,,,,,,,,,,,,,,,,,,,,,,,,,,,,,,,,,
1702545403,1702545403,73,0,4271.666504,4222.436035,4212.563965,4305.128418,4237.307617,4339.102539,4248.461426,4234.487305,4218.589844,4198.205078,4292.436035,4379.743652,4125.384766,4292.179688,5464,4,76,,,,0,4,4,4,4,4,4,4,4,4,4,4,4,4,4,100,,,,,,,,,,,,,,,,,,,,,,,,,,,,,,,,,,,,,,,,,,,,,,,,,,,,,,,,,,,,,,,,,,,,,,,,,,,,,,,,,,,,,,,,,,,,,,,,,,,,,,,,,,,,,,,,,,,,,,,,,,,,,,,,,,,,,,
1702545403,1702545403,74,0,4277.563965,4242.94873,4213.717773,4309.102539,4225.512695,4344.358887,4256.666504,4234.102539,4218.461426,4204.358887,4295.384766,4385.769043,4138.846191,4292.179688,6123,4,76,,,,0,4,4,4,4,4,4,4,4,4,4,4,4,4,4,100,,,,,,,,,,,,,,,,,,,,,,,,,,,,,,,,,,,,,,,,,,,,,,,,,,,,,,,,,,,,,,,,,,,,,,,,,,,,,,,,,,,,,,,,,,,,,,,,,,,,,,,,,,,,,,,,,,,,,,,,,,,,,,,,,,,,,,
1702545403,1702545403,75,0,4286.794922,4251.922852,4224.871582,4318.717773,4234.358887,4357.692383,4269.230957,4246.282227,4232.307617,4223.974121,4315,4401.282227,4156.025879,4306.153809,6322,4,76,,,,0,4,4,4,4,4,4,4,4,4,4,4,4,4,4,100,,,,,,,,,,,,,,,,,,,,,,,,,,,,,,,,,,,,,,,,,,,,,,,,,,,,,,,,,,,,,,,,,,,,,,,,,,,,,,,,,,,,,,,,,,,,,,,,,,,,,,,,,,,,,,,,,,,,,,,,,,,,,,,,,,,,,,
1702545403,1702545403,76,0,4297.179688,4266.666504,4234.358887,4325.769043,4271.153809,4362.179688,4275.769043,4251.922852,4239.743652,4230.384766,4329.871582,4411.666504,4168.589844,4320,6898,4,76,,,,0,4,4,4,4,4,4,4,4,4,4,4,4,4,4,100,,,,,,,,,,,,,,,,,19,0,0.7171,-0.15918,-0.672729,0.088684,0.937126,-0.311073,0.016604,-17.266844,0.808254,87.878586,,,,,,,,,,,,,,,,,,,,,,,,,,,,,,,,,,,,,11.27864,3.47559,4.79153,0.814821,0.390164,31.418226,7.46414,9.520412,0.575414,0.4353,10.125329,3.726803,4.369256,0.84203,0.370132,11.645452,5.9124,6.345851,0.905232,0.371759,9.298732,2.855484,4.255275,1.282713,1.843302,22.295908,5.431188,4.542801,0.802662,0.309161,9.14275,3.307967,3.703755,0.408704,0.326297,8.644645,3.017293,2.182492,0.38917,0.244358,11.480226,3.879495,3.858743,0.482868,0.270945,13.056546,4.344287,4.068691,0.813696,0.649036,17.866474,5.734561,5.732214,0.942659,0.492997,17.748848,6.774698,6.583509,1.199154,0.54525,20.196859,5.096338,8.60438,1.136693,0.578326,13.514769,5.266023,4.60148,1.091966,0.48393
1702545403,1702545403,77,0,4308.461426,4282.820313,4236.538574,4330.256348,4279.871582,4357.820313,4278.333496,4248.846191,4233.974121,4217.05127,4328.974121,4413.846191,4172.94873,4323.589844,7209,4,76,,,,0,4,4,4,4,4,4,4,4,4,4,4,4,4,4,100,,,,,,,,,,,,,,,,,,,,,,,,,,,,,,,,,,,,,,,,,,,,,,,,,,,,,,,,,,,,,,,,,,,,,,,,,,,,,,,,,,,,,,,,,,,,,,,,,,,,,,,,,,,,,,,,,,,,,,,,,,,,,,,,,,,,,,
1702545403,1702545403,78,0,4312.436035,4283.461426,4241.922852,4333.333496,4251.666504,4357.436035,4278.077148,4247.179688,4232.94873,4217.436035,4329.487305,4416.538574,4171.025879,4327.94873,6123,4,76,,,,0,4,4,4,4,4,4,4,4,4,4,4,4,4,4,100,,,,,,,,,,,,,,,,,,,,,,,,,,,,,,,,,,,,,,,,,,,,,,,,,,,,,,,,,,,,,,,,,,,,,,,,,,,,,,,,,,,,,,,,,,,,,,,,,,,,,,,,,,,,,,,,,,,,,,,,,,,,,,,,,,,,,,
1702545403,1702545403,79,0,4315.256348,4287.307617,4251.410156,4338.205078,4243.717773,4356.410156,4275.897461,4248.333496,4241.025879,4228.974121,4337.820313,4426.922852,4167.692383,4337.692383,6322,4,76,,,,0,4,4,4,4,4,4,4,4,4,4,4,4,4,4,100,,,,,,,,,,,,,,,,,,,,,,,,,,,,,,,,,,,,,,,,,,,,,,,,,,,,,,,,,,,,,,,,,,,,,,,,,,,,,,,,,,,,,,,,,,,,,,,,,,,,,,,,,,,,,,,,,,,,,,,,,,,,,,,,,,,,,,
1702545403,1702545403,80,0,4320.384766,4303.333496,4253.333496,4346.410156,4270.128418,4347.05127,4276.025879,4255.256348,4248.846191,4232.307617,4342.563965,4432.179688,4167.05127,4340.384766,6898,4,76,,,,0,4,4,4,4,4,4,4,4,4,4,4,4,4,4,100,,,,,,,,,,,,,,,,,20,0,0.71705,-0.159302,-0.672729,0.088867,0.929313,-0.307655,0.007813,-17.373493,0.827428,87.824059,,,,,,,,,,,,,,,,,,,,,,,,,,,,,,,,,,,,,,,,,,,,,,,,,,,,,,,,,,,,,,,,,,,,,,,,,,,,,,,,,,,,,,,,,,,,,,,,,,,,,,,,,,
1702545403,1702545403,81,0,4321.282227,4312.05127,4251.153809,4352.820313,4284.871582,4336.282227,4279.871582,4265.512695,4252.307617,4239.487305,4348.589844,4429.871582,4178.333496,4338.717773,7209,4,76,,,,0,4,4,4,4,4,4,4,4,4,4,4,4,4,4,100,,,,,,,,,,,,,,,,,,,,,,,,,,,,,,,,,,,,,,,,,,,,,,,,,,,,,,,,,,,,,,,,,,,,,,,,,,,,,,,,,,,,,,,,,,,,,,,,,,,,,,,,,,,,,,,,,,,,,,,,,,,,,,,,,,,,,,
1702545403,1702545403,82,0,4315.128418,4310.128418,4250,4347.307617,4265.641113,4322.94873,4280.384766,4266.025879,4250.128418,4243.589844,4352.563965,4430,4186.538574,4339.102539,6123,4,76,,,,0,4,4,4,4,4,4,4,4,4,4,4,4,4,4,100,,,,,,,,,,,,,,,,,,,,,,,,,,,,,,,,,,,,,,,,,,,,,,,,,,,,,,,,,,,,,,,,,,,,,,,,,,,,,,,,,,,,,,,,,,,,,,,,,,,,,,,,,,,,,,,,,,,,,,,,,,,,,,,,,,,,,,
1702545403,1702545403,83,0,4307.94873,4312.563965,4244.358887,4337.179688,4250.128418,4305.512695,4278.205078,4259.871582,4246.794922,4227.179688,4344.358887,4425.512695,4179.871582,4336.153809,6322,4,76,,,,0,4,4,4,4,4,4,4,4,4,4,4,4,4,4,100,,,,,,,,,,,,,,,,,,,,,,,,,,,,,,,,,,,,,,,,,,,,,,,,,,,,,,,,,,,,,,,,,,,,,,,,,,,,,,,,,,,,,,,,,,,,,,,,,,,,,,,,,,,,,,,,,,,,,,,,,,,,,,,,,,,,,,
1702545403,1702545403,84,0,4317.692383,4335.128418,4246.153809,4346.538574,4272.307617,4303.333496,4291.153809,4265,4254.743652,4227.692383,4346.666504,4426.410156,4190.384766,4342.94873,6898,4,76,,,,0,4,4,4,4,4,4,4,4,4,4,4,4,4,4,100,,,,,,,,,,,,,,,,,21,0,0.71679,-0.159424,-0.672913,0.089355,0.942986,-0.316445,0.004395,-17.319477,0.861352,87.624985,,,,,,,,,,,,,,,,,,,,,,,,,,,,,,,,,,,,,,,,,,,,,,,,,,,,,,,,,,,,,,,,,,,,,,,,,,,,,,,,,,,,,,,,,,,,,,,,,,,,,,,,,,
1702545403,1702545403,85,0,4328.974121,4353.205078,4255.384766,4358.461426,4283.205078,4310.769043,4307.820313,4274.230957,4264.871582,4246.410156,4363.461426,4437.94873,4218.589844,4353.461426,7209,4,76,,,,0,4,4,4,4,4,4,4,4,4,4,4,4,4,4,100,,,,,,,,,,,,,,,,,,,,,,,,,,,,,,,,,,,,,,,,,,,,,,,,,,,,,,,,,,,,,,,,,,,,,,,,,,,,,,,,,,,,,,,,,,,,,,,,,,,,,,,,,,,,,,,,,,,,,,,,,,,,,,,,,,,,,,
1702545403,1702545403,86,0,4314.615234,4338.974121,4244.871582,4343.846191,4245.769043,4301.666504,4296.282227,4262.307617,4250.897461,4239.230957,4354.230957,4427.05127,4220.641113,4336.922852,6123,4,76,,,,0,4,4,4,4,4,4,4,4,4,4,4,4,4,4,100,,,,,,,,,,,,,,,,,,,,,,,,,,,,,,,,,,,,,,,,,,,,,,,,,,,,,,,,,,,,,,,,,,,,,,,,,,,,,,,,,,,,,,,,,,,,,,,,,,,,,,,,,,,,,,,,,,,,,,,,,,,,,,,,,,,,,,
1702545403,1702545403,87,0,4299.358887,4331.410156,4230,4333.077148,4244.487305,4287.179688,4278.461426,4250,4239.230957,4230.256348,4340.128418,4411.922852,4216.794922,4320.641113,6322,4,76,,,,0,4,4,4,4,4,4,4,4,4,4,4,4,4,4,100,,,,,,,,,,,,,,,,,,,,,,,,,,,,,,,,,,,,,,,,,,,,,,,,,,,,,,,,,,,,,,,,,,,,,,,,,,,,,,,,,,,,,,,,,,,,,,,,,,,,,,,,,,,,,,,,,,,,,,,,,,,,,,,,,,,,,,
1702545403,1702545403,88,0,4313.974121,4356.153809,4246.538574,4351.538574,4290.384766,4292.563965,4290,4268.077148,4264.743652,4250,4366.922852,4434.102539,4248.333496,4342.820313,6898,4,76,,,,0,4,4,4,4,4,4,4,4,4,4,4,4,4,4,100,,,,,,,,,,,,,,,,,22,0,0.71659,-0.159485,-0.673096,0.089478,0.940056,-0.310096,0.00879,-17.354197,0.80855,87.579155,,,,,,,,,,,,,,,,,,,,,,,,,,,,,,,,,,,,,,,,,,,,,,,,,,,,,,,,,,,,,,,,,,,,,,,,,,,,,,,,,,,,,,,,,,,,,,,,,,,,,,,,,,
1702545403,1702545403,89,0,4323.205078,4366.538574,4260.769043,4358.717773,4273.205078,4303.077148,4297.94873,4285.512695,4282.820313,4256.666504,4390.256348,4453.333496,4273.717773,4357.436035,7209,4,76,,,,0,4,4,4,4,4,4,4,4,4,4,4,4,4,4,100,,,,,,,,,,,,,,,,,,,,,,,,,,,,,,,,,,,,,,,,,,,,,,,,,,,,,,,,,,,,,,,,,,,,,,,,,,,,,,,,,,,,,,,,,,,,,,,,,,,,,,,,,,,,,,,,,,,,,,,,,,,,,,,,,,,,,,
1702545403,1702545403,90,0,4314.358887,4353.974121,4249.102539,4349.230957,4237.692383,4306.410156,4286.282227,4277.436035,4270.769043,4244.615234,4378.205078,4442.05127,4266.410156,4343.846191,6123,4,76,,,,0,4,4,4,4,4,4,4,4,4,4,4,4,4,4,100,,,,,,,,,,,,,,,,,,,,,,,,,,,,,,,,,,,,,,,,,,,,,,,,,,,,,,,,,,,,,,,,,,,,,,,,,,,,,,,,,,,,,,,,,,,,,,,,,,,,,,,,,,,,,,,,,,,,,,,,,,,,,,,,,,,,,,
1702545403,1702545403,91,0,4323.333496,4359.487305,4253.205078,4358.205078,4259.487305,4315.128418,4293.461426,4279.871582,4271.538574,4254.615234,4381.410156,4445.384766,4267.820313,4351.794922,6322,4,76,,,,0,4,4,4,4,4,4,4,4,4,4,4,4,4,4,100,,,,,,,,,,,,,,,,,,,,,,,,,,,,,,,,,,,,,,,,,,,,,,,,,,,,,,,,,,,,,,,,,,,,,,,,,,,,,,,,,,,,,,,,,,,,,,,,,,,,,,,,,,,,,,,,,,,,,,,,,,,,,,,,,,,,,,
1702545403,1702545403,92,0,4335.256348,4368.205078,4270.384766,4364.871582,4281.666504,4326.410156,4310.384766,4293.205078,4282.179688,4272.692383,4402.820313,4464.615234,4275.769043,4371.153809,6898,4,76,,,,0,4,4,4,4,4,4,4,4,4,4,4,4,4,4,100,,,,,,,,,,,,,,,,,23,0,0.716531,-0.159302,-0.673218,0.089355,0.922476,-0.311073,0.016115,-17.418776,0.911029,87.637909,,,,,,,,,,,,,,,,,,,,,,,,,,,,,,,,,,,,,10.613954,3.773342,4.964396,0.844418,0.395878,28.585897,7.938455,9.82876,0.571234,0.453654,9.995067,3.998242,4.604309,0.826905,0.38792,12.271702,6.252818,6.52908,0.939196,0.396975,8.501373,3.002343,4.367903,1.510948,1.997504,16.465284,4.017298,4.576082,0.705546,0.265883,8.503306,3.604079,3.808406,0.391172,0.355552,8.311016,2.990676,2.103452,0.358692,0.255803,11.373011,4.17525,3.989194,0.445973,0.284718,12.979711,4.771879,4.198477,0.897619,0.780119,18.086378,6.288914,5.832565,0.988982,0.539161,17.314342,7.06316,6.772901,1.206835,0.574747,19.535828,5.25165,8.151417,1.143533,0.639926,13.588679,5.771208,4.762063,1.1707,0.539156
1702545403,1702545403,93,0,4330.512695,4360.256348,4268.974121,4357.692383,4281.794922,4325.641113,4306.410156,4291.666504,4281.025879,4269.102539,4399.743652,4466.922852,4260,4366.282227,7209,4,76,,,,0,4,4,4,4,4,4,4,4,4,4,4,4,4,4,100,,,,,,,,,,,,,,,,,,,,,,,,,,,,,,,,,,,,,,,,,,,,,,,,,,,,,,,,,,,,,,,,,,,,,,,,,,,,,,,,,,,,,,,,,,,,,,,,,,,,,,,,,,,,,,,,,,,,,,,,,,,,,,,,,,,,,,
1702545403,1702545403,94,0,4321.922852,4359.615234,4261.410156,4355.128418,4273.846191,4317.94873,4293.589844,4280.256348,4274.358887,4255.641113,4381.153809,4456.794922,4233.077148,4355,6123,4,76,,,,0,4,4,4,4,4,4,4,4,4,4,4,4,4,4,100,,,,,,,,,,,,,,,,,,,,,,,,,,,,,,,,,,,,,,,,,,,,,,,,,,,,,,,,,,,,,,,,,,,,,,,,,,,,,,,,,,,,,,,,,,,,,,,,,,,,,,,,,,,,,,,,,,,,,,,,,,,,,,,,,,,,,,
1702545403,1702545403,95,0,4318.846191,4366.410156,4253.589844,4349.102539,4248.077148,4308.589844,4286.282227,4268.974121,4264.743652,4246.538574,4372.436035,4442.307617,4216.922852,4351.025879,6322,4,76,,,,0,4,4,4,4,4,4,4,4,4,4,4,4,4,4,100,,,,,,,,,,,,,,,,,,,,,,,,,,,,,,,,,,,,,,,,,,,,,,,,,,,,,,,,,,,,,,,,,,,,,,,,,,,,,,,,,,,,,,,,,,,,,,,,,,,,,,,,,,,,,,,,,,,,,,,,,,,,,,,,,,,,,,
1702545403,1702545403,96,0,4319.358887,4367.05127,4243.461426,4341.666504,4242.820313,4299.102539,4278.717773,4261.794922,4252.179688,4244.102539,4367.820313,4433.077148,4203.461426,4347.563965,6898,4,76,,,,0,4,4,4,4,4,4,4,4,4,4,4,4,4,4,100,,,,,,,,,,,,,,,,,24,0,0.71659,-0.159241,-0.673218,0.088989,0.943963,-0.301795,-0.001465,-17.443565,0.703259,87.624115,,,,,,,,,,,,,,,,,,,,,,,,,,,,,,,,,,,,,,,,,,,,,,,,,,,,,,,,,,,,,,,,,,,,,,,,,,,,,,,,,,,,,,,,,,,,,,,,,,,,,,,,,,
1702545403,1702545403,97,0,4324.102539,4370.384766,4252.05127,4352.307617,4272.563965,4297.692383,4279.871582,4260.512695,4250,4247.692383,4365.384766,4441.282227,4191.794922,4352.179688,7209,4,76,,,,0,4,4,4,4,4,4,4,4,4,4,4,4,4,4,100,,,,,,,,,,,,,,,,,,,,,,,,,,,,,,,,,,,,,,,,,,,,,,,,,,,,,,,,,,,,,,,,,,,,,,,,,,,,,,,,,,,,,,,,,,,,,,,,,,,,,,,,,,,,,,,,,,,,,,,,,,,,,,,,,,,,,,
1702545403,1702545403,98,0,4328.846191,4372.307617,4265.512695,4360.897461,4273.461426,4297.179688,4288.589844,4262.563965,4254.487305,4251.282227,4368.974121,4451.538574,4185.897461,4357.820313,6123,4,76,,,,0,4,4,4,4,4,4,4,4,4,4,4,4,4,4,100,,,,,,,,,,,,,,,,,,,,,,,,,,,,,,,,,,,,,,,,,,,,,,,,,,,,,,,,,,,,,,,,,,,,,,,,,,,,,,,,,,,,,,,,,,,,,,,,,,,,,,,,,,,,,,,,,,,,,,,,,,,,,,,,,,,,,,
1702545403,1702545403,99,0,4330.897461,4370.641113,4263.077148,4354.102539,4257.179688,4288.974121,4294.487305,4268.846191,4256.410156,4246.794922,4374.102539,4452.94873,4178.589844,4357.05127,6322,4,76,,,,0,4,4,4,4,4,4,4,4,4,4,4,4,4,4,100,,,,,,,,,,,,,,,,,,,,,,,,,,,,,,,,,,,,,,,,,,,,,,,,,,,,,,,,,,,,,,,,,,,,,,,,,,,,,,,,,,,,,,,,,,,,,,,,,,,,,,,,,,,,,,,,,,,,,,,,,,,,,,,,,,,,,,
1702545403,1702545403,100,0,4335,4377.820313,4263.589844,4358.333496,4276.153809,4284.871582,4300.128418,4280.641113,4266.666504,4244.102539,4383.974121,4459.487305,4181.025879,4364.102539,6898,4,76,,,,0,4,4,4,4,4,4,4,4,4,4,4,4,4,4,100,,,,,,,,,,,,,,,,,25,0,0.716628,-0.159363,-0.673157,0.088928,0.930289,-0.308143,0.018557,-17.565876,0.666267,87.611702,,,,,,,,,,,,,,,,,,,,,,,,,,,,,,,,,,,,,,,,,,,,,,,,,,,,,,,,,,,,,,,,,,,,,,,,,,,,,,,,,,,,,,,,,,,,,,,,,,,,,,,,,,
1702545403,1702545403,101,0,4332.820313,4379.358887,4265.897461,4365.769043,4283.333496,4285.897461,4300.897461,4285.384766,4275.769043,4253.205078,4393.589844,4463.589844,4185,4370.256348,7209,4,76,,,,0,4,4,4,4,4,4,4,4,4,4,4,4,4,4,100,,,,,,,,,,,,,,,,,,,,,,,,,,,,,,,,,,,,,,,,,,,,,,,,,,,,,,,,,,,,,,,,,,,,,,,,,,,,,,,,,,,,,,,,,,,,,,,,,,,,,,,,,,,,,,,,,,,,,,,,,,,,,,,,,,,,,,
1702545403,1702545403,102,0,4325.128418,4371.538574,4261.538574,4359.871582,4263.461426,4276.666504,4292.179688,4279.487305,4272.692383,4267.307617,4395.384766,4457.436035,4173.205078,4364.871582,6123,4,76,,,,0,4,4,4,4,4,4,4,4,4,4,4,4,4,4,100,,,,,,,,,,,,,,,,,,,,,,,,,,,,,,,,,,,,,,,,,,,,,,,,,,,,,,,,,,,,,,,,,,,,,,,,,,,,,,,,,,,,,,,,,,,,,,,,,,,,,,,,,,,,,,,,,,,,,,,,,,,,,,,,,,,,,,
1702545403,1702545403,103,0,4329.743652,4383.333496,4267.307617,4362.820313,4266.410156,4264.358887,4293.205078,4282.692383,4272.94873,4269.230957,4398.974121,4463.205078,4169.487305,4369.487305,6322,4,76,,,,0,4,4,4,4,4,4,4,4,4,4,4,4,4,4,100,,,,,,,,,,,,,,,,,,,,,,,,,,,,,,,,,,,,,,,,,,,,,,,,,,,,,,,,,,,,,,,,,,,,,,,,,,,,,,,,,,,,,,,,,,,,,,,,,,,,,,,,,,,,,,,,,,,,,,,,,,,,,,,,,,,,,,
1702545403,1702545403,104,0,4350.128418,4407.563965,4281.922852,4383.461426,4284.871582,4266.282227,4308.077148,4292.05127,4280.128418,4262.692383,4409.743652,4481.282227,4185,4386.794922,6898,4,76,,,,0,4,4,4,4,4,4,4,4,4,4,4,4,4,4,100,,,,,,,,,,,,,,,,,26,0,0.716789,-0.159546,-0.672974,0.088684,0.938591,-0.31205,0.003418,-17.49262,0.532973,87.683868,,,,,,,,,,,,,,,,,,,,,,,,,,,,,,,,,,,,,,,,,,,,,,,,,,,,,,,,,,,,,,,,,,,,,,,,,,,,,,,,,,,,,,,,,,,,,,,,,,,,,,,,,,
1702545403,1702545403,105,0,4360.641113,4411.025879,4283.717773,4391.025879,4288.205078,4265.769043,4313.333496,4287.820313,4280.512695,4264.102539,4414.871582,4484.743652,4191.794922,4391.282227,7209,4,76,,,,0,4,4,4,4,4,4,4,4,4,4,4,4,4,4,100,,,,,,,,,,,,,,,,,,,,,,,,,,,,,,,,,,,,,,,,,,,,,,,,,,,,,,,,,,,,,,,,,,,,,,,,,,,,,,,,,,,,,,,,,,,,,,,,,,,,,,,,,,,,,,,,,,,,,,,,,,,,,,,,,,,,,,
1702545403,1702545403,106,0,4350.512695,4402.436035,4277.563965,4379.358887,4284.743652,4252.692383,4305.256348,4279.230957,4275,4264.615234,4409.102539,4473.974121,4182.05127,4385.769043,6123,4,76,,,,0,4,4,4,4,4,4,4,4,4,4,4,4,4,4,100,,,,,,,,,,,,,,,,,,,,,,,,,,,,,,,,,,,,,,,,,,,,,,,,,,,,,,,,,,,,,,,,,,,,,,,,,,,,,,,,,,,,,,,,,,,,,,,,,,,,,,,,,,,,,,,,,,,,,,,,,,,,,,,,,,,,,,
1702545403,1702545403,107,0,4348.333496,4400.897461,4277.563965,4384.230957,4286.666504,4243.205078,4301.794922,4285.769043,4277.307617,4263.589844,4408.974121,4474.615234,4183.974121,4388.205078,6322,4,76,,,,0,4,4,4,4,4,4,4,4,4,4,4,4,4,4,100,,,,,,,,,,,,,,,,,,,,,,,,,,,,,,,,,,,,,,,,,,,,,,,,,,,,,,,,,,,,,,,,,,,,,,,,,,,,,,,,,,,,,,,,,,,,,,,,,,,,,,,,,,,,,,,,,,,,,,,,,,,,,,,,,,,,,,
1702545403,1702545403,108,0,4355.769043,4398.461426,4278.205078,4396.538574,4283.589844,4239.487305,4303.077148,4293.461426,4281.538574,4272.179688,4414.743652,4480.128418,4191.794922,4392.94873,6898,4,76,,,,0,4,4,4,4,4,4,4,4,4,4,4,4,4,4,100,1,25,3,1,1,3,1,1,1,1,3,3,1,3,1,3,27,0,0.717038,-0.159729,-0.672729,0.088196,0.927848,-0.30619,0.01172,-17.54336,0.529676,87.565483,,,,,,,,,,,,,,,,,,,,,,,,,,,,,,,,,,,,,9.869651,3.995715,4.680243,0.839071,0.39485,24.280022,7.984628,8.891837,0.603273,0.474643,9.376261,4.089155,4.434292,0.785577,0.400706,11.930393,6.082527,5.949824,0.941936,0.427422,7.332486,2.988353,4.024755,1.714396,2.148003,12.454072,3.095158,4.283502,0.631432,0.232005,7.815495,3.66335,3.610159,0.387449,0.381409,7.875346,2.920203,1.954738,0.335597,0.269054,11.026303,4.35336,3.799011,0.423135,0.311859,12.36607,5.087364,3.942563,0.980483,0.887934,18.017599,6.812131,5.431411,1.018482,0.583858,16.285563,7.111259,6.402273,1.176662,0.593187,20.436668,5.792695,7.119793,1.129037,0.680741,13.888802,6.240538,4.512043,1.212479,0.580905
1702545403,1702545403,109,0,4354.230957,4395.512695,4277.436035,4391.153809,4270.897461,4237.692383,4303.205078,4287.563965,4282.179688,4279.102539,4413.333496,4478.589844,4182.436035,4390.897461,7209,4,76,,,,0,4,4,4,4,4,4,4,4,4,4,4,4,4,4,100,,,,,,,,,,,,,,,,,,,,,,,,,,,,,,,,,,,,,,,,,,,,,,,,,,,,,,,,,,,,,,,,,,,,,,,,,,,,,,,,,,,,,,,,,,,,,,,,,,,,,,,,,,,,,,,,,,,,,,,,,,,,,,,,,,,,,,
1702545403,1702545403,110,0,4354.743652,4406.794922,4285.128418,4392.179688,4279.102539,4245.512695,4310,4291.153809,4289.487305,4276.922852,4416.922852,4488.974121,4171.025879,4394.871582,6123,4,76,,,,0,4,4,4,4,4,4,4,4,4,4,4,4,4,4,100,,,,,,,,,,,,,,,,,,,,,,,,,,,,,,,,,,,,,,,,,,,,,,,,,,,,,,,,,,,,,,,,,,,,,,,,,,,,,,,,,,,,,,,,,,,,,,,,,,,,,,,,,,,,,,,,,,,,,,,,,,,,,,,,,,,,,,
1702545403,1702545403,111,0,4370.897461,4430.384766,4302.563965,4415.769043,4309.102539,4265,4328.589844,4311.025879,4304.615234,4283.717773,4436.794922,4512.820313,4181.153809,4413.461426,6322,4,76,,,,0,4,4,4,4,4,4,4,4,4,4,4,4,4,4,100,,,,,,,,,,,,,,,,,,,,,,,,,,,,,,,,,,,,,,,,,,,,,,,,,,,,,,,,,,,,,,,,,,,,,,,,,,,,,,,,,,,,,,,,,,,,,,,,,,,,,,,,,,,,,,,,,,,,,,,,,,,,,,,,,,,,,,
1702545403,1702545403,112,0,4386.922852,4442.94873,4315.256348,4430.769043,4322.307617,4275.769043,4339.615234,4319.743652,4312.179688,4301.282227,4452.563965,4525.256348,4199.743652,4429.358887,6898,4,76,,,,0,4,4,4,4,4,4,4,4,4,4,4,4,4,4,100,,,,,,,,,,,,,,,,,28,0,0.717212,-0.159851,-0.672546,0.087952,0.94201,-0.313026,0.017092,-17.70569,0.693375,87.658936,,,,,,,,,,,,,,,,,,,,,,,,,,,,,,,,,,,,,,,,,,,,,,,,,,,,,,,,,,,,,,,,,,,,,,,,,,,,,,,,,,,,,,,,,,,,,,,,,,,,,,,,,,
1702545403,1702545403,113,0,4389.743652,4448.717773,4314.743652,4428.205078,4315.512695,4268.717773,4335.256348,4312.94873,4312.05127,4306.538574,4453.077148,4524.871582,4202.436035,4431.410156,7209,4,76,,,,0,4,4,4,4,4,4,4,4,4,4,4,4,4,4,100,,,,,,,,,,,,,,,,,,,,,,,,,,,,,,,,,,,,,,,,,,,,,,,,,,,,,,,,,,,,,,,,,,,,,,,,,,,,,,,,,,,,,,,,,,,,,,,,,,,,,,,,,,,,,,,,,,,,,,,,,,,,,,,,,,,,,,
1702545403,1702545403,114,0,4385.512695,4457.563965,4311.025879,4429.102539,4314.102539,4260.384766,4331.794922,4312.307617,4317.179688,4301.922852,4450.641113,4523.205078,4195,4424.487305,6123,4,76,,,,0,4,4,4,4,4,4,4,4,4,4,4,4,4,4,100,,,,,,,,,,,,,,,,,,,,,,,,,,,,,,,,,,,,,,,,,,,,,,,,,,,,,,,,,,,,,,,,,,,,,,,,,,,,,,,,,,,,,,,,,,,,,,,,,,,,,,,,,,,,,,,,,,,,,,,,,,,,,,,,,,,,,,
1702545403,1702545403,115,0,4380.641113,4458.333496,4309.358887,4428.589844,4308.205078,4263.846191,4339.615234,4322.94873,4325.384766,4303.589844,4448.333496,4523.077148,4194.487305,4415,6322,4,76,,,,0,4,4,4,4,4,4,4,4,4,4,4,4,4,4,100,,,,,,,,,,,,,,,,,,,,,,,,,,,,,,,,,,,,,,,,,,,,,,,,,,,,,,,,,,,,,,,,,,,,,,,,,,,,,,,,,,,,,,,,,,,,,,,,,,,,,,,,,,,,,,,,,,,,,,,,,,,,,,,,,,,,,,
1702545403,1702545403,116,0,4381.666504,4459.358887,4312.436035,4425.641113,4305.897461,4275.384766,4347.563965,4328.205078,4330.256348,4308.717773,4450.641113,4526.666504,4208.589844,4414.871582,6898,4,76,,,,0,4,4,4,4,4,4,4,4,4,4,4,4,4,4,100,,,,,,,,,,,,,,,,,29,0,0.717382,-0.160095,-0.672363,0.087524,0.929313,-0.308143,0.01172,-17.851788,0.607371,87.626373,,,,,,,,,,,,,,,,,,,,,,,,,,,,,,,,,,,,,,,,,,,,,,,,,,,,,,,,,,,,,,,,,,,,,,,,,,,,,,,,,,,,,,,,,,,,,,,,,,,,,,,,,,
1702545403,1702545403,117,0,4390,4480.384766,4321.025879,4435.897461,4338.717773,4286.282227,4356.666504,4329.743652,4336.282227,4319.230957,4465.128418,4537.563965,4231.666504,4427.179688,7209,4,76,,,,0,4,4,4,4,4,4,4,4,4,4,4,4,4,4,100,,,,,,,,,,,,,,,,,,,,,,,,,,,,,,,,,,,,,,,,,,,,,,,,,,,,,,,,,,,,,,,,,,,,,,,,,,,,,,,,,,,,,,,,,,,,,,,,,,,,,,,,,,,,,,,,,,,,,,,,,,,,,,,,,,,,,,
1702545403,1702545403,118,0,4398.589844,4502.307617,4330.641113,4450,4356.410156,4296.410156,4369.230957,4341.538574,4343.974121,4333.717773,4478.717773,4552.05127,4245.128418,4438.717773,6123,4,76,,,,0,4,4,4,4,4,4,4,4,4,4,4,4,4,4,100,,,,,,,,,,,,,,,,,,,,,,,,,,,,,,,,,,,,,,,,,,,,,,,,,,,,,,,,,,,,,,,,,,,,,,,,,,,,,,,,,,,,,,,,,,,,,,,,,,,,,,,,,,,,,,,,,,,,,,,,,,,,,,,,,,,,,,
1702545403,1702545403,119,0,4398.974121,4503.205078,4332.179688,4448.333496,4332.436035,4298.717773,4366.922852,4345.256348,4342.94873,4332.179688,4476.922852,4553.333496,4250.897461,4434.102539,6322,4,76,,,,0,4,4,4,4,4,4,4,4,4,4,4,4,4,4,100,,,,,,,,,,,,,,,,,,,,,,,,,,,,,,,,,,,,,,,,,,,,,,,,,,,,,,,,,,,,,,,,,,,,,,,,,,,,,,,,,,,,,,,,,,,,,,,,,,,,,,,,,,,,,,,,,,,,,,,,,,,,,,,,,,,,,,
1702545403,1702545403,120,0,4395.256348,4506.666504,4326.282227,4440.512695,4330.256348,4293.717773,4352.05127,4330.128418,4336.794922,4319.871582,4470,4539.230957,4261.025879,4425.384766,6898,4,76,,,,0,4,4,4,4,4,4,4,4,4,4,4,4,4,4,100,,,,,,,,,,,,,,,,,30,0,0.717592,-0.160156,-0.67218,0.087097,0.933219,-0.310096,0.015139,-17.933275,0.6633,87.647072,,,,,,,,,,,,,,,,,,,,,,,,,,,,,,,,,,,,,,,,,,,,,,,,,,,,,,,,,,,,,,,,,,,,,,,,,,,,,,,,,,,,,,,,,,,,,,,,,,,,,,,,,,
1702545403,1702545403,121,0,4403.077148,4525.256348,4332.05127,4449.743652,4355.769043,4297.820313,4350.769043,4330.512695,4340.384766,4324.743652,4477.05127,4543.461426,4278.974121,4433.846191,7209,4,76,,,,0,4,4,4,4,4,4,4,4,4,4,4,4,4,4,100,,,,,,,,,,,,,,,,,,,,,,,,,,,,,,,,,,,,,,,,,,,,,,,,,,,,,,,,,,,,,,,,,,,,,,,,,,,,,,,,,,,,,,,,,,,,,,,,,,,,,,,,,,,,,,,,,,,,,,,,,,,,,,,,,,,,,,
1702545403,1702545403,122,0,4413.461426,4539.871582,4345.256348,4461.538574,4356.666504,4299.743652,4359.102539,4349.358887,4352.307617,4339.743652,4490.897461,4563.205078,4304.102539,4448.077148,6123,4,76,,,,0,4,4,4,4,4,4,4,4,4,4,4,4,4,4,100,,,,,,,,,,,,,,,,,,,,,,,,,,,,,,,,,,,,,,,,,,,,,,,,,,,,,,,,,,,,,,,,,,,,,,,,,,,,,,,,,,,,,,,,,,,,,,,,,,,,,,,,,,,,,,,,,,,,,,,,,,,,,,,,,,,,,,
1702545403,1702545403,123,0,4411.666504,4545,4341.922852,4453.461426,4341.025879,4289.615234,4357.94873,4349.871582,4354.871582,4341.025879,4493.846191,4562.179688,4328.846191,4448.077148,6322,4,76,,,,0,4,4,4,4,4,4,4,4,4,4,4,4,4,4,100,,,,,,,,,,,,,,,,,,,,,,,,,,,,,,,,,,,,,,,,,,,,,,,,,,,,,,,,,,,,,,,,,,,,,,,,,,,,,,,,,,,,,,,,,,,,,,,,,,,,,,,,,,,,,,,,,,,,,,,,,,,,,,,,,,,,,,
1702545403,1702545403,124,0,4410.256348,4551.666504,4333.846191,4443.846191,4345.897461,4287.820313,4356.153809,4339.615234,4353.974121,4337.563965,4491.410156,4551.794922,4347.436035,4443.589844,6898,4,76,,,,0,4,4,4,4,4,4,4,4,4,4,4,4,4,4,100,,,,,,,,,,,,,,,,,31,0,0.717636,-0.160156,-0.67218,0.086731,0.936149,-0.30619,0.011232,-17.82328,0.59697,87.632362,,,,,,,,,,,,,,,,,,,,,,,,,,,,,,,,,,,,,9.5598,4.233804,4.028609,0.799019,0.393668,19.413414,7.627714,7.001403,0.653362,0.502598,8.700495,4.095008,3.936774,0.719823,0.408566,10.800762,5.519317,4.780958,0.899816,0.456682,6.278247,2.838332,3.309372,1.866457,2.307908,9.882122,2.778805,3.723855,0.569275,0.21174,7.555204,3.436244,3.205299,0.373069,0.399028,7.737581,2.882811,1.816256,0.308665,0.282858,10.951454,4.451414,3.40414,0.401069,0.350266,11.774597,5.302778,3.419826,1.032289,0.944725,18.251467,7.404239,4.699612,0.999295,0.62322,15.537212,7.150533,5.625008,1.092613,0.600277,23.312372,6.712407,5.830889,1.070519,0.698243,15.045505,6.773731,3.993773,1.189292,0.603267
1702545403,1702545403,125,0,4412.820313,4558.461426,4338.077148,4445.897461,4355,4294.487305,4359.615234,4343.846191,4359.358887,4339.871582,4493.589844,4554.871582,4366.794922,4443.205078,7209,4,76,,,,0,4,4,4,4,4,4,4,4,4,4,4,4,4,4,100,,,,,,,,,,,,,,,,,,,,,,,,,,,,,,,,,,,,,,,,,,,,,,,,,,,,,,,,,,,,,,,,,,,,,,,,,,,,,,,,,,,,,,,,,,,,,,,,,,,,,,,,,,,,,,,,,,,,,,,,,,,,,,,,,,,,,,
1702545403,1702545403,126,0,4403.589844,4561.153809,4337.05127,4444.487305,4352.307617,4294.358887,4353.846191,4343.077148,4352.692383,4341.666504,4488.717773,4549.230957,4384.871582,4434.871582,6123,4,76,,,,0,4,4,4,4,4,4,4,4,4,4,4,4,4,4,100,,,,,,,,,,,,,,,,,,,,,,,,,,,,,,,,,,,,,,,,,,,,,,,,,,,,,,,,,,,,,,,,,,,,,,,,,,,,,,,,,,,,,,,,,,,,,,,,,,,,,,,,,,,,,,,,,,,,,,,,,,,,,,,,,,,,,,
1702545403,1702545403,127,0,4404.230957,4575.641113,4336.794922,4448.846191,4355.897461,4303.717773,4352.692383,4339.102539,4346.025879,4340.769043,4487.563965,4547.179688,4405.769043,4435.256348,76,4,76,,,,0,4,4,4,4,4,4,4,4,4,4,4,4,4,4,100,,,,,,,,,,,,,,,,,,,,,,,,,,,,,,,,,,,,,,,,,,,,,,,,,,,,,,,,,,,,,,,,,,,,,,,,,,,,,,,,,,,,,,,,,,,,,,,,,,,,,,,,,,,,,,,,,,,,,,,,,,,,,,,,,,,,,,
1702545403,1702545403,0,0,4428.333496,4602.692383,4353.589844,4469.230957,4363.205078,4328.205078,4364.743652,4353.333496,4365.128418,4349.358887,4506.794922,4569.487305,4438.077148,4458.077148,5390,4,76,,,,0,4,4,4,4,4,4,4,4,4,4,4,4,4,4,100,,,,,,,,,,,,,,,,,0,0,0.717499,-0.160034,-0.672363,0.08667,0.930289,-0.311561,0.022464,-17.707621,0.55394,87.635796,,,,,,,,,,,,,,,,,,,,,,,,,,,,,,,,,,,,,,,,,,,,,,,,,,,,,,,,,,,,,,,,,,,,,,,,,,,,,,,,,,,,,,,,,,,,,,,,,,,,,,,,,,
1702545403,1702545403,1,0,4430.512695,4607.307617,4355,4467.307617,4353.205078,4330.641113,4358.461426,4356.922852,4368.333496,4351.025879,4511.025879,4572.94873,4451.922852,4459.102539,5514,4,76,,,,0,4,4,4,4,4,4,4,4,4,4,4,4,4,4,100,,,,,,,,,,,,,,,,,,,,,,,,,,,,,,,,,,,,,,,,,,,,,,,,,,,,,,,,,,,,,,,,,,,,,,,,,,,,,,,,,,,,,,,,,,,,,,,,,,,,,,,,,,,,,,,,,,,,,,,,,,,,,,,,,,,,,,
1702545403,1702545403,2,0,4408.077148,4586.538574,4336.794922,4443.717773,4343.846191,4308.333496,4336.538574,4337.436035,4342.05127,4330,4488.333496,4547.692383,4441.025879,4435.512695,5504,4,76,,,,0,4,4,4,4,4,4,4,4,4,4,4,4,4,4,100,,,,,,,,,,,,,,,,,,,,,,,,,,,,,,,,,,,,,,,,,,,,,,,,,,,,,,,,,,,,,,,,,,,,,,,,,,,,,,,,,,,,,,,,,,,,,,,,,,,,,,,,,,,,,,,,,,,,,,,,,,,,,,,,,,,,,,
1702545403,1702545403,3,0,4408.205078,4577.820313,4337.563965,4439.487305,4348.205078,4296.538574,4335.384766,4334.230957,4341.794922,4323.077148,4485.256348,4548.205078,4453.205078,4434.615234,5417,4,76,,,,0,4,4,4,4,4,4,4,4,4,4,4,4,4,4,100,,,,,,,,,,,,,,,,,,,,,,,,,,,,,,,,,,,,,,,,,,,,,,,,,,,,,,,,,,,,,,,,,,,,,,,,,,,,,,,,,,,,,,,,,,,,,,,,,,,,,,,,,,,,,,,,,,,,,,,,,,,,,,,,,,,,,,
1702545403,1702545403,4,0,4421.282227,4582.820313,4349.102539,4446.153809,4350.512695,4304.487305,4347.307617,4349.487305,4361.794922,4338.461426,4501.025879,4566.282227,4483.974121,4449.871582,5402,4,76,,,,0,4,4,4,4,4,4,4,4,4,4,4,4,4,4,100,,,,,,,,,,,,,,,,,1,0,0.717355,-0.159912,-0.672546,0.08667,0.943475,-0.310585,0.01172,-17.736858,0.365213,87.80555,,,,,,,,,,,,,,,,,,,,,,,,,,,,,,,,,,,,,,,,,,,,,,,,,,,,,,,,,,,,,,,,,,,,,,,,,,,,,,,,,,,,,,,,,,,,,,,,,,,,,,,,,,
1702545403,1702545403,5,0,4419.102539,4585.256348,4348.974121,4442.563965,4349.871582,4318.333496,4349.230957,4350.512695,4357.436035,4339.358887,4498.589844,4563.846191,4493.461426,4449.743652,5440,4,76,,,,0,4,4,4,4,4,4,4,4,4,4,4,4,4,4,100,,,,,,,,,,,,,,,,,,,,,,,,,,,,,,,,,,,,,,,,,,,,,,,,,,,,,,,,,,,,,,,,,,,,,,,,,,,,,,,,,,,,,,,,,,,,,,,,,,,,,,,,,,,,,,,,,,,,,,,,,,,,,,,,,,,,,,
1702545403,1702545403,6,0,4416.282227,4586.794922,4348.077148,4437.436035,4355.641113,4325.512695,4348.333496,4345.128418,4345.897461,4330.641113,4490.512695,4557.94873,4497.307617,4445.384766,5263,4,76,,,,0,4,4,4,4,4,4,4,4,4,4,4,4,4,4,100,,,,,,,,,,,,,,,,,,,,,,,,,,,,,,,,,,,,,,,,,,,,,,,,,,,,,,,,,,,,,,,,,,,,,,,,,,,,,,,,,,,,,,,,,,,,,,,,,,,,,,,,,,,,,,,,,,,,,,,,,,,,,,,,,,,,,,
1702545403,1702545403,7,0,4417.436035,4589.615234,4351.410156,4437.179688,4363.461426,4325.384766,4349.230957,4351.025879,4350.897461,4333.333496,4495.256348,4563.077148,4516.410156,4449.102539,5103,4,76,,,,0,4,4,4,4,4,4,4,4,4,4,4,4,4,4,100,,,,,,,,,,,,,,,,,,,,,,,,,,,,,,,,,,,,,,,,,,,,,,,,,,,,,,,,,,,,,,,,,,,,,,,,,,,,,,,,,,,,,,,,,,,,,,,,,,,,,,,,,,,,,,,,,,,,,,,,,,,,,,,,,,,,,,
1702545403,1702545403,8,0,4413.205078,4587.436035,4350.512695,4433.589844,4352.820313,4329.615234,4346.153809,4353.846191,4354.358887,4334.487305,4494.358887,4557.179688,4524.871582,4439.743652,5442,4,76,,,,0,4,4,4,4,4,4,4,4,4,4,4,4,4,4,100,,,,,,,,,,,,,,,,,2,0,0.71726,-0.15979,-0.672668,0.086731,0.932243,-0.304725,0.02344,-17.796505,0.462025,87.84166,,,,,,,,,,,,,,,,,,,,,,,,,,,,,,,,,,,,,,,,,,,,,,,,,,,,,,,,,,,,,,,,,,,,,,,,,,,,,,,,,,,,,,,,,,,,,,,,,,,,,,,,,,
1702545403,1702545403,9,0,4406.153809,4581.153809,4348.461426,4424.743652,4331.794922,4339.102539,4341.025879,4350.128418,4349.487305,4335.256348,4485.641113,4547.436035,4521.922852,4423.077148,5455,4,76,,,,0,4,4,4,4,4,4,4,4,4,4,4,4,4,4,100,,,,,,,,,,,,,,,,,,,,,,,,,,,,,,,,,,,,,,,,,,,,,,,,,,,,,,,,,,,,,,,,,,,,,,,,,,,,,,,,,,,,,,,,,,,,,,,,,,,,,,,,,,,,,,,,,,,,,,,,,,,,,,,,,,,,,,
1702545403,1702545403,10,0,4409.102539,4593.077148,4353.717773,4427.94873,4335.641113,4345.128418,4342.05127,4349.615234,4349.743652,4344.358887,4492.820313,4557.820313,4542.692383,4431.025879,6078,4,76,,,,0,4,4,4,4,4,4,4,4,4,4,4,4,4,4,100,,,,,,,,,,,,,,,,,,,,,,,,,,,,,,,,,,,,,,,,,,,,,,,,,,,,,,,,,,,,,,,,,,,,,,,,,,,,,,,,,,,,,,,,,,,,,,,,,,,,,,,,,,,,,,,,,,,,,,,,,,,,,,,,,,,,,,
1702545403,1702545403,11,0,4416.153809,4608.717773,4366.025879,4441.666504,4363.717773,4351.538574,4355.769043,4359.230957,4360.512695,4350.256348,4505.897461,4578.077148,4564.358887,4445.512695,6307,4,76,,,,0,4,4,4,4,4,4,4,4,4,4,4,4,4,4,100,,,,,,,,,,,,,,,,,,,,,,,,,,,,,,,,,,,,,,,,,,,,,,,,,,,,,,,,,,,,,,,,,,,,,,,,,,,,,,,,,,,,,,,,,,,,,,,,,,,,,,,,,,,,,,,,,,,,,,,,,,,,,,,,,,,,,,
1702545403,1702545403,12,0,4412.307617,4599.102539,4374.358887,4444.102539,4379.487305,4363.077148,4371.410156,4372.692383,4375.897461,4357.436035,4510,4584.743652,4563.205078,4440.128418,6877,4,76,,,,0,4,4,4,4,4,4,4,4,4,4,4,4,4,4,100,,,,,,,,,,,,,,,,,3,0,0.717229,-0.159607,-0.672729,0.086853,0.941033,-0.309608,0.009767,-17.733522,0.515822,87.907494,,,,,,,,,,,,,,,,,,,,,,,,,,,,,,,,,,,,,9.725921,4.54391,3.2348,0.749056,0.396478,14.519565,6.969487,4.76702,0.712119,0.538321,8.31772,4.122812,3.307561,0.653218,0.410938,9.260507,4.778598,3.403008,0.828204,0.477232,5.728477,2.596797,2.438699,1.971577,2.482199,8.196117,2.959299,3.043935,0.5146,0.2032,8.058036,2.973372,2.756825,0.351497,0.403897,8.162981,2.916409,1.772221,0.276992,0.295187,11.52234,4.495495,2.991951,0.374822,0.392611,11.665804,5.399325,2.842688,1.033816,0.937674,19.058674,8.058067,3.926856,0.931049,0.651994,15.64668,7.334641,4.739994,0.977448,0.596557,28.101702,7.80582,4.654701,0.975092,0.695287,16.908272,7.364285,3.442725,1.114578,0.605475
1702545403,1702545403,13,0,4420,4602.179688,4376.794922,4441.282227,4369.102539,4366.282227,4370.897461,4372.563965,4374.487305,4359.102539,4515.769043,4583.717773,4586.538574,4448.589844,7186,4,76,,,,0,4,4,4,4,4,4,4,4,4,4,4,4,4,4,100,,,,,,,,,,,,,,,,,,,,,,,,,,,,,,,,,,,,,,,,,,,,,,,,,,,,,,,,,,,,,,,,,,,,,,,,,,,,,,,,,,,,,,,,,,,,,,,,,,,,,,,,,,,,,,,,,,,,,,,,,,,,,,,,,,,,,,
1702545403,1702545403,14,0,4457.05127,4653.589844,4385.384766,4458.077148,4368.461426,4360.641113,4359.743652,4358.974121,4362.179688,4346.666504,4525.256348,4593.461426,4642.820313,4492.179688,6078,4,76,,,,0,4,4,4,4,4,4,4,4,4,4,4,4,4,4,100,,,,,,,,,,,,,,,,,,,,,,,,,,,,,,,,,,,,,,,,,,,,,,,,,,,,,,,,,,,,,,,,,,,,,,,,,,,,,,,,,,,,,,,,,,,,,,,,,,,,,,,,,,,,,,,,,,,,,,,,,,,,,,,,,,,,,,
1702545403,1702545403,15,0,4497.436035,4699.487305,4396.410156,4476.282227,4371.922852,4353.717773,4350.897461,4348.974121,4357.179688,4333.846191,4527.563965,4606.025879,4674.871582,4531.282227,6307,4,76,,,,0,4,4,4,4,4,4,4,4,4,4,4,4,4,4,100,,,,,,,,,,,,,,,,,,,,,,,,,,,,,,,,,,,,,,,,,,,,,,,,,,,,,,,,,,,,,,,,,,,,,,,,,,,,,,,,,,,,,,,,,,,,,,,,,,,,,,,,,,,,,,,,,,,,,,,,,,,,,,,,,,,,,,
1702545403,1702545403,16,0,4520.897461,4709.487305,4400.512695,4475.128418,4347.94873,4339.487305,4341.922852,4342.05127,4344.102539,4331.538574,4519.230957,4608.589844,4681.794922,4551.282227,0,4,76,,,,0,4,4,4,4,4,4,4,4,4,4,4,4,4,4,100,,,,,,,,,,,,,,,,,4,0,0.717193,-0.159546,-0.672791,0.086792,0.934196,-0.313515,0.004395,-17.776836,0.46424,87.866745,,,,,,,,,,,,,,,,,,,,,,,,,,,,,,,,,,,,,,,,,,,,,,,,,,,,,,,,,,,,,,,,,,,,,,,,,,,,,,,,,,,,,,,,,,,,,,,,,,,,,,,,,,
1702545403,1702545403,17,0,4551.282227,4737.179688,4410.897461,4483.333496,4330.384766,4327.94873,4335.256348,4334.102539,4326.794922,4329.871582,4525,4619.615234,4710.384766,4584.743652,0,4,76,,,,0,4,4,4,4,4,4,4,4,4,4,4,4,4,4,100,,,,,,,,,,,,,,,,,,,,,,,,,,,,,,,,,,,,,,,,,,,,,,,,,,,,,,,,,,,,,,,,,,,,,,,,,,,,,,,,,,,,,,,,,,,,,,,,,,,,,,,,,,,,,,,,,,,,,,,,,,,,,,,,,,,,,,
1702545403,1702545403,18,0,4588.717773,4775.384766,4424.230957,4502.563965,4346.538574,4324.230957,4330.769043,4329.102539,4325.641113,4318.077148,4542.692383,4634.358887,4743.717773,4624.358887,0,4,76,,,,0,4,4,4,4,4,4,4,4,4,4,4,4,4,4,100,,,,,,,,,,,,,,,,,,,,,,,,,,,,,,,,,,,,,,,,,,,,,,,,,,,,,,,,,,,,,,,,,,,,,,,,,,,,,,,,,,,,,,,,,,,,,,,,,,,,,,,,,,,,,,,,,,,,,,,,,,,,,,,,,,,,,,
1702545403,1702545403,19,0,4620,4793.461426,4431.794922,4511.794922,4349.102539,4317.307617,4326.410156,4326.153809,4330.512695,4308.717773,4553.461426,4644.487305,4765.641113,4653.077148,0,4,76,,,,0,4,4,4,4,4,4,4,4,4,4,4,4,4,4,100,,,,,,,,,,,,,,,,,,,,,,,,,,,,,,,,,,,,,,,,,,,,,,,,,,,,,,,,,,,,,,,,,,,,,,,,,,,,,,,,,,,,,,,,,,,,,,,,,,,,,,,,,,,,,,,,,,,,,,,,,,,,,,,,,,,,,,
1702545403,1702545403,20,0,4648.846191,4816.538574,4440.769043,4520,4321.666504,4310.897461,4324.743652,4323.461426,4326.538574,4306.794922,4561.153809,4662.563965,4796.410156,4679.743652,0,4,76,,,,0,4,4,4,4,4,4,4,4,4,4,4,4,4,4,100,,,,,,,,,,,,,,,,,5,0,0.717034,-0.159485,-0.672974,0.086792,0.935173,-0.30912,0.01758,-17.799152,0.601149,87.980072,,,,,,,,,,,,,,,,,,,,,,,,,,,,,,,,,,,,,,,,,,,,,,,,,,,,,,,,,,,,,,,,,,,,,,,,,,,,,,,,,,,,,,,,,,,,,,,,,,,,,,,,,,
1702545403,1702545403,21,0,4663.333496,4832.436035,4450.128418,4525.897461,4313.974121,4307.307617,4323.717773,4323.333496,4322.563965,4308.077148,4573.974121,4674.487305,4824.358887,4700.897461,0,4,76,,,,0,4,4,4,4,4,4,4,4,4,4,4,4,4,4,100,,,,,,,,,,,,,,,,,,,,,,,,,,,,,,,,,,,,,,,,,,,,,,,,,,,,,,,,,,,,,,,,,,,,,,,,,,,,,,,,,,,,,,,,,,,,,,,,,,,,,,,,,,,,,,,,,,,,,,,,,,,,,,,,,,,,,,
1702545403,1702545403,22,0,4668.717773,4824.102539,4456.025879,4523.333496,4332.563965,4299.871582,4323.461426,4325.641113,4325.897461,4319.230957,4586.153809,4675.128418,4838.333496,4712.05127,0,4,76,,,,0,4,4,4,4,4,4,4,4,4,4,4,4,4,4,100,,,,,,,,,,,,,,,,,,,,,,,,,,,,,,,,,,,,,,,,,,,,,,,,,,,,,,,,,,,,,,,,,,,,,,,,,,,,,,,,,,,,,,,,,,,,,,,,,,,,,,,,,,,,,,,,,,,,,,,,,,,,,,,,,,,,,,
1702545403,1702545403,23,0,4674.487305,4816.282227,4461.025879,4522.563965,4344.102539,4293.589844,4324.871582,4328.846191,4330.384766,4326.794922,4587.820313,4680,4843.333496,4718.974121,0,4,76,,,,0,4,4,4,4,4,4,4,4,4,4,4,4,4,4,100,,,,,,,,,,,,,,,,,,,,,,,,,,,,,,,,,,,,,,,,,,,,,,,,,,,,,,,,,,,,,,,,,,,,,,,,,,,,,,,,,,,,,,,,,,,,,,,,,,,,,,,,,,,,,,,,,,,,,,,,,,,,,,,,,,,,,,
1702545403,1702545403,24,0,4677.179688,4812.436035,4462.179688,4522.436035,4334.743652,4293.077148,4324.743652,4330.769043,4333.077148,4319.358887,4588.974121,4687.563965,4850.641113,4730,0,4,76,,,,0,4,4,4,4,4,4,4,4,4,4,4,4,4,4,100,,,,,,,,,,,,,,,,,6,0,0.717007,-0.159485,-0.673035,0.086548,0.931266,-0.298376,0.008302,-17.735905,0.591034,87.94873,,,,,,,,,,,,,,,,,,,,,,,,,,,,,,,,,,,,,,,,,,,,,,,,,,,,,,,,,,,,,,,,,,,,,,,,,,,,,,,,,,,,,,,,,,,,,,,,,,,,,,,,,,
1702545403,1702545403,25,0,4684.743652,4800.128418,4463.717773,4513.077148,4324.871582,4290.128418,4330,4339.102539,4339.487305,4321.410156,4600.897461,4697.692383,4862.563965,4743.589844,0,4,76,,,,0,4,4,4,4,4,4,4,4,4,4,4,4,4,4,100,,,,,,,,,,,,,,,,,,,,,,,,,,,,,,,,,,,,,,,,,,,,,,,,,,,,,,,,,,,,,,,,,,,,,,,,,,,,,,,,,,,,,,,,,,,,,,,,,,,,,,,,,,,,,,,,,,,,,,,,,,,,,,,,,,,,,,
1702545403,1702545403,26,0,4693.077148,4797.436035,4466.538574,4508.333496,4323.846191,4282.94873,4337.692383,4349.743652,4348.333496,4331.025879,4612.692383,4706.025879,4869.230957,4753.461426,0,4,76,,,,0,4,4,4,4,4,4,4,4,4,4,4,4,4,4,100,,,,,,,,,,,,,,,,,,,,,,,,,,,,,,,,,,,,,,,,,,,,,,,,,,,,,,,,,,,,,,,,,,,,,,,,,,,,,,,,,,,,,,,,,,,,,,,,,,,,,,,,,,,,,,,,,,,,,,,,,,,,,,,,,,,,,,
1702545403,1702545403,27,0,4683.846191,4795,4462.05127,4509.102539,4318.974121,4275.256348,4330.897461,4346.410156,4346.025879,4318.077148,4605.128418,4694.102539,4860.512695,4751.922852,0,4,76,,,,0,4,4,4,4,4,4,4,4,4,4,4,4,4,4,100,,,,,,,,,,,,,,,,,,,,,,,,,,,,,,,,,,,,,,,,,,,,,,,,,,,,,,,,,,,,,,,,,,,,,,,,,,,,,,,,,,,,,,,,,,,,,,,,,,,,,,,,,,,,,,,,,,,,,,,,,,,,,,,,,,,,,,
1702545403,1702545403,28,0,4675.897461,4784.487305,4459.230957,4506.794922,4332.692383,4276.922852,4327.05127,4339.358887,4342.563965,4313.333496,4598.461426,4683.846191,4856.153809,4748.846191,0,4,76,,,,0,4,4,4,4,4,4,4,4,4,4,4,4,4,4,100,,,,,,,,,,,,,,,,,7,0,0.716936,-0.159485,-0.673157,0.086182,0.934196,-0.301306,0.012697,-17.728981,0.565264,88.020523,,,,,,,,,,,,,,,,,,,,,,,,,,,,,,,,,,,,,10.292207,4.843107,2.522612,0.715036,0.403407,10.072629,6.044609,2.809525,0.77577,0.575966,8.317757,4.181585,2.733056,0.609822,0.406866,7.745605,4.013063,2.188712,0.7526,0.484624,5.742147,2.293858,1.635462,2.049856,2.648402,7.087162,3.427114,2.411335,0.475814,0.201617,9.26879,2.396242,2.394859,0.34416,0.39453,9.078684,2.984146,1.841182,0.248376,0.305557,12.695128,4.469263,2.687896,0.34461,0.42881,12.101236,5.318877,2.379489,0.9805,0.873216,20.200216,8.594763,3.33974,0.833956,0.664559,16.641369,7.588259,4.002284,0.868098,0.583694,33.75769,8.784078,3.827932,0.870161,0.678279,18.910667,7.818991,3.033071,1.016428,0.59152
1702545403,1702545403,29,0,4687.94873,4790.256348,4466.666504,4512.179688,4355.897461,4294.615234,4341.922852,4344.358887,4352.436035,4337.94873,4616.794922,4701.794922,4872.179688,4758.077148,0,4,76,,,,0,4,4,4,4,4,4,4,4,4,4,4,4,4,4,100,,,,,,,,,,,,,,,,,,,,,,,,,,,,,,,,,,,,,,,,,,,,,,,,,,,,,,,,,,,,,,,,,,,,,,,,,,,,,,,,,,,,,,,,,,,,,,,,,,,,,,,,,,,,,,,,,,,,,,,,,,,,,,,,,,,,,,
1702545403,1702545403,30,0,4686.666504,4780.769043,4466.153809,4512.05127,4339.743652,4303.333496,4344.358887,4346.282227,4353.589844,4345,4623.461426,4707.307617,4875,4761.153809,0,4,76,,,,0,4,4,4,4,4,4,4,4,4,4,4,4,4,4,100,,,,,,,,,,,,,,,,,,,,,,,,,,,,,,,,,,,,,,,,,,,,,,,,,,,,,,,,,,,,,,,,,,,,,,,,,,,,,,,,,,,,,,,,,,,,,,,,,,,,,,,,,,,,,,,,,,,,,,,,,,,,,,,,,,,,,,
1702545403,1702545403,31,0,4662.94873,4729.743652,4451.153809,4487.179688,4304.487305,4285,4318.846191,4331.666504,4332.436035,4319.358887,4600.256348,4681.153809,4853.333496,4743.974121,0,4,76,,,,0,4,4,4,4,4,4,4,4,4,4,4,4,4,4,100,,,,,,,,,,,,,,,,,,,,,,,,,,,,,,,,,,,,,,,,,,,,,,,,,,,,,,,,,,,,,,,,,,,,,,,,,,,,,,,,,,,,,,,,,,,,,,,,,,,,,,,,,,,,,,,,,,,,,,,,,,,,,,,,,,,,,,
1702545403,1702545403,32,0,4648.333496,4688.461426,4436.922852,4463.461426,4301.282227,4263.333496,4298.589844,4319.358887,4317.820313,4296.282227,4578.974121,4659.871582,4829.743652,4726.025879,0,4,76,,,,0,4,4,4,4,4,4,4,4,4,4,4,4,4,4,100,,,,,,,,,,,,,,,,,8,0,0.717082,-0.159607,-0.673035,0.085693,0.951288,-0.315468,0.01758,-17.822748,0.475405,88.001801,,,,,,,,,,,,,,,,,,,,,,,,,,,,,,,,,,,,,,,,,,,,,,,,,,,,,,,,,,,,,,,,,,,,,,,,,,,,,,,,,,,,,,,,,,,,,,,,,,,,,,,,,,
1702545403,1702545403,33,0,4640,4672.436035,4429.230957,4456.922852,4295.641113,4264.102539,4301.538574,4320.769043,4320,4294.487305,4572.179688,4652.179688,4816.538574,4719.358887,0,4,76,,,,0,4,4,4,4,4,4,4,4,4,4,4,4,4,4,100,,,,,,,,,,,,,,,,,,,,,,,,,,,,,,,,,,,,,,,,,,,,,,,,,,,,,,,,,,,,,,,,,,,,,,,,,,,,,,,,,,,,,,,,,,,,,,,,,,,,,,,,,,,,,,,,,,,,,,,,,,,,,,,,,,,,,,
1702545403,1702545403,34,0,4624.487305,4642.436035,4425.128418,4448.974121,4280.512695,4272.94873,4305.769043,4323.205078,4315.384766,4295.897461,4567.94873,4646.794922,4807.692383,4711.410156,0,4,76,,,,0,4,4,4,4,4,4,4,4,4,4,4,4,4,4,100,,,,,,,,,,,,,,,,,,,,,,,,,,,,,,,,,,,,,,,,,,,,,,,,,,,,,,,,,,,,,,,,,,,,,,,,,,,,,,,,,,,,,,,,,,,,,,,,,,,,,,,,,,,,,,,,,,,,,,,,,,,,,,,,,,,,,,
1702545403,1702545403,35,0,4612.692383,4606.794922,4426.666504,4439.487305,4291.410156,4275.128418,4302.820313,4321.922852,4308.205078,4291.410156,4566.794922,4647.05127,4797.179688,4703.846191,0,4,76,,,,0,4,4,4,4,4,4,4,4,4,4,4,4,4,4,100,,,,,,,,,,,,,,,,,,,,,,,,,,,,,,,,,,,,,,,,,,,,,,,,,,,,,,,,,,,,,,,,,,,,,,,,,,,,,,,,,,,,,,,,,,,,,,,,,,,,,,,,,,,,,,,,,,,,,,,,,,,,,,,,,,,,,,
1702545403,1702545403,36,0,4608.461426,4589.358887,4427.179688,4435.897461,4291.538574,4276.025879,4303.974121,4322.94873,4314.871582,4294.871582,4569.358887,4648.077148,4784.871582,4702.05127,0,4,76,,,,0,4,4,4,4,4,4,4,4,4,4,4,4,4,4,100,,,,,,,,,,,,,,,,,9,0,0.717189,-0.160156,-0.672791,0.085693,0.927848,-0.306678,0.000488,-17.640474,0.577864,87.984955,,,,,,,,,,,,,,,,,,,,,,,,,,,,,,,,,,,,,,,,,,,,,,,,,,,,,,,,,,,,,,,,,,,,,,,,,,,,,,,,,,,,,,,,,,,,,,,,,,,,,,,,,,
1702545403,1702545403,37,0,4598.205078,4570.897461,4420.769043,4425.384766,4274.871582,4272.692383,4306.666504,4323.717773,4320.512695,4302.05127,4570.128418,4638.974121,4775.512695,4698.205078,0,4,76,,,,0,4,4,4,4,4,4,4,4,4,4,4,4,4,4,100,,,,,,,,,,,,,,,,,,,,,,,,,,,,,,,,,,,,,,,,,,,,,,,,,,,,,,,,,,,,,,,,,,,,,,,,,,,,,,,,,,,,,,,,,,,,,,,,,,,,,,,,,,,,,,,,,,,,,,,,,,,,,,,,,,,,,,
1702545403,1702545403,38,0,4588.974121,4547.692383,4417.692383,4413.077148,4280.256348,4264.230957,4301.794922,4318.717773,4314.358887,4299.871582,4570.384766,4634.230957,4779.743652,4695.769043,0,4,76,,,,0,4,4,4,4,4,4,4,4,4,4,4,4,4,4,100,,,,,,,,,,,,,,,,,,,,,,,,,,,,,,,,,,,,,,,,,,,,,,,,,,,,,,,,,,,,,,,,,,,,,,,,,,,,,,,,,,,,,,,,,,,,,,,,,,,,,,,,,,,,,,,,,,,,,,,,,,,,,,,,,,,,,,
1702545403,1702545403,39,0,4587.94873,4536.922852,4419.230957,4409.230957,4294.358887,4263.077148,4300.384766,4312.179688,4308.846191,4294.871582,4571.153809,4637.307617,4782.436035,4692.820313,0,4,76,,,,0,4,4,4,4,4,4,4,4,4,4,4,4,4,4,100,,,,,,,,,,,,,,,,,,,,,,,,,,,,,,,,,,,,,,,,,,,,,,,,,,,,,,,,,,,,,,,,,,,,,,,,,,,,,,,,,,,,,,,,,,,,,,,,,,,,,,,,,,,,,,,,,,,,,,,,,,,,,,,,,,,,,,
1702545403,1702545403,40,0,4578.974121,4527.179688,4413.461426,4404.358887,4295,4264.358887,4303.846191,4307.563965,4304.615234,4292.94873,4568.717773,4631.666504,4770,4681.153809,0,4,76,,,,0,4,4,4,4,4,4,4,4,4,4,4,4,4,4,100,,,,,,,,,,,,,,,,,10,0,0.717151,-0.160706,-0.672668,0.085938,0.927848,-0.301795,0.006837,-17.593094,0.620078,87.803131,,,,,,,,,,,,,,,,,,,,,,,,,,,,,,,,,,,,,,,,,,,,,,,,,,,,,,,,,,,,,,,,,,,,,,,,,,,,,,,,,,,,,,,,,,,,,,,,,,,,,,,,,,
1702545403,1702545403,41,0,4570.384766,4518.461426,4414.230957,4405.641113,4306.538574,4257.563965,4307.05127,4313.717773,4309.230957,4298.333496,4566.666504,4631.410156,4762.563965,4674.487305,0,4,76,,,,0,4,4,4,4,4,4,4,4,4,4,4,4,4,4,100,,,,,,,,,,,,,,,,,,,,,,,,,,,,,,,,,,,,,,,,,,,,,,,,,,,,,,,,,,,,,,,,,,,,,,,,,,,,,,,,,,,,,,,,,,,,,,,,,,,,,,,,,,,,,,,,,,,,,,,,,,,,,,,,,,,,,,
1702545403,1702545403,42,0,4571.025879,4522.820313,4427.94873,4411.538574,4315.769043,4257.563965,4314.615234,4329.871582,4329.358887,4308.333496,4569.743652,4644.102539,4763.077148,4677.05127,0,4,76,,,,0,4,4,4,4,4,4,4,4,4,4,4,4,4,4,100,,,,,,,,,,,,,,,,,,,,,,,,,,,,,,,,,,,,,,,,,,,,,,,,,,,,,,,,,,,,,,,,,,,,,,,,,,,,,,,,,,,,,,,,,,,,,,,,,,,,,,,,,,,,,,,,,,,,,,,,,,,,,,,,,,,,,,
1702545403,1702545403,43,0,4558.846191,4521.794922,4425.641113,4400.256348,4296.153809,4261.282227,4321.538574,4339.487305,4336.922852,4307.436035,4568.077148,4640,4749.230957,4664.102539,0,4,76,,,,0,4,4,4,4,4,4,4,4,4,4,4,4,4,4,100,,,,,,,,,,,,,,,,,,,,,,,,,,,,,,,,,,,,,,,,,,,,,,,,,,,,,,,,,,,,,,,,,,,,,,,,,,,,,,,,,,,,,,,,,,,,,,,,,,,,,,,,,,,,,,,,,,,,,,,,,,,,,,,,,,,,,,
1702545403,1702545403,44,0,4537.436035,4507.307617,4413.846191,4388.846191,4295,4262.94873,4327.692383,4343.717773,4333.717773,4310.641113,4562.94873,4627.563965,4732.05127,4644.743652,0,4,76,,,,0,4,4,4,4,4,4,4,4,4,4,4,4,4,4,100,1,25,1,1,1,3,1,1,1,1,3,3,1,3,1,1,11,0,0.717176,-0.161072,-0.672546,0.085999,0.94787,-0.30912,0.027347,-17.50045,0.541403,87.956146,,,,,,,,,,,,,,,,,,,,,,,,,,,,,,,,,,,,,11.069382,4.976038,1.99777,0.711248,0.412812,7.272992,4.890222,1.505798,0.844194,0.608167,8.435021,4.168121,2.306145,0.59975,0.396095,6.740707,3.277525,1.350386,0.69411,0.480669,5.946541,1.955803,1.060524,2.11267,2.755063,6.706966,4.000515,1.974319,0.475615,0.203918,10.546207,1.853994,2.177477,0.37602,0.373644,9.92986,3.001279,1.985244,0.233182,0.316006,13.769073,4.323649,2.52815,0.313385,0.452208,12.55061,5.001708,2.091192,0.882599,0.773159,20.944263,8.73797,3.008907,0.734756,0.658715,17.750469,7.646642,3.514838,0.795714,0.566384,38.189877,9.289495,3.352725,0.785076,0.657917,20.409441,7.896046,2.787673,0.928194,0.570417
1702545403,1702545403,45,0,4536.025879,4501.025879,4421.410156,4395.128418,4320.512695,4273.589844,4337.436035,4352.436035,4347.436035,4329.230957,4571.666504,4639.230957,4733.974121,4646.153809,0,4,76,,,,0,4,4,4,4,4,4,4,4,4,4,4,4,4,4,100,,,,,,,,,,,,,,,,,,,,,,,,,,,,,,,,,,,,,,,,,,,,,,,,,,,,,,,,,,,,,,,,,,,,,,,,,,,,,,,,,,,,,,,,,,,,,,,,,,,,,,,,,,,,,,,,,,,,,,,,,,,,,,,,,,,,,,
1702545403,1702545403,46,0,4548.589844,4511.410156,4438.205078,4400.128418,4331.538574,4288.974121,4345.384766,4359.102539,4362.563965,4341.282227,4589.615234,4658.461426,4739.358887,4658.205078,0,4,76,,,,0,4,4,4,4,4,4,4,4,4,4,4,4,4,4,100,,,,,,,,,,,,,,,,,,,,,,,,,,,,,,,,,,,,,,,,,,,,,,,,,,,,,,,,,,,,,,,,,,,,,,,,,,,,,,,,,,,,,,,,,,,,,,,,,,,,,,,,,,,,,,,,,,,,,,,,,,,,,,,,,,,,,,
1702545404,1702545404,47,0,4550,4524.487305,4449.871582,4402.820313,4339.615234,4303.589844,4356.282227,4368.077148,4370.769043,4350.384766,4605.128418,4668.589844,4737.307617,4665.128418,0,4,76,,,,0,4,4,4,4,4,4,4,4,4,4,4,4,4,4,100,,,,,,,,,,,,,,,,,,,,,,,,,,,,,,,,,,,,,,,,,,,,,,,,,,,,,,,,,,,,,,,,,,,,,,,,,,,,,,,,,,,,,,,,,,,,,,,,,,,,,,,,,,,,,,,,,,,,,,,,,,,,,,,,,,,,,,
1702545404,1702545404,48,0,4541.922852,4528.077148,4455.641113,4410.897461,4357.05127,4317.307617,4376.282227,4380,4381.538574,4360.897461,4615.512695,4674.743652,4730.256348,4662.94873,0,4,76,,,,0,4,4,4,4,4,4,4,4,4,4,4,4,4,4,100,,,,,,,,,,,,,,,,,12,0,0.717233,-0.161072,-0.672485,0.085999,0.94787,-0.322793,0.012697,-17.550406,0.470596,87.893867,,,,,,,,,,,,,,,,,,,,,,,,,,,,,,,,,,,,,,,,,,,,,,,,,,,,,,,,,,,,,,,,,,,,,,,,,,,,,,,,,,,,,,,,,,,,,,,,,,,,,,,,,,
1702545404,1702545404,49,0,4528.461426,4522.307617,4448.589844,4408.461426,4350.897461,4323.205078,4386.025879,4378.461426,4385.128418,4358.974121,4609.230957,4667.94873,4714.615234,4649.615234,0,4,76,,,,0,4,4,4,4,4,4,4,4,4,4,4,4,4,4,100,,,,,,,,,,,,,,,,,,,,,,,,,,,,,,,,,,,,,,,,,,,,,,,,,,,,,,,,,,,,,,,,,,,,,,,,,,,,,,,,,,,,,,,,,,,,,,,,,,,,,,,,,,,,,,,,,,,,,,,,,,,,,,,,,,,,,,
1702545404,1702545404,50,0,4514.487305,4522.307617,4435.769043,4394.743652,4338.717773,4320.769043,4376.794922,4370.512695,4383.461426,4357.05127,4592.179688,4653.717773,4699.615234,4630.641113,0,4,76,,,,0,4,4,4,4,4,4,4,4,4,4,4,4,4,4,100,,,,,,,,,,,,,,,,,,,,,,,,,,,,,,,,,,,,,,,,,,,,,,,,,,,,,,,,,,,,,,,,,,,,,,,,,,,,,,,,,,,,,,,,,,,,,,,,,,,,,,,,,,,,,,,,,,,,,,,,,,,,,,,,,,,,,,
1702545404,1702545404,51,0,4502.563965,4524.743652,4429.102539,4387.179688,4355.128418,4318.974121,4369.230957,4372.820313,4385.641113,4359.871582,4585.384766,4645,4685.641113,4618.205078,0,4,76,,,,0,4,4,4,4,4,4,4,4,4,4,4,4,4,4,100,,,,,,,,,,,,,,,,,,,,,,,,,,,,,,,,,,,,,,,,,,,,,,,,,,,,,,,,,,,,,,,,,,,,,,,,,,,,,,,,,,,,,,,,,,,,,,,,,,,,,,,,,,,,,,,,,,,,,,,,,,,,,,,,,,,,,,
1702545404,1702545404,52,0,4492.563965,4520.128418,4425.641113,4390.256348,4371.282227,4319.743652,4371.794922,4376.153809,4385.641113,4354.871582,4586.153809,4638.846191,4665.512695,4614.230957,0,4,76,,,,0,4,4,4,4,4,4,4,4,4,4,4,4,4,4,100,,,,,,,,,,,,,,,,,13,0,0.717091,-0.161194,-0.672607,0.085999,0.948846,-0.313515,0.007325,-17.528698,0.390203,87.854477,,,,,,,,,,,,,,,,,,,,,,,,,,,,,,,,,,,,,,,,,,,,,,,,,,,,,,,,,,,,,,,,,,,,,,,,,,,,,,,,,,,,,,,,,,,,,,,,,,,,,,,,,,
1702545404,1702545404,53,0,4492.436035,4527.820313,4432.692383,4398.333496,4370.512695,4327.820313,4379.487305,4385.128418,4391.922852,4363.717773,4594.102539,4644.743652,4656.282227,4618.205078,0,4,76,,,,0,4,4,4,4,4,4,4,4,4,4,4,4,4,4,100,,,,,,,,,,,,,,,,,,,,,,,,,,,,,,,,,,,,,,,,,,,,,,,,,,,,,,,,,,,,,,,,,,,,,,,,,,,,,,,,,,,,,,,,,,,,,,,,,,,,,,,,,,,,,,,,,,,,,,,,,,,,,,,,,,,,,,
1702545404,1702545404,54,0,4496.538574,4537.563965,4441.666504,4396.538574,4367.307617,4335.897461,4383.589844,4398.974121,4404.615234,4380.769043,4604.871582,4659.743652,4656.153809,4622.692383,0,4,76,,,,0,4,4,4,4,4,4,4,4,4,4,4,4,4,4,100,,,,,,,,,,,,,,,,,,,,,,,,,,,,,,,,,,,,,,,,,,,,,,,,,,,,,,,,,,,,,,,,,,,,,,,,,,,,,,,,,,,,,,,,,,,,,,,,,,,,,,,,,,,,,,,,,,,,,,,,,,,,,,,,,,,,,,
1702545404,1702545404,55,0,4487.05127,4527.820313,4433.589844,4380.256348,4369.615234,4330.128418,4377.820313,4394.743652,4398.077148,4373.589844,4595.769043,4654.358887,4641.922852,4610.256348,0,4,76,,,,0,4,4,4,4,4,4,4,4,4,4,4,4,4,4,100,,,,,,,,,,,,,,,,,,,,,,,,,,,,,,,,,,,,,,,,,,,,,,,,,,,,,,,,,,,,,,,,,,,,,,,,,,,,,,,,,,,,,,,,,,,,,,,,,,,,,,,,,,,,,,,,,,,,,,,,,,,,,,,,,,,,,,
1702545404,1702545404,56,0,4472.436035,4515.641113,4424.743652,4371.922852,4375.897461,4325.128418,4373.717773,4381.538574,4384.871582,4364.102539,4583.205078,4638.205078,4631.282227,4596.538574,0,4,76,,,,0,4,4,4,4,4,4,4,4,4,4,4,4,4,4,100,,,,,,,,,,,,,,,,,14,0,0.717005,-0.161133,-0.672729,0.085876,0.917104,-0.307166,0.016115,-17.575829,0.56785,87.752365,,,,,,,,,,,,,,,,,,,,,,,,,,,,,,,,,,,,,,,,,,,,,,,,,,,,,,,,,,,,,,,,,,,,,,,,,,,,,,,,,,,,,,,,,,,,,,,,,,,,,,,,,,
1702545404,1702545404,57,0,4471.282227,4517.563965,4429.102539,4373.589844,4378.333496,4329.743652,4380.641113,4382.05127,4388.589844,4367.692383,4590.384766,4640.897461,4638.974121,4597.436035,0,4,76,,,,0,4,4,4,4,4,4,4,4,4,4,4,4,4,4,100,,,,,,,,,,,,,,,,,,,,,,,,,,,,,,,,,,,,,,,,,,,,,,,,,,,,,,,,,,,,,,,,,,,,,,,,,,,,,,,,,,,,,,,,,,,,,,,,,,,,,,,,,,,,,,,,,,,,,,,,,,,,,,,,,,,,,,
1702545404,1702545404,58,0,4469.743652,4522.307617,4430.769043,4368.333496,4368.461426,4329.487305,4384.615234,4382.307617,4389.230957,4361.922852,4592.692383,4644.743652,4640.512695,4593.846191,0,4,76,,,,0,4,4,4,4,4,4,4,4,4,4,4,4,4,4,100,,,,,,,,,,,,,,,,,,,,,,,,,,,,,,,,,,,,,,,,,,,,,,,,,,,,,,,,,,,,,,,,,,,,,,,,,,,,,,,,,,,,,,,,,,,,,,,,,,,,,,,,,,,,,,,,,,,,,,,,,,,,,,,,,,,,,,
1702545404,1702545404,59,0,4459.871582,4517.436035,4426.153809,4361.794922,4365.512695,4323.846191,4383.461426,4373.974121,4381.410156,4353.333496,4581.153809,4633.974121,4631.922852,4583.461426,0,4,76,,,,0,4,4,4,4,4,4,4,4,4,4,4,4,4,4,100,,,,,,,,,,,,,,,,,,,,,,,,,,,,,,,,,,,,,,,,,,,,,,,,,,,,,,,,,,,,,,,,,,,,,,,,,,,,,,,,,,,,,,,,,,,,,,,,,,,,,,,,,,,,,,,,,,,,,,,,,,,,,,,,,,,,,,
1702545404,1702545404,60,0,4458.974121,4511.410156,4428.333496,4365.512695,4380.897461,4323.717773,4390.512695,4380.128418,4389.487305,4363.205078,4583.333496,4632.436035,4629.871582,4583.205078,0,4,76,,,,0,4,4,4,4,4,4,4,4,4,4,4,4,4,4,100,,,,,,,,,,,,,,,,,15,0,0.71689,-0.161011,-0.672913,0.085632,0.937614,-0.304725,0.005372,-17.568245,0.644398,87.743797,,,,,,,,,,,,,,,,,,,,,,,,,,,,,,,,,,,,,13.286283,4.933808,1.643085,0.733009,0.423189,8.012387,3.802916,0.910535,0.916696,0.632668,8.580157,3.971139,1.999256,0.616729,0.379167,6.730021,2.621583,0.894104,0.664835,0.471668,6.052268,1.62727,0.747384,2.170097,2.748747,7.147604,4.449364,1.742129,0.534641,0.209637,11.348321,1.449286,2.04893,0.46297,0.347723,10.261114,2.888965,2.098283,0.241203,0.328824,14.13772,4.028895,2.429702,0.289815,0.461689,12.515589,4.456311,1.912837,0.768466,0.665782,20.828018,8.297986,2.835614,0.657259,0.637409,18.5347,7.265457,3.191717,0.773935,0.551993,41.905144,9.094325,3.036035,0.740174,0.646606,22.325081,7.548677,2.608327,0.869388,0.552814
1702545404,1702545404,61,0,4457.436035,4506.410156,4426.410156,4363.589844,4387.179688,4325.897461,4398.589844,4395.256348,4405.641113,4374.743652,4592.436035,4635.256348,4626.666504,4579.615234,0,4,76,,,,0,4,4,4,4,4,4,4,4,4,4,4,4,4,4,100,,,,,,,,,,,,,,,,,,,,,,,,,,,,,,,,,,,,,,,,,,,,,,,,,,,,,,,,,,,,,,,,,,,,,,,,,,,,,,,,,,,,,,,,,,,,,,,,,,,,,,,,,,,,,,,,,,,,,,,,,,,,,,,,,,,,,,
1702545404,1702545404,62,0,4437.05127,4497.436035,4412.05127,4349.230957,4370.769043,4319.230957,4390.769043,4394.487305,4403.846191,4370.128418,4583.846191,4625.384766,4612.94873,4560.641113,0,4,76,,,,0,4,4,4,4,4,4,4,4,4,4,4,4,4,4,100,,,,,,,,,,,,,,,,,,,,,,,,,,,,,,,,,,,,,,,,,,,,,,,,,,,,,,,,,,,,,,,,,,,,,,,,,,,,,,,,,,,,,,,,,,,,,,,,,,,,,,,,,,,,,,,,,,,,,,,,,,,,,,,,,,,,,,
1702545404,1702545404,63,0,4418.846191,4485.256348,4398.333496,4340,4345.512695,4308.974121,4377.179688,4385.384766,4393.974121,4354.487305,4569.230957,4613.461426,4602.94873,4548.974121,0,4,76,,,,0,4,4,4,4,4,4,4,4,4,4,4,4,4,4,100,,,,,,,,,,,,,,,,,,,,,,,,,,,,,,,,,,,,,,,,,,,,,,,,,,,,,,,,,,,,,,,,,,,,,,,,,,,,,,,,,,,,,,,,,,,,,,,,,,,,,,,,,,,,,,,,,,,,,,,,,,,,,,,,,,,,,,
1702545404,1702545404,64,0,4419.487305,4489.615234,4398.333496,4341.025879,4347.563965,4314.487305,4374.615234,4383.077148,4393.717773,4350.384766,4567.05127,4612.692383,4601.025879,4550.897461,5377,4,76,,,,0,4,4,4,4,4,4,4,4,4,4,4,4,4,4,100,,,,,,,,,,,,,,,,,16,0,0.716946,-0.160767,-0.672974,0.085144,0.936149,-0.30912,-0.00586,-17.544754,0.696625,87.752747,,,,,,,,,,,,,,,,,,,,,,,,,,,,,,,,,,,,,,,,,,,,,,,,,,,,,,,,,,,,,,,,,,,,,,,,,,,,,,,,,,,,,,,,,,,,,,,,,,,,,,,,,,
1702545404,1702545404,65,0,4421.922852,4504.871582,4407.94873,4345.384766,4378.846191,4330.769043,4381.282227,4385.769043,4397.179688,4365.769043,4573.974121,4617.307617,4597.179688,4553.846191,5514,4,76,,,,0,4,4,4,4,4,4,4,4,4,4,4,4,4,4,100,,,,,,,,,,,,,,,,,,,,,,,,,,,,,,,,,,,,,,,,,,,,,,,,,,,,,,,,,,,,,,,,,,,,,,,,,,,,,,,,,,,,,,,,,,,,,,,,,,,,,,,,,,,,,,,,,,,,,,,,,,,,,,,,,,,,,,
1702545404,1702545404,66,0,4414.102539,4497.820313,4405.897461,4344.230957,4384.102539,4324.102539,4382.692383,4382.94873,4392.692383,4366.282227,4571.410156,4611.282227,4582.436035,4551.794922,5485,4,76,,,,0,4,4,4,4,4,4,4,4,4,4,4,4,4,4,100,,,,,,,,,,,,,,,,,,,,,,,,,,,,,,,,,,,,,,,,,,,,,,,,,,,,,,,,,,,,,,,,,,,,,,,,,,,,,,,,,,,,,,,,,,,,,,,,,,,,,,,,,,,,,,,,,,,,,,,,,,,,,,,,,,,,,,
1702545404,1702545404,67,0,4407.179688,4484.615234,4398.717773,4337.94873,4361.282227,4293.205078,4373.461426,4377.05127,4383.461426,4352.179688,4565,4601.410156,4568.077148,4549.615234,5400,4,76,,,,0,4,4,4,4,4,4,4,4,4,4,4,4,4,4,100,,,,,,,,,,,,,,,,,,,,,,,,,,,,,,,,,,,,,,,,,,,,,,,,,,,,,,,,,,,,,,,,,,,,,,,,,,,,,,,,,,,,,,,,,,,,,,,,,,,,,,,,,,,,,,,,,,,,,,,,,,,,,,,,,,,,,,
1702545404,1702545404,68,0,4413.589844,4496.282227,4406.794922,4340,4357.692383,4276.153809,4372.820313,4382.692383,4387.692383,4362.05127,4577.05127,4608.589844,4568.333496,4554.743652,5392,4,76,,,,0,4,4,4,4,4,4,4,4,4,4,4,4,4,4,100,,,,,,,,,,,,,,,,,17,0,0.717024,-0.160645,-0.672974,0.084717,0.939568,-0.30619,0.006837,-17.606945,0.660296,87.894142,,,,,,,,,,,,,,,,,,,,,,,,,,,,,,,,,,,,,,,,,,,,,,,,,,,,,,,,,,,,,,,,,,,,,,,,,,,,,,,,,,,,,,,,,,,,,,,,,,,,,,,,,,
1702545404,1702545404,69,0,4421.153809,4510,4415.256348,4344.615234,4365.384766,4274.230957,4381.025879,4394.102539,4400.256348,4374.487305,4586.282227,4620,4562.563965,4558.846191,5439,4,76,,,,0,4,4,4,4,4,4,4,4,4,4,4,4,4,4,100,,,,,,,,,,,,,,,,,,,,,,,,,,,,,,,,,,,,,,,,,,,,,,,,,,,,,,,,,,,,,,,,,,,,,,,,,,,,,,,,,,,,,,,,,,,,,,,,,,,,,,,,,,,,,,,,,,,,,,,,,,,,,,,,,,,,,,
1702545404,1702545404,70,0,4414.871582,4506.153809,4408.461426,4339.743652,4367.563965,4260.256348,4377.94873,4395.897461,4401.025879,4366.922852,4575.512695,4616.153809,4541.666504,4555.769043,5255,4,76,,,,0,4,4,4,4,4,4,4,4,4,4,4,4,4,4,100,,,,,,,,,,,,,,,,,,,,,,,,,,,,,,,,,,,,,,,,,,,,,,,,,,,,,,,,,,,,,,,,,,,,,,,,,,,,,,,,,,,,,,,,,,,,,,,,,,,,,,,,,,,,,,,,,,,,,,,,,,,,,,,,,,,,,,
1702545404,1702545404,71,0,4409.615234,4504.743652,4406.153809,4334.230957,4373.077148,4243.461426,4372.563965,4393.077148,4399.102539,4367.94873,4572.820313,4613.846191,4539.102539,4554.230957,5086,4,76,,,,0,4,4,4,4,4,4,4,4,4,4,4,4,4,4,100,,,,,,,,,,,,,,,,,,,,,,,,,,,,,,,,,,,,,,,,,,,,,,,,,,,,,,,,,,,,,,,,,,,,,,,,,,,,,,,,,,,,,,,,,,,,,,,,,,,,,,,,,,,,,,,,,,,,,,,,,,,,,,,,,,,,,,
1702545404,1702545404,72,0,4413.974121,4512.05127,4416.666504,4337.820313,4369.871582,4244.358887,4379.102539,4401.282227,4408.589844,4376.922852,4587.05127,4621.794922,4553.717773,4557.05127,5435,4,76,,,,0,4,4,4,4,4,4,4,4,4,4,4,4,4,4,100,,,,,,,,,,,,,,,,,18,0,0.717289,-0.160706,-0.672729,0.08429,0.931266,-0.302771,0.010743,-17.612917,0.710933,87.854729,,,,,,,,,,,,,,,,,,,,,,,,,,,,,,,,,,,,,,,,,,,,,,,,,,,,,,,,,,,,,,,,,,,,,,,,,,,,,,,,,,,,,,,,,,,,,,,,,,,,,,,,,,
1702545404,1702545404,73,0,4408.717773,4513.589844,4413.717773,4340.128418,4363.846191,4244.230957,4384.358887,4409.358887,4415.641113,4376.794922,4589.487305,4619.871582,4551.153809,4556.025879,5442,4,76,,,,0,4,4,4,4,4,4,4,4,4,4,4,4,4,4,100,,,,,,,,,,,,,,,,,,,,,,,,,,,,,,,,,,,,,,,,,,,,,,,,,,,,,,,,,,,,,,,,,,,,,,,,,,,,,,,,,,,,,,,,,,,,,,,,,,,,,,,,,,,,,,,,,,,,,,,,,,,,,,,,,,,,,,
1702545404,1702545404,74,0,4395.641113,4514.743652,4403.077148,4335.641113,4373.333496,4235.641113,4379.615234,4407.307617,4412.820313,4380.256348,4582.307617,4615.256348,4533.205078,4546.666504,6058,4,76,,,,0,4,4,4,4,4,4,4,4,4,4,4,4,4,4,100,,,,,,,,,,,,,,,,,,,,,,,,,,,,,,,,,,,,,,,,,,,,,,,,,,,,,,,,,,,,,,,,,,,,,,,,,,,,,,,,,,,,,,,,,,,,,,,,,,,,,,,,,,,,,,,,,,,,,,,,,,,,,,,,,,,,,,
1702545404,1702545404,75,0,4398.333496,4524.102539,4406.922852,4335.384766,4385.512695,4232.692383,4379.102539,4403.974121,4415,4384.102539,4588.589844,4618.974121,4529.102539,4542.436035,6285,4,76,,,,0,4,4,4,4,4,4,4,4,4,4,4,4,4,4,100,,,,,,,,,,,,,,,,,,,,,,,,,,,,,,,,,,,,,,,,,,,,,,,,,,,,,,,,,,,,,,,,,,,,,,,,,,,,,,,,,,,,,,,,,,,,,,,,,,,,,,,,,,,,,,,,,,,,,,,,,,,,,,,,,,,,,,
1702545404,1702545404,76,0,4402.94873,4532.563965,4410.512695,4341.538574,4383.077148,4225.769043,4381.922852,4399.230957,4415,4376.922852,4587.307617,4614.358887,4525.128418,4542.563965,6860,4,76,,,,0,4,4,4,4,4,4,4,4,4,4,4,4,4,4,100,,,,,,,,,,,,,,,,,19,0,0.717449,-0.16095,-0.672546,0.083923,0.940544,-0.30912,0.013674,-17.53496,0.673173,87.819252,,,,,,,,,,,,,,,,,,,,,,,,,,,,,,,,,,,,,18.278433,4.765162,1.38903,0.760972,0.433776,16.37278,3.09578,0.84947,0.989624,0.652313,8.817316,3.536887,1.72365,0.643264,0.356787,8.193575,2.050219,0.689029,0.664211,0.462554,5.955411,1.405068,0.636001,2.221279,2.602961,8.033168,4.57168,1.626237,0.650899,0.219061,11.372431,1.246229,1.908864,0.596907,0.324202,9.831299,2.651429,2.069145,0.272917,0.342518,13.535428,3.641712,2.263917,0.283033,0.45998,11.745735,3.806306,1.721989,0.673286,0.57424,19.798374,7.287542,2.65578,0.613054,0.605405,18.802217,6.377354,2.864083,0.794199,0.545981,44.44762,8.195758,2.661915,0.732844,0.651029,25.996626,6.872381,2.384886,0.841341,0.544526
1702545404,1702545404,77,0,4388.974121,4520.256348,4401.025879,4338.461426,4376.025879,4214.230957,4383.077148,4396.025879,4406.794922,4370.769043,4568.717773,4600.384766,4496.153809,4530.384766,7172,4,76,,,,0,4,4,4,4,4,4,4,4,4,4,4,4,4,4,100,,,,,,,,,,,,,,,,,,,,,,,,,,,,,,,,,,,,,,,,,,,,,,,,,,,,,,,,,,,,,,,,,,,,,,,,,,,,,,,,,,,,,,,,,,,,,,,,,,,,,,,,,,,,,,,,,,,,,,,,,,,,,,,,,,,,,,
1702545404,1702545404,78,0,4382.563965,4506.153809,4398.333496,4329.230957,4382.179688,4211.794922,4382.179688,4398.077148,4405.384766,4377.692383,4566.410156,4597.563965,4486.025879,4523.205078,6058,4,76,,,,0,4,4,4,4,4,4,4,4,4,4,4,4,4,4,100,,,,,,,,,,,,,,,,,,,,,,,,,,,,,,,,,,,,,,,,,,,,,,,,,,,,,,,,,,,,,,,,,,,,,,,,,,,,,,,,,,,,,,,,,,,,,,,,,,,,,,,,,,,,,,,,,,,,,,,,,,,,,,,,,,,,,,
1702545404,1702545404,79,0,4397.179688,4516.666504,4410.641113,4331.666504,4395,4214.102539,4379.358887,4399.743652,4413.461426,4389.871582,4590.512695,4611.538574,4526.794922,4537.307617,6285,4,76,,,,0,4,4,4,4,4,4,4,4,4,4,4,4,4,4,100,,,,,,,,,,,,,,,,,,,,,,,,,,,,,,,,,,,,,,,,,,,,,,,,,,,,,,,,,,,,,,,,,,,,,,,,,,,,,,,,,,,,,,,,,,,,,,,,,,,,,,,,,,,,,,,,,,,,,,,,,,,,,,,,,,,,,,
1702545404,1702545404,80,0,4405,4520.641113,4416.282227,4332.436035,4388.717773,4215.128418,4378.077148,4399.358887,4418.846191,4398.589844,4607.05127,4620.641113,4565.769043,4546.922852,6860,4,76,,,,0,4,4,4,4,4,4,4,4,4,4,4,4,4,4,100,,,,,,,,,,,,,,,,,20,0,0.71768,-0.161194,-0.672302,0.083435,0.950311,-0.304725,0.014162,-17.498131,0.705856,87.853996,,,,,,,,,,,,,,,,,,,,,,,,,,,,,,,,,,,,,,,,,,,,,,,,,,,,,,,,,,,,,,,,,,,,,,,,,,,,,,,,,,,,,,,,,,,,,,,,,,,,,,,,,,
1702545404,1702545404,81,0,4392.692383,4493.205078,4406.410156,4317.563965,4370.769043,4216.282227,4373.589844,4400.769043,4415.128418,4397.563965,4597.94873,4613.077148,4568.717773,4535.641113,7172,4,76,,,,0,4,4,4,4,4,4,4,4,4,4,4,4,4,4,100,,,,,,,,,,,,,,,,,,,,,,,,,,,,,,,,,,,,,,,,,,,,,,,,,,,,,,,,,,,,,,,,,,,,,,,,,,,,,,,,,,,,,,,,,,,,,,,,,,,,,,,,,,,,,,,,,,,,,,,,,,,,,,,,,,,,,,
1702545404,1702545404,82,0,4382.820313,4475.897461,4396.538574,4310.512695,4376.410156,4217.94873,4369.487305,4401.922852,4412.179688,4389.871582,4590.641113,4603.974121,4566.666504,4524.871582,6058,4,76,,,,0,4,4,4,4,4,4,4,4,4,4,4,4,4,4,100,,,,,,,,,,,,,,,,,,,,,,,,,,,,,,,,,,,,,,,,,,,,,,,,,,,,,,,,,,,,,,,,,,,,,,,,,,,,,,,,,,,,,,,,,,,,,,,,,,,,,,,,,,,,,,,,,,,,,,,,,,,,,,,,,,,,,,
1702545404,1702545404,83,0,4376.794922,4476.794922,4389.487305,4310,4383.589844,4220.641113,4370.384766,4392.563965,4409.743652,4378.077148,4580.512695,4591.922852,4556.666504,4515,6285,4,76,,,,0,4,4,4,4,4,4,4,4,4,4,4,4,4,4,100,,,,,,,,,,,,,,,,,,,,,,,,,,,,,,,,,,,,,,,,,,,,,,,,,,,,,,,,,,,,,,,,,,,,,,,,,,,,,,,,,,,,,,,,,,,,,,,,,,,,,,,,,,,,,,,,,,,,,,,,,,,,,,,,,,,,,,
1702545404,1702545404,84,0,4362.94873,4465.512695,4378.974121,4297.820313,4373.077148,4227.307617,4371.153809,4382.94873,4400.897461,4372.179688,4559.230957,4571.410156,4526.666504,4496.794922,6860,4,76,,,,0,4,4,4,4,4,4,4,4,4,4,4,4,4,4,100,,,,,,,,,,,,,,,,,21,0,0.717852,-0.161255,-0.672119,0.083313,0.926383,-0.307655,0.01465,-17.481649,0.63527,87.73526,,,,,,,,,,,,,,,,,,,,,,,,,,,,,,,,,,,,,,,,,,,,,,,,,,,,,,,,,,,,,,,,,,,,,,,,,,,,,,,,,,,,,,,,,,,,,,,,,,,,,,,,,,
1702545404,1702545404,85,0,4354.358887,4450.897461,4370.641113,4286.794922,4372.05127,4230,4368.461426,4380.256348,4392.307617,4371.282227,4550.384766,4558.974121,4515.512695,4488.205078,7172,4,76,,,,0,4,4,4,4,4,4,4,4,4,4,4,4,4,4,100,,,,,,,,,,,,,,,,,,,,,,,,,,,,,,,,,,,,,,,,,,,,,,,,,,,,,,,,,,,,,,,,,,,,,,,,,,,,,,,,,,,,,,,,,,,,,,,,,,,,,,,,,,,,,,,,,,,,,,,,,,,,,,,,,,,,,,
1702545404,1702545404,86,0,4353.461426,4443.205078,4373.461426,4281.794922,4374.871582,4227.692383,4363.461426,4376.153809,4386.410156,4367.307617,4553.717773,4562.179688,4528.333496,4490.641113,6058,4,76,,,,0,4,4,4,4,4,4,4,4,4,4,4,4,4,4,100,,,,,,,,,,,,,,,,,,,,,,,,,,,,,,,,,,,,,,,,,,,,,,,,,,,,,,,,,,,,,,,,,,,,,,,,,,,,,,,,,,,,,,,,,,,,,,,,,,,,,,,,,,,,,,,,,,,,,,,,,,,,,,,,,,,,,,
1702545404,1702545404,87,0,4355.641113,4433.717773,4378.846191,4276.025879,4367.436035,4226.538574,4358.205078,4371.153809,4385.128418,4365,4554.358887,4567.563965,4546.666504,4492.563965,6285,4,76,,,,0,4,4,4,4,4,4,4,4,4,4,4,4,4,4,100,,,,,,,,,,,,,,,,,,,,,,,,,,,,,,,,,,,,,,,,,,,,,,,,,,,,,,,,,,,,,,,,,,,,,,,,,,,,,,,,,,,,,,,,,,,,,,,,,,,,,,,,,,,,,,,,,,,,,,,,,,,,,,,,,,,,,,
1702545404,1702545404,88,0,4360.256348,4426.666504,4381.282227,4280.897461,4363.974121,4229.871582,4355.128418,4374.743652,4388.589844,4366.153809,4553.717773,4569.615234,4568.205078,4490,6860,4,76,,,,0,4,4,4,4,4,4,4,4,4,4,4,4,4,4,100,,,,,,,,,,,,,,,,,22,0,0.718103,-0.161438,-0.671875,0.082764,0.939079,-0.307166,0.013674,-17.383486,0.721743,87.59507,,,,,,,,,,,,,,,,,,,,,,,,,,,,,,,,,,,,,,,,,,,,,,,,,,,,,,,,,,,,,,,,,,,,,,,,,,,,,,,,,,,,,,,,,,,,,,,,,,,,,,,,,,
1702545404,1702545404,89,0,4361.282227,4428.333496,4383.589844,4293.589844,4371.025879,4240,4359.615234,4383.333496,4392.307617,4368.974121,4556.794922,4571.153809,4584.230957,4492.307617,7172,4,76,,,,0,4,4,4,4,4,4,4,4,4,4,4,4,4,4,100,,,,,,,,,,,,,,,,,,,,,,,,,,,,,,,,,,,,,,,,,,,,,,,,,,,,,,,,,,,,,,,,,,,,,,,,,,,,,,,,,,,,,,,,,,,,,,,,,,,,,,,,,,,,,,,,,,,,,,,,,,,,,,,,,,,,,,
1702545404,1702545404,90,0,4355.641113,4427.436035,4380.256348,4293.846191,4373.077148,4248.974121,4362.436035,4384.615234,4388.717773,4364.871582,4555.128418,4570.256348,4588.333496,4491.538574,6058,4,76,,,,0,4,4,4,4,4,4,4,4,4,4,4,4,4,4,100,,,,,,,,,,,,,,,,,,,,,,,,,,,,,,,,,,,,,,,,,,,,,,,,,,,,,,,,,,,,,,,,,,,,,,,,,,,,,,,,,,,,,,,,,,,,,,,,,,,,,,,,,,,,,,,,,,,,,,,,,,,,,,,,,,,,,,
1702545404,1702545404,91,0,4352.436035,4415.512695,4376.410156,4289.743652,4367.307617,4251.538574,4358.205078,4382.179688,4386.538574,4356.282227,4547.436035,4568.717773,4587.692383,4481.666504,6285,4,76,,,,0,4,4,4,4,4,4,4,4,4,4,4,4,4,4,100,,,,,,,,,,,,,,,,,,,,,,,,,,,,,,,,,,,,,,,,,,,,,,,,,,,,,,,,,,,,,,,,,,,,,,,,,,,,,,,,,,,,,,,,,,,,,,,,,,,,,,,,,,,,,,,,,,,,,,,,,,,,,,,,,,,,,,
1702545404,1702545404,92,0,4351.794922,4405.128418,4373.077148,4287.436035,4358.589844,4254.230957,4355.384766,4381.282227,4389.230957,4358.077148,4541.794922,4562.692383,4588.333496,4475.128418,6860,4,76,,,,0,4,4,4,4,4,4,4,4,4,4,4,4,4,4,100,,,,,,,,,,,,,,,,,23,0,0.718266,-0.161438,-0.671753,0.082336,0.942986,-0.295935,0.012697,-17.545137,0.716235,87.585564,,,,,,,,,,,,,,,,,,,,,,,,,,,,,,,,,,,,,26.480335,4.542627,1.193441,0.774288,0.442499,32.493263,2.945779,1.069969,1.053134,0.668655,9.36354,2.904878,1.422531,0.664169,0.329076,10.97904,1.578408,0.594526,0.68406,0.452397,5.749874,1.368752,0.642069,2.252265,2.332202,8.900865,4.315286,1.547778,0.797134,0.232072,10.684412,1.247223,1.683684,0.746575,0.307188,8.834052,2.356931,1.86995,0.322486,0.35111,12.233644,3.251856,1.968937,0.299361,0.450096,10.432072,3.203781,1.464803,0.624627,0.509065,18.376463,5.906896,2.393756,0.604265,0.566546,19.012091,5.125689,2.440279,0.836126,0.546841,47.094707,6.796154,2.18522,0.736786,0.666412,32.091572,6.045626,2.102281,0.834155,0.541861
1702545404,1702545404,93,0,4342.820313,4400.384766,4363.589844,4280.897461,4350.769043,4260.256348,4351.922852,4376.666504,4383.974121,4361.666504,4533.717773,4550.384766,4586.282227,4470.512695,7172,4,76,,,,0,4,4,4,4,4,4,4,4,4,4,4,4,4,4,100,,,,,,,,,,,,,,,,,,,,,,,,,,,,,,,,,,,,,,,,,,,,,,,,,,,,,,,,,,,,,,,,,,,,,,,,,,,,,,,,,,,,,,,,,,,,,,,,,,,,,,,,,,,,,,,,,,,,,,,,,,,,,,,,,,,,,,
1702545404,1702545404,94,0,4336.153809,4400.256348,4357.563965,4279.487305,4354.871582,4266.922852,4343.974121,4363.461426,4373.589844,4350.256348,4525.897461,4544.102539,4581.410156,4464.871582,6058,4,76,,,,0,4,4,4,4,4,4,4,4,4,4,4,4,4,4,100,,,,,,,,,,,,,,,,,,,,,,,,,,,,,,,,,,,,,,,,,,,,,,,,,,,,,,,,,,,,,,,,,,,,,,,,,,,,,,,,,,,,,,,,,,,,,,,,,,,,,,,,,,,,,,,,,,,,,,,,,,,,,,,,,,,,,,
1702545404,1702545404,95,0,4345.769043,4405.769043,4367.563965,4289.102539,4370.256348,4275.512695,4342.94873,4355.128418,4372.820313,4342.94873,4526.794922,4549.487305,4587.307617,4469.743652,6285,4,76,,,,0,4,4,4,4,4,4,4,4,4,4,4,4,4,4,100,,,,,,,,,,,,,,,,,,,,,,,,,,,,,,,,,,,,,,,,,,,,,,,,,,,,,,,,,,,,,,,,,,,,,,,,,,,,,,,,,,,,,,,,,,,,,,,,,,,,,,,,,,,,,,,,,,,,,,,,,,,,,,,,,,,,,,
1702545404,1702545404,96,0,4362.179688,4415.512695,4386.410156,4303.846191,4371.410156,4284.102539,4351.922852,4364.743652,4383.717773,4366.538574,4540.128418,4563.717773,4613.717773,4486.922852,6860,4,76,,,,0,4,4,4,4,4,4,4,4,4,4,4,4,4,4,100,,,,,,,,,,,,,,,,,24,0,0.718281,-0.161499,-0.671753,0.082092,0.938591,-0.293493,0.008302,-17.540623,0.827945,87.67701,,,,,,,,,,,,,,,,,,,,,,,,,,,,,,,,,,,,,,,,,,,,,,,,,,,,,,,,,,,,,,,,,,,,,,,,,,,,,,,,,,,,,,,,,,,,,,,,,,,,,,,,,,
1702545404,1702545404,97,0,4367.179688,4420.384766,4394.743652,4314.615234,4356.153809,4281.794922,4351.025879,4374.230957,4391.153809,4383.077148,4551.153809,4572.820313,4634.615234,4493.461426,7172,4,76,,,,0,4,4,4,4,4,4,4,4,4,4,4,4,4,4,100,,,,,,,,,,,,,,,,,,,,,,,,,,,,,,,,,,,,,,,,,,,,,,,,,,,,,,,,,,,,,,,,,,,,,,,,,,,,,,,,,,,,,,,,,,,,,,,,,,,,,,,,,,,,,,,,,,,,,,,,,,,,,,,,,,,,,,
1702545404,1702545404,98,0,4366.153809,4420.512695,4395.256348,4316.666504,4355.256348,4282.94873,4346.282227,4372.820313,4388.846191,4369.743652,4553.589844,4572.94873,4639.871582,4489.871582,6058,4,76,,,,0,4,4,4,4,4,4,4,4,4,4,4,4,4,4,100,,,,,,,,,,,,,,,,,,,,,,,,,,,,,,,,,,,,,,,,,,,,,,,,,,,,,,,,,,,,,,,,,,,,,,,,,,,,,,,,,,,,,,,,,,,,,,,,,,,,,,,,,,,,,,,,,,,,,,,,,,,,,,,,,,,,,,
1702545404,1702545404,99,0,4367.563965,4418.333496,4397.307617,4313.205078,4373.205078,4291.922852,4351.794922,4373.589844,4390.512695,4365.512695,4555.897461,4571.410156,4644.615234,4493.846191,6285,4,76,,,,0,4,4,4,4,4,4,4,4,4,4,4,4,4,4,100,,,,,,,,,,,,,,,,,,,,,,,,,,,,,,,,,,,,,,,,,,,,,,,,,,,,,,,,,,,,,,,,,,,,,,,,,,,,,,,,,,,,,,,,,,,,,,,,,,,,,,,,,,,,,,,,,,,,,,,,,,,,,,,,,,,,,,
1702545404,1702545404,100,0,4360.256348,4410.897461,4392.307617,4308.333496,4376.922852,4287.94873,4351.666504,4374.871582,4390,4370.384766,4548.077148,4563.974121,4638.974121,4491.794922,6860,4,76,,,,0,4,4,4,4,4,4,4,4,4,4,4,4,4,4,100,,,,,,,,,,,,,,,,,25,0,0.718203,-0.161621,-0.671814,0.082031,0.933708,-0.30033,0.000977,-17.519894,0.678484,87.625969,,,,,,,,,,,,,,,,,,,,,,,,,,,,,,,,,,,,,,,,,,,,,,,,,,,,,,,,,,,,,,,,,,,,,,,,,,,,,,,,,,,,,,,,,,,,,,,,,,,,,,,,,,
1702545404,1702545404,101,0,4349.871582,4403.461426,4380.769043,4301.666504,4364.487305,4275.256348,4343.717773,4372.820313,4379.102539,4356.282227,4531.410156,4554.871582,4620.641113,4478.717773,7172,4,76,,,,0,4,4,4,4,4,4,4,4,4,4,4,4,4,4,100,,,,,,,,,,,,,,,,,,,,,,,,,,,,,,,,,,,,,,,,,,,,,,,,,,,,,,,,,,,,,,,,,,,,,,,,,,,,,,,,,,,,,,,,,,,,,,,,,,,,,,,,,,,,,,,,,,,,,,,,,,,,,,,,,,,,,,
1702545404,1702545404,102,0,4344.230957,4396.153809,4375.897461,4298.846191,4351.025879,4270.641113,4341.025879,4369.871582,4371.666504,4340.897461,4520.769043,4547.563965,4606.922852,4471.282227,6058,4,76,,,,0,4,4,4,4,4,4,4,4,4,4,4,4,4,4,100,,,,,,,,,,,,,,,,,,,,,,,,,,,,,,,,,,,,,,,,,,,,,,,,,,,,,,,,,,,,,,,,,,,,,,,,,,,,,,,,,,,,,,,,,,,,,,,,,,,,,,,,,,,,,,,,,,,,,,,,,,,,,,,,,,,,,,
1702545404,1702545404,103,0,4341.666504,4392.563965,4376.666504,4304.743652,4337.820313,4273.717773,4342.820313,4368.974121,4376.666504,4347.692383,4519.871582,4540.512695,4604.358887,4473.333496,6285,4,76,,,,0,4,4,4,4,4,4,4,4,4,4,4,4,4,4,100,,,,,,,,,,,,,,,,,,,,,,,,,,,,,,,,,,,,,,,,,,,,,,,,,,,,,,,,,,,,,,,,,,,,,,,,,,,,,,,,,,,,,,,,,,,,,,,,,,,,,,,,,,,,,,,,,,,,,,,,,,,,,,,,,,,,,,
1702545404,1702545404,104,0,4345.641113,4399.871582,4380,4311.922852,4345.128418,4282.563965,4347.820313,4375.128418,4384.230957,4354.487305,4529.871582,4544.358887,4606.153809,4478.717773,6860,4,76,,,,0,4,4,4,4,4,4,4,4,4,4,4,4,4,4,100,,,,,,,,,,,,,,,,,26,0,0.718111,-0.161682,-0.671875,0.082214,0.945428,-0.291051,0.024905,-17.517904,0.660636,87.713379,,,,,,,,,,,,,,,,,,,,,,,,,,,,,,,,,,,,,,,,,,,,,,,,,,,,,,,,,,,,,,,,,,,,,,,,,,,,,,,,,,,,,,,,,,,,,,,,,,,,,,,,,,
1702545404,1702545404,105,0,4351.922852,4409.102539,4385,4317.94873,4366.794922,4292.179688,4355.256348,4379.102539,4384.487305,4356.153809,4537.820313,4554.230957,4607.692383,4482.820313,7172,4,76,,,,0,4,4,4,4,4,4,4,4,4,4,4,4,4,4,100,,,,,,,,,,,,,,,,,,,,,,,,,,,,,,,,,,,,,,,,,,,,,,,,,,,,,,,,,,,,,,,,,,,,,,,,,,,,,,,,,,,,,,,,,,,,,,,,,,,,,,,,,,,,,,,,,,,,,,,,,,,,,,,,,,,,,,
1702545404,1702545404,106,0,4351.410156,4414.743652,4385,4325,4375.384766,4295.641113,4357.179688,4374.871582,4385.641113,4365.512695,4536.538574,4553.333496,4612.307617,4482.436035,6058,4,76,,,,0,4,4,4,4,4,4,4,4,4,4,4,4,4,4,100,,,,,,,,,,,,,,,,,,,,,,,,,,,,,,,,,,,,,,,,,,,,,,,,,,,,,,,,,,,,,,,,,,,,,,,,,,,,,,,,,,,,,,,,,,,,,,,,,,,,,,,,,,,,,,,,,,,,,,,,,,,,,,,,,,,,,,
1702545404,1702545404,107,0,4352.94873,4423.974121,4389.230957,4331.922852,4383.205078,4303.974121,4361.025879,4377.05127,4393.846191,4369.615234,4540.384766,4557.307617,4628.077148,4483.589844,6285,4,76,,,,0,4,4,4,4,4,4,4,4,4,4,4,4,4,4,100,,,,,,,,,,,,,,,,,,,,,,,,,,,,,,,,,,,,,,,,,,,,,,,,,,,,,,,,,,,,,,,,,,,,,,,,,,,,,,,,,,,,,,,,,,,,,,,,,,,,,,,,,,,,,,,,,,,,,,,,,,,,,,,,,,,,,,
1702545404,1702545404,108,0,4358.974121,4439.102539,4400.897461,4337.436035,4392.820313,4313.589844,4370.256348,4382.05127,4399.102539,4373.333496,4552.94873,4572.179688,4644.230957,4493.205078,6860,4,76,,,,0,4,4,4,4,4,4,4,4,4,4,4,4,4,4,100,1,25,1,1,1,3,3,3,3,3,3,4,3,3,1,1,27,0,0.717912,-0.161743,-0.672058,0.082336,0.940544,-0.304725,0.013674,-17.399448,0.894572,87.758705,,,,,,,,,,,,,,,,,,,,,,,,,,,,,,,,,,,,,36.67886,4.29464,1.071937,0.761545,0.445522,55.386593,3.292024,1.345363,1.088108,0.678341,10.367737,2.192164,1.125759,0.672073,0.29699,14.430367,1.233762,0.539389,0.710469,0.434599,5.761191,1.503417,0.702791,2.244631,1.989215,9.440291,3.747941,1.476874,0.928746,0.247201,9.65778,1.391993,1.374954,0.869431,0.295858,7.63286,2.079156,1.576398,0.379853,0.347595,10.725207,2.914886,1.595739,0.336048,0.433309,9.034176,2.726509,1.190812,0.627544,0.469076,17.080456,4.420552,2.11262,0.624723,0.52387,19.463116,3.765236,1.979522,0.876865,0.546551,49.25547,5.204424,1.789737,0.734117,0.680382,39.714088,5.197151,1.841683,0.833086,0.533446
1702545404,1702545404,109,0,4359.230957,4446.922852,4403.717773,4340.769043,4384.230957,4310.512695,4368.717773,4381.922852,4397.563965,4378.846191,4556.282227,4573.205078,4647.436035,4502.307617,7172,4,76,,,,0,4,4,4,4,4,4,4,4,4,4,4,4,4,4,100,,,,,,,,,,,,,,,,,,,,,,,,,,,,,,,,,,,,,,,,,,,,,,,,,,,,,,,,,,,,,,,,,,,,,,,,,,,,,,,,,,,,,,,,,,,,,,,,,,,,,,,,,,,,,,,,,,,,,,,,,,,,,,,,,,,,,,
1702545404,1702545404,110,0,4353.205078,4446.153809,4400.512695,4341.922852,4374.871582,4311.538574,4365.512695,4387.563965,4399.871582,4378.461426,4552.692383,4569.102539,4647.436035,4500.512695,6058,4,76,,,,0,4,4,4,4,4,4,4,4,4,4,4,4,4,4,100,,,,,,,,,,,,,,,,,,,,,,,,,,,,,,,,,,,,,,,,,,,,,,,,,,,,,,,,,,,,,,,,,,,,,,,,,,,,,,,,,,,,,,,,,,,,,,,,,,,,,,,,,,,,,,,,,,,,,,,,,,,,,,,,,,,,,,
1702545404,1702545404,111,0,4344.358887,4446.666504,4398.589844,4336.282227,4381.666504,4320.641113,4370.897461,4393.077148,4401.282227,4370.256348,4552.436035,4572.307617,4640.128418,4493.461426,6285,4,76,,,,0,4,4,4,4,4,4,4,4,4,4,4,4,4,4,100,,,,,,,,,,,,,,,,,,,,,,,,,,,,,,,,,,,,,,,,,,,,,,,,,,,,,,,,,,,,,,,,,,,,,,,,,,,,,,,,,,,,,,,,,,,,,,,,,,,,,,,,,,,,,,,,,,,,,,,,,,,,,,,,,,,,,,
1702545404,1702545404,112,0,4337.692383,4447.94873,4394.615234,4327.692383,4380.897461,4323.717773,4372.94873,4389.358887,4394.743652,4357.94873,4550.769043,4568.333496,4626.153809,4490.256348,6860,4,76,,,,0,4,4,4,4,4,4,4,4,4,4,4,4,4,4,100,,,,,,,,,,,,,,,,,28,0,0.717807,-0.161926,-0.672119,0.082397,0.919057,-0.30912,0.010743,-17.292835,0.855115,87.666168,,,,,,,,,,,,,,,,,,,,,,,,,,,,,,,,,,,,,,,,,,,,,,,,,,,,,,,,,,,,,,,,,,,,,,,,,,,,,,,,,,,,,,,,,,,,,,,,,,,,,,,,,,
1702545404,1702545404,113,0,4335.384766,4445.769043,4392.563965,4329.358887,4380.769043,4323.846191,4373.333496,4393.077148,4397.94873,4359.358887,4547.692383,4564.487305,4618.717773,4489.230957,7172,4,76,,,,0,4,4,4,4,4,4,4,4,4,4,4,4,4,4,100,,,,,,,,,,,,,,,,,,,,,,,,,,,,,,,,,,,,,,,,,,,,,,,,,,,,,,,,,,,,,,,,,,,,,,,,,,,,,,,,,,,,,,,,,,,,,,,,,,,,,,,,,,,,,,,,,,,,,,,,,,,,,,,,,,,,,,
1702545404,1702545404,114,0,4338.461426,4448.846191,4401.153809,4339.230957,4396.025879,4327.820313,4378.846191,4404.615234,4408.077148,4377.436035,4556.794922,4580,4635,4493.589844,6058,4,76,,,,0,4,4,4,4,4,4,4,4,4,4,4,4,4,4,100,,,,,,,,,,,,,,,,,,,,,,,,,,,,,,,,,,,,,,,,,,,,,,,,,,,,,,,,,,,,,,,,,,,,,,,,,,,,,,,,,,,,,,,,,,,,,,,,,,,,,,,,,,,,,,,,,,,,,,,,,,,,,,,,,,,,,,
1702545404,1702545404,115,0,4351.282227,4468.077148,4417.820313,4346.410156,4401.538574,4328.077148,4382.94873,4412.436035,4415.256348,4396.153809,4578.846191,4597.820313,4678.077148,4511.666504,6285,4,76,,,,0,4,4,4,4,4,4,4,4,4,4,4,4,4,4,100,,,,,,,,,,,,,,,,,,,,,,,,,,,,,,,,,,,,,,,,,,,,,,,,,,,,,,,,,,,,,,,,,,,,,,,,,,,,,,,,,,,,,,,,,,,,,,,,,,,,,,,,,,,,,,,,,,,,,,,,,,,,,,,,,,,,,,
1702545404,1702545404,116,0,4364.615234,4485.256348,4427.436035,4351.538574,4388.461426,4324.743652,4386.794922,4418.333496,4427.436035,4403.717773,4594.743652,4604.871582,4709.615234,4532.692383,6860,4,76,,,,0,4,4,4,4,4,4,4,4,4,4,4,4,4,4,100,,,,,,,,,,,,,,,,,29,0,0.717729,-0.161987,-0.67218,0.082458,0.941521,-0.30326,0.004395,-17.28022,0.78627,87.866219,,,,,,,,,,,,,,,,,,,,,,,,,,,,,,,,,,,,,,,,,,,,,,,,,,,,,,,,,,,,,,,,,,,,,,,,,,,,,,,,,,,,,,,,,,,,,,,,,,,,,,,,,,
1702545404,1702545404,117,0,4367.692383,4489.102539,4427.436035,4356.282227,4379.743652,4326.922852,4393.333496,4419.743652,4432.94873,4400.641113,4594.487305,4610.384766,4704.230957,4539.102539,7172,4,76,,,,0,4,4,4,4,4,4,4,4,4,4,4,4,4,4,100,,,,,,,,,,,,,,,,,,,,,,,,,,,,,,,,,,,,,,,,,,,,,,,,,,,,,,,,,,,,,,,,,,,,,,,,,,,,,,,,,,,,,,,,,,,,,,,,,,,,,,,,,,,,,,,,,,,,,,,,,,,,,,,,,,,,,,
1702545404,1702545404,118,0,4364.102539,4497.436035,4428.461426,4361.410156,4390.256348,4334.743652,4397.179688,4413.974121,4425.384766,4393.461426,4590,4612.94873,4686.922852,4539.487305,6058,4,76,,,,0,4,4,4,4,4,4,4,4,4,4,4,4,4,4,100,,,,,,,,,,,,,,,,,,,,,,,,,,,,,,,,,,,,,,,,,,,,,,,,,,,,,,,,,,,,,,,,,,,,,,,,,,,,,,,,,,,,,,,,,,,,,,,,,,,,,,,,,,,,,,,,,,,,,,,,,,,,,,,,,,,,,,
1702545404,1702545404,119,0,4360.769043,4507.05127,4432.820313,4366.666504,4407.436035,4341.153809,4399.871582,4416.538574,4424.230957,4393.077148,4589.871582,4611.282227,4680.897461,4539.358887,6285,4,76,,,,0,4,4,4,4,4,4,4,4,4,4,4,4,4,4,100,,,,,,,,,,,,,,,,,,,,,,,,,,,,,,,,,,,,,,,,,,,,,,,,,,,,,,,,,,,,,,,,,,,,,,,,,,,,,,,,,,,,,,,,,,,,,,,,,,,,,,,,,,,,,,,,,,,,,,,,,,,,,,,,,,,,,,
1702545404,1702545404,120,0,4356.922852,4505.256348,4431.282227,4366.922852,4413.077148,4336.666504,4402.820313,4425.384766,4427.05127,4398.333496,4587.94873,4611.153809,4676.922852,4534.743652,6860,4,76,,,,0,4,4,4,4,4,4,4,4,4,4,4,4,4,4,100,,,,,,,,,,,,,,,,,30,0,0.717665,-0.162048,-0.672241,0.082397,0.936638,-0.296911,0.006837,-17.43553,0.72431,87.646263,,,,,,,,,,,,,,,,,,,,,,,,,,,,,,,,,,,,,,,,,,,,,,,,,,,,,,,,,,,,,,,,,,,,,,,,,,,,,,,,,,,,,,,,,,,,,,,,,,,,,,,,,,
1702545404,1702545404,121,0,4357.307617,4513.461426,4429.230957,4367.05127,4414.615234,4333.077148,4407.436035,4428.333496,4426.282227,4397.820313,4591.282227,4615.641113,4678.461426,4534.102539,7172,4,76,,,,0,4,4,4,4,4,4,4,4,4,4,4,4,4,4,100,,,,,,,,,,,,,,,,,,,,,,,,,,,,,,,,,,,,,,,,,,,,,,,,,,,,,,,,,,,,,,,,,,,,,,,,,,,,,,,,,,,,,,,,,,,,,,,,,,,,,,,,,,,,,,,,,,,,,,,,,,,,,,,,,,,,,,
1702545404,1702545404,122,0,4362.692383,4535,4436.922852,4374.102539,4411.025879,4344.102539,4413.846191,4432.05127,4436.153809,4398.846191,4601.922852,4622.820313,4681.922852,4539.871582,6058,4,76,,,,0,4,4,4,4,4,4,4,4,4,4,4,4,4,4,100,,,,,,,,,,,,,,,,,,,,,,,,,,,,,,,,,,,,,,,,,,,,,,,,,,,,,,,,,,,,,,,,,,,,,,,,,,,,,,,,,,,,,,,,,,,,,,,,,,,,,,,,,,,,,,,,,,,,,,,,,,,,,,,,,,,,,,
1702545404,1702545404,123,0,4368.717773,4544.102539,4445,4380.897461,4404.487305,4357.820313,4415.256348,4440.897461,4442.820313,4404.743652,4606.666504,4630.128418,4675.384766,4543.333496,6285,4,76,,,,0,4,4,4,4,4,4,4,4,4,4,4,4,4,4,100,,,,,,,,,,,,,,,,,,,,,,,,,,,,,,,,,,,,,,,,,,,,,,,,,,,,,,,,,,,,,,,,,,,,,,,,,,,,,,,,,,,,,,,,,,,,,,,,,,,,,,,,,,,,,,,,,,,,,,,,,,,,,,,,,,,,,,
1702545404,1702545404,124,0,4374.487305,4547.820313,4447.05127,4385.384766,4415.641113,4362.179688,4416.025879,4445.512695,4434.615234,4403.461426,4606.282227,4632.563965,4678.205078,4542.94873,6860,4,76,,,,0,4,4,4,4,4,4,4,4,4,4,4,4,4,4,100,,,,,,,,,,,,,,,,,31,0,0.717592,-0.162048,-0.672363,0.082031,0.933219,-0.308631,0.009278,-17.458645,0.768545,87.798302,,,,,,,,,,,,,,,,,,,,,,,,,,,,,,,,,,,,,45.687813,4.000013,1.072575,0.724579,0.438504,77.602425,3.848953,1.557621,1.078375,0.675496,11.503339,1.525368,0.929251,0.668431,0.263474,17.406309,1.004898,0.516466,0.729931,0.402344,6.09562,1.698842,0.776889,2.178901,1.641378,9.433554,3.072535,1.423179,1.000437,0.262116,8.763946,1.582861,1.042988,0.925727,0.286054,6.841177,1.848139,1.30849,0.429588,0.328076,9.788006,2.624837,1.255318,0.377643,0.40919,8.212278,2.358114,0.999382,0.659156,0.447189,16.357553,3.061438,1.946737,0.666027,0.479892,20.177853,2.534751,1.635373,0.900667,0.534395,50.627541,3.726586,1.803741,0.744172,0.679247,46.292946,4.380866,1.711087,0.827116,0.50711
1702545404,1702545404,125,0,4373.461426,4558.077148,4443.589844,4387.94873,4426.410156,4360,4417.05127,4439.615234,4430.897461,4403.717773,4604.615234,4627.563965,4691.410156,4541.794922,7172,4,76,,,,0,4,4,4,4,4,4,4,4,4,4,4,4,4,4,100,,,,,,,,,,,,,,,,,,,,,,,,,,,,,,,,,,,,,,,,,,,,,,,,,,,,,,,,,,,,,,,,,,,,,,,,,,,,,,,,,,,,,,,,,,,,,,,,,,,,,,,,,,,,,,,,,,,,,,,,,,,,,,,,,,,,,,
1702545404,1702545404,126,0,4367.05127,4559.102539,4437.05127,4382.692383,4416.666504,4358.717773,4411.410156,4433.077148,4432.820313,4407.563965,4599.743652,4619.615234,4688.205078,4539.615234,6058,4,76,,,,0,4,4,4,4,4,4,4,4,4,4,4,4,4,4,100,,,,,,,,,,,,,,,,,,,,,,,,,,,,,,,,,,,,,,,,,,,,,,,,,,,,,,,,,,,,,,,,,,,,,,,,,,,,,,,,,,,,,,,,,,,,,,,,,,,,,,,,,,,,,,,,,,,,,,,,,,,,,,,,,,,,,,
1702545404,1702545404,127,0,4362.436035,4552.179688,4433.333496,4377.05127,4408.846191,4359.487305,4407.179688,4430.128418,4427.692383,4397.436035,4589.743652,4610.897461,4672.94873,4530.641113,76,4,76,,,,0,4,4,4,4,4,4,4,4,4,4,4,4,4,4,100,,,,,,,,,,,,,,,,,,,,,,,,,,,,,,,,,,,,,,,,,,,,,,,,,,,,,,,,,,,,,,,,,,,,,,,,,,,,,,,,,,,,,,,,,,,,,,,,,,,,,,,,,,,,,,,,,,,,,,,,,,,,,,,,,,,,,,
1702545404,1702545404,0,0,4350.641113,4537.563965,4424.615234,4370.641113,4403.333496,4351.153809,4401.025879,4419.871582,4412.436035,4380.769043,4572.563965,4594.871582,4662.820313,4510.512695,5377,4,76,,,,0,4,4,4,4,4,4,4,4,4,4,4,4,4,4,100,,,,,,,,,,,,,,,,,0,0,0.717742,-0.162109,-0.672241,0.081604,0.948846,-0.307166,0.012697,-17.546114,0.825024,87.985138,,,,,,,,,,,,,,,,,,,,,,,,,,,,,,,,,,,,,,,,,,,,,,,,,,,,,,,,,,,,,,,,,,,,,,,,,,,,,,,,,,,,,,,,,,,,,,,,,,,,,,,,,,
1702545404,1702545404,1,0,4325.512695,4508.461426,4402.436035,4345.897461,4379.358887,4327.94873,4378.461426,4396.410156,4388.846191,4360.128418,4542.820313,4563.589844,4643.846191,4483.461426,5517,4,76,,,,0,4,4,4,4,4,4,4,4,4,4,4,4,4,4,100,,,,,,,,,,,,,,,,,,,,,,,,,,,,,,,,,,,,,,,,,,,,,,,,,,,,,,,,,,,,,,,,,,,,,,,,,,,,,,,,,,,,,,,,,,,,,,,,,,,,,,,,,,,,,,,,,,,,,,,,,,,,,,,,,,,,,,
1702545404,1702545404,2,0,4302.436035,4485.641113,4377.563965,4315.897461,4356.282227,4310.128418,4356.153809,4373.461426,4365.128418,4332.563965,4512.94873,4531.410156,4616.794922,4456.922852,5497,4,76,,,,0,4,4,4,4,4,4,4,4,4,4,4,4,4,4,100,,,,,,,,,,,,,,,,,,,,,,,,,,,,,,,,,,,,,,,,,,,,,,,,,,,,,,,,,,,,,,,,,,,,,,,,,,,,,,,,,,,,,,,,,,,,,,,,,,,,,,,,,,,,,,,,,,,,,,,,,,,,,,,,,,,,,,
1702545404,1702545404,3,0,4291.666504,4472.307617,4365.769043,4306.282227,4345.897461,4309.871582,4346.794922,4365.256348,4356.282227,4321.410156,4500.384766,4518.461426,4609.358887,4439.615234,5414,4,76,,,,0,4,4,4,4,4,4,4,4,4,4,4,4,4,4,100,,,,,,,,,,,,,,,,,,,,,,,,,,,,,,,,,,,,,,,,,,,,,,,,,,,,,,,,,,,,,,,,,,,,,,,,,,,,,,,,,,,,,,,,,,,,,,,,,,,,,,,,,,,,,,,,,,,,,,,,,,,,,,,,,,,,,,
1702545404,1702545404,4,0,4287.692383,4457.94873,4365.256348,4304.230957,4339.230957,4311.410156,4340.384766,4361.666504,4352.05127,4327.436035,4499.615234,4514.743652,4614.615234,4435.769043,5392,4,76,,,,0,4,4,4,4,4,4,4,4,4,4,4,4,4,4,100,,,,,,,,,,,,,,,,,1,0,0.718009,-0.162537,-0.671875,0.081421,0.932243,-0.301795,0.021487,-17.591501,0.842522,88.036629,,,,,,,,,,,,,,,,,,,,,,,,,,,,,,,,,,,,,,,,,,,,,,,,,,,,,,,,,,,,,,,,,,,,,,,,,,,,,,,,,,,,,,,,,,,,,,,,,,,,,,,,,,
1702545404,1702545404,5,0,4285.897461,4452.436035,4367.05127,4296.025879,4341.922852,4308.589844,4336.153809,4359.230957,4345.512695,4325,4503.589844,4508.333496,4617.692383,4439.102539,5439,4,76,,,,0,4,4,4,4,4,4,4,4,4,4,4,4,4,4,100,,,,,,,,,,,,,,,,,,,,,,,,,,,,,,,,,,,,,,,,,,,,,,,,,,,,,,,,,,,,,,,,,,,,,,,,,,,,,,,,,,,,,,,,,,,,,,,,,,,,,,,,,,,,,,,,,,,,,,,,,,,,,,,,,,,,,,
1702545404,1702545404,6,0,4284.358887,4453.077148,4363.077148,4292.820313,4345.384766,4310.769043,4332.307617,4356.794922,4340.512695,4322.436035,4502.563965,4504.871582,4616.282227,4435.641113,5252,4,76,,,,0,4,4,4,4,4,4,4,4,4,4,4,4,4,4,100,,,,,,,,,,,,,,,,,,,,,,,,,,,,,,,,,,,,,,,,,,,,,,,,,,,,,,,,,,,,,,,,,,,,,,,,,,,,,,,,,,,,,,,,,,,,,,,,,,,,,,,,,,,,,,,,,,,,,,,,,,,,,,,,,,,,,,
1702545404,1702545404,7,0,4278.205078,4449.358887,4352.307617,4293.333496,4339.871582,4313.846191,4324.102539,4347.179688,4334.487305,4324.358887,4492.307617,4499.871582,4606.538574,4425.256348,5086,4,76,,,,0,4,4,4,4,4,4,4,4,4,4,4,4,4,4,100,,,,,,,,,,,,,,,,,,,,,,,,,,,,,,,,,,,,,,,,,,,,,,,,,,,,,,,,,,,,,,,,,,,,,,,,,,,,,,,,,,,,,,,,,,,,,,,,,,,,,,,,,,,,,,,,,,,,,,,,,,,,,,,,,,,,,,
1702545404,1702545404,8,0,4276.922852,4451.666504,4351.410156,4294.871582,4341.153809,4311.922852,4325.512695,4341.410156,4334.102539,4314.102539,4490.256348,4494.615234,4604.487305,4423.205078,5432,4,76,,,,0,4,4,4,4,4,4,4,4,4,4,4,4,4,4,100,,,,,,,,,,,,,,,,,2,0,0.718062,-0.163025,-0.671692,0.081482,0.945916,-0.30326,0.007813,-17.565685,0.874936,87.949631,,,,,,,,,,,,,,,,,,,,,,,,,,,,,,,,,,,,,,,,,,,,,,,,,,,,,,,,,,,,,,,,,,,,,,,,,,,,,,,,,,,,,,,,,,,,,,,,,,,,,,,,,,
1702545404,1702545404,9,0,4284.230957,4459.871582,4358.974121,4296.922852,4342.179688,4310.897461,4336.025879,4346.666504,4336.025879,4306.153809,4496.794922,4498.333496,4611.794922,4428.461426,5444,4,76,,,,0,4,4,4,4,4,4,4,4,4,4,4,4,4,4,100,,,,,,,,,,,,,,,,,,,,,,,,,,,,,,,,,,,,,,,,,,,,,,,,,,,,,,,,,,,,,,,,,,,,,,,,,,,,,,,,,,,,,,,,,,,,,,,,,,,,,,,,,,,,,,,,,,,,,,,,,,,,,,,,,,,,,,
1702545404,1702545404,10,0,4286.538574,4460.384766,4356.153809,4294.871582,4327.05127,4309.358887,4334.487305,4348.077148,4328.333496,4309.230957,4495.897461,4500.128418,4610.384766,4427.94873,6048,4,76,,,,0,4,4,4,4,4,4,4,4,4,4,4,4,4,4,100,,,,,,,,,,,,,,,,,,,,,,,,,,,,,,,,,,,,,,,,,,,,,,,,,,,,,,,,,,,,,,,,,,,,,,,,,,,,,,,,,,,,,,,,,,,,,,,,,,,,,,,,,,,,,,,,,,,,,,,,,,,,,,,,,,,,,,
1702545404,1702545404,11,0,4286.282227,4465.641113,4353.974121,4299.230957,4331.794922,4308.974121,4330.769043,4347.563965,4326.025879,4309.358887,4491.922852,4496.794922,4596.282227,4427.563965,6289,4,76,,,,0,4,4,4,4,4,4,4,4,4,4,4,4,4,4,100,,,,,,,,,,,,,,,,,,,,,,,,,,,,,,,,,,,,,,,,,,,,,,,,,,,,,,,,,,,,,,,,,,,,,,,,,,,,,,,,,,,,,,,,,,,,,,,,,,,,,,,,,,,,,,,,,,,,,,,,,,,,,,,,,,,,,,
1702545404,1702545404,12,0,4293.974121,4478.461426,4366.410156,4311.410156,4366.153809,4320.512695,4343.205078,4363.205078,4342.692383,4312.436035,4500,4508.846191,4588.589844,4435.384766,6853,4,76,,,,0,4,4,4,4,4,4,4,4,4,4,4,4,4,4,100,,,,,,,,,,,,,,,,,3,0,0.718143,-0.163391,-0.671509,0.081543,0.946405,-0.314492,0.020999,-17.725782,0.837443,87.921333,,,,,,,,,,,,,,,,,,,,,,,,,,,,,,,,,,,,,50.348366,3.607099,1.231579,0.67033,0.418569,94.250694,4.242359,1.657373,1.014217,0.654966,12.495584,1.010439,0.931608,0.656831,0.232611,19.144531,0.849468,0.546411,0.733566,0.354484,6.879595,1.835665,0.846399,2.046436,1.344108,8.8833,2.482732,1.390226,0.985904,0.274686,8.249139,1.732457,0.760179,0.899511,0.273246,6.515553,1.6569,1.155167,0.459487,0.293915,9.480569,2.349972,1.041091,0.408743,0.37705,8.061368,2.050078,0.96449,0.687342,0.435209,16.039093,2.011045,2.010605,0.721056,0.436618,20.794804,1.60803,1.559338,0.899403,0.502458,48.921299,2.594025,2.513609,0.806568,0.656452,49.212116,3.603573,1.775068,0.811086,0.457711
1702545404,1702545404,13,0,4311.153809,4493.333496,4382.94873,4318.846191,4375.769043,4337.94873,4360.512695,4383.974121,4363.846191,4332.307617,4524.615234,4536.666504,4613.077148,4451.922852,7170,4,76,,,,0,4,4,4,4,4,4,4,4,4,4,4,4,4,4,100,,,,,,,,,,,,,,,,,,,,,,,,,,,,,,,,,,,,,,,,,,,,,,,,,,,,,,,,,,,,,,,,,,,,,,,,,,,,,,,,,,,,,,,,,,,,,,,,,,,,,,,,,,,,,,,,,,,,,,,,,,,,,,,,,,,,,,
1702545404,1702545404,14,0,4323.205078,4501.794922,4390.641113,4317.307617,4352.307617,4341.666504,4365.384766,4391.282227,4372.179688,4353.846191,4550,4551.153809,4650,4468.846191,6048,4,76,,,,0,4,4,4,4,4,4,4,4,4,4,4,4,4,4,100,,,,,,,,,,,,,,,,,,,,,,,,,,,,,,,,,,,,,,,,,,,,,,,,,,,,,,,,,,,,,,,,,,,,,,,,,,,,,,,,,,,,,,,,,,,,,,,,,,,,,,,,,,,,,,,,,,,,,,,,,,,,,,,,,,,,,,
1702545404,1702545404,15,0,4326.153809,4493.461426,4392.692383,4313.846191,4358.461426,4340.641113,4366.153809,4393.461426,4376.538574,4361.153809,4561.025879,4552.05127,4662.05127,4480.128418,6289,4,76,,,,0,4,4,4,4,4,4,4,4,4,4,4,4,4,4,100,,,,,,,,,,,,,,,,,,,,,,,,,,,,,,,,,,,,,,,,,,,,,,,,,,,,,,,,,,,,,,,,,,,,,,,,,,,,,,,,,,,,,,,,,,,,,,,,,,,,,,,,,,,,,,,,,,,,,,,,,,,,,,,,,,,,,,
1702545404,1702545404,16,0,4342.05127,4494.615234,4406.666504,4321.410156,4394.358887,4359.487305,4381.666504,4409.743652,4395.256348,4377.692383,4586.666504,4573.333496,4676.666504,4501.410156,0,4,76,,,,0,4,4,4,4,4,4,4,4,4,4,4,4,4,4,100,,,,,,,,,,,,,,,,,4,0,0.718059,-0.163513,-0.67157,0.081543,0.94787,-0.293493,0.000977,-17.786539,0.770365,87.945869,,,,,,,,,,,,,,,,,,,,,,,,,,,,,,,,,,,,,,,,,,,,,,,,,,,,,,,,,,,,,,,,,,,,,,,,,,,,,,,,,,,,,,,,,,,,,,,,,,,,,,,,,,
1702545404,1702545404,17,0,4371.025879,4516.025879,4432.436035,4338.461426,4398.717773,4385.512695,4403.461426,4433.717773,4424.487305,4406.666504,4637.05127,4613.461426,4718.589844,4539.743652,0,4,76,,,,0,4,4,4,4,4,4,4,4,4,4,4,4,4,4,100,,,,,,,,,,,,,,,,,,,,,,,,,,,,,,,,,,,,,,,,,,,,,,,,,,,,,,,,,,,,,,,,,,,,,,,,,,,,,,,,,,,,,,,,,,,,,,,,,,,,,,,,,,,,,,,,,,,,,,,,,,,,,,,,,,,,,,
1702545404,1702545404,18,0,4389.230957,4529.102539,4450.128418,4345.384766,4393.589844,4403.717773,4419.871582,4444.358887,4442.05127,4424.487305,4668.461426,4637.307617,4735.384766,4570.128418,0,4,76,,,,0,4,4,4,4,4,4,4,4,4,4,4,4,4,4,100,,,,,,,,,,,,,,,,,,,,,,,,,,,,,,,,,,,,,,,,,,,,,,,,,,,,,,,,,,,,,,,,,,,,,,,,,,,,,,,,,,,,,,,,,,,,,,,,,,,,,,,,,,,,,,,,,,,,,,,,,,,,,,,,,,,,,,
1702545404,1702545404,19,0,4389.358887,4522.179688,4450.769043,4337.307617,4411.538574,4409.230957,4429.615234,4448.589844,4445.384766,4428.589844,4670.512695,4637.692383,4709.615234,4576.794922,0,4,76,,,,0,4,4,4,4,4,4,4,4,4,4,4,4,4,4,100,,,,,,,,,,,,,,,,,,,,,,,,,,,,,,,,,,,,,,,,,,,,,,,,,,,,,,,,,,,,,,,,,,,,,,,,,,,,,,,,,,,,,,,,,,,,,,,,,,,,,,,,,,,,,,,,,,,,,,,,,,,,,,,,,,,,,,
1702545404,1702545404,20,0,4382.94873,4511.025879,4446.025879,4329.230957,4414.487305,4399.871582,4430.897461,4453.717773,4445.769043,4428.717773,4666.666504,4631.153809,4683.333496,4568.205078,0,4,76,,,,0,4,4,4,4,4,4,4,4,4,4,4,4,4,4,100,,,,,,,,,,,,,,,,,5,0,0.717937,-0.163513,-0.671692,0.081604,0.941033,-0.315468,0.004883,-17.757885,0.826662,87.967949,,,,,,,,,,,,,,,,,,,,,,,,,,,,,,,,,,,,,,,,,,,,,,,,,,,,,,,,,,,,,,,,,,,,,,,,,,,,,,,,,,,,,,,,,,,,,,,,,,,,,,,,,,
1702545404,1702545404,21,0,4378.461426,4511.282227,4444.230957,4325.641113,4399.615234,4392.307617,4427.94873,4451.153809,4446.025879,4425.128418,4660.512695,4627.179688,4661.282227,4559.615234,0,4,76,,,,0,4,4,4,4,4,4,4,4,4,4,4,4,4,4,100,,,,,,,,,,,,,,,,,,,,,,,,,,,,,,,,,,,,,,,,,,,,,,,,,,,,,,,,,,,,,,,,,,,,,,,,,,,,,,,,,,,,,,,,,,,,,,,,,,,,,,,,,,,,,,,,,,,,,,,,,,,,,,,,,,,,,,
1702545404,1702545404,22,0,4378.205078,4519.230957,4442.563965,4324.230957,4405,4392.563965,4427.692383,4442.307617,4439.743652,4424.358887,4653.205078,4626.666504,4633.077148,4554.102539,0,4,76,,,,0,4,4,4,4,4,4,4,4,4,4,4,4,4,4,100,,,,,,,,,,,,,,,,,,,,,,,,,,,,,,,,,,,,,,,,,,,,,,,,,,,,,,,,,,,,,,,,,,,,,,,,,,,,,,,,,,,,,,,,,,,,,,,,,,,,,,,,,,,,,,,,,,,,,,,,,,,,,,,,,,,,,,
1702545404,1702545404,23,0,4381.282227,4525.128418,4443.461426,4325.769043,4417.179688,4388.589844,4428.846191,4442.692383,4434.230957,4431.922852,4655,4628.077148,4607.563965,4553.205078,0,4,76,,,,0,4,4,4,4,4,4,4,4,4,4,4,4,4,4,100,,,,,,,,,,,,,,,,,,,,,,,,,,,,,,,,,,,,,,,,,,,,,,,,,,,,,,,,,,,,,,,,,,,,,,,,,,,,,,,,,,,,,,,,,,,,,,,,,,,,,,,,,,,,,,,,,,,,,,,,,,,,,,,,,,,,,,
1702545404,1702545404,24,0,4382.563965,4529.487305,4445,4326.538574,4409.615234,4382.179688,4428.717773,4449.102539,4439.358887,4429.743652,4658.461426,4632.179688,4585.256348,4559.743652,0,4,76,,,,0,4,4,4,4,4,4,4,4,4,4,4,4,4,4,100,,,,,,,,,,,,,,,,,6,0,0.717716,-0.163391,-0.671936,0.081787,0.932243,-0.301795,0.016115,-17.798763,0.777329,87.954483,,,,,,,,,,,,,,,,,,,,,,,,,,,,,,,,,,,,,,,,,,,,,,,,,,,,,,,,,,,,,,,,,,,,,,,,,,,,,,,,,,,,,,,,,,,,,,,,,,,,,,,,,,
1702545404,1702545404,25,0,4379.743652,4537.692383,4443.461426,4326.794922,4404.102539,4378.974121,4426.922852,4447.94873,4441.922852,4412.692383,4653.717773,4632.820313,4556.666504,4563.077148,0,4,76,,,,0,4,4,4,4,4,4,4,4,4,4,4,4,4,4,100,,,,,,,,,,,,,,,,,,,,,,,,,,,,,,,,,,,,,,,,,,,,,,,,,,,,,,,,,,,,,,,,,,,,,,,,,,,,,,,,,,,,,,,,,,,,,,,,,,,,,,,,,,,,,,,,,,,,,,,,,,,,,,,,,,,,,,
1702545404,1702545404,26,0,4372.179688,4540.256348,4437.94873,4326.794922,4405,4373.333496,4424.871582,4445.128418,4434.743652,4401.153809,4645.641113,4623.589844,4523.589844,4556.666504,0,4,76,,,,0,4,4,4,4,4,4,4,4,4,4,4,4,4,4,100,,,,,,,,,,,,,,,,,,,,,,,,,,,,,,,,,,,,,,,,,,,,,,,,,,,,,,,,,,,,,,,,,,,,,,,,,,,,,,,,,,,,,,,,,,,,,,,,,,,,,,,,,,,,,,,,,,,,,,,,,,,,,,,,,,,,,,
1702545404,1702545404,27,0,4371.025879,4537.563965,4436.282227,4326.538574,4401.025879,4369.615234,4427.179688,4449.743652,4432.94873,4413.333496,4643.974121,4619.102539,4496.153809,4553.974121,0,4,76,,,,0,4,4,4,4,4,4,4,4,4,4,4,4,4,4,100,,,,,,,,,,,,,,,,,,,,,,,,,,,,,,,,,,,,,,,,,,,,,,,,,,,,,,,,,,,,,,,,,,,,,,,,,,,,,,,,,,,,,,,,,,,,,,,,,,,,,,,,,,,,,,,,,,,,,,,,,,,,,,,,,,,,,,
1702545404,1702545404,28,0,4377.94873,4539.487305,4437.820313,4326.153809,4403.333496,4366.666504,4426.666504,4453.205078,4434.743652,4427.436035,4650,4622.820313,4477.307617,4558.205078,0,4,76,,,,0,4,4,4,4,4,4,4,4,4,4,4,4,4,4,100,,,,,,,,,,,,,,,,,7,0,0.717557,-0.163147,-0.67218,0.081665,0.937126,-0.304725,0.006837,-17.585552,0.632929,87.992371,,,,,,,,,,,,,,,,,,,,,,,,,,,,,,,,,,,,,49.409397,3.073272,1.548131,0.607146,0.386077,100.165627,4.292311,1.69164,0.90155,0.614323,13.087174,0.706003,1.163434,0.636368,0.208686,19.457209,0.770249,0.654435,0.715135,0.297392,7.817164,1.866126,0.908894,1.862719,1.125299,8.234434,2.146932,1.371184,0.888396,0.28204,8.173584,1.795874,0.56533,0.801158,0.254691,6.671153,1.480319,1.131185,0.461765,0.252004,9.812413,2.064899,0.988762,0.416054,0.337991,8.527054,1.762017,1.123948,0.692526,0.426103,16.232676,1.351667,2.342439,0.779064,0.396092,21.342037,1.063441,1.797874,0.869517,0.450897,45.038723,1.920514,4.051159,0.955378,0.61605,47.842712,2.846136,2.043913,0.786612,0.390875
1702545404,1702545404,29,0,4378.846191,4543.974121,4435.256348,4323.333496,4409.230957,4355.512695,4419.871582,4443.974121,4430.641113,4417.436035,4649.230957,4620.512695,4454.615234,4557.05127,0,4,76,,,,0,4,4,4,4,4,4,4,4,4,4,4,4,4,4,100,,,,,,,,,,,,,,,,,,,,,,,,,,,,,,,,,,,,,,,,,,,,,,,,,,,,,,,,,,,,,,,,,,,,,,,,,,,,,,,,,,,,,,,,,,,,,,,,,,,,,,,,,,,,,,,,,,,,,,,,,,,,,,,,,,,,,,
1702545404,1702545404,30,0,4385.641113,4561.282227,4439.743652,4326.025879,4411.538574,4355.512695,4421.794922,4444.102539,4434.871582,4409.358887,4647.563965,4625.256348,4432.05127,4562.820313,0,4,76,,,,0,4,4,4,4,4,4,4,4,4,4,4,4,4,4,100,,,,,,,,,,,,,,,,,,,,,,,,,,,,,,,,,,,,,,,,,,,,,,,,,,,,,,,,,,,,,,,,,,,,,,,,,,,,,,,,,,,,,,,,,,,,,,,,,,,,,,,,,,,,,,,,,,,,,,,,,,,,,,,,,,,,,,
1702545404,1702545404,31,0,4396.153809,4580,4448.077148,4330.512695,4413.846191,4370.256348,4432.05127,4460.769043,4448.333496,4415.897461,4654.230957,4639.358887,4420,4574.358887,0,4,76,,,,0,4,4,4,4,4,4,4,4,4,4,4,4,4,4,100,,,,,,,,,,,,,,,,,,,,,,,,,,,,,,,,,,,,,,,,,,,,,,,,,,,,,,,,,,,,,,,,,,,,,,,,,,,,,,,,,,,,,,,,,,,,,,,,,,,,,,,,,,,,,,,,,,,,,,,,,,,,,,,,,,,,,,
1702545404,1702545404,32,0,4388.077148,4576.410156,4443.461426,4323.333496,4410.769043,4377.563965,4431.410156,4461.922852,4448.589844,4422.436035,4653.461426,4632.692383,4406.410156,4568.205078,0,4,76,,,,0,4,4,4,4,4,4,4,4,4,4,4,4,4,4,100,,,,,,,,,,,,,,,,,8,0,0.717498,-0.163025,-0.672302,0.081421,0.938103,-0.32084,0.001953,-17.543665,0.836303,87.926468,,,,,,,,,,,,,,,,,,,,,,,,,,,,,,,,,,,,,,,,,,,,,,,,,,,,,,,,,,,,,,,,,,,,,,,,,,,,,,,,,,,,,,,,,,,,,,,,,,,,,,,,,,
1702545404,1702545404,33,0,4371.922852,4566.922852,4427.692383,4306.538574,4397.563965,4371.922852,4418.589844,4443.974121,4434.743652,4419.743652,4635.769043,4610.897461,4383.974121,4551.153809,0,4,76,,,,0,4,4,4,4,4,4,4,4,4,4,4,4,4,4,100,,,,,,,,,,,,,,,,,,,,,,,,,,,,,,,,,,,,,,,,,,,,,,,,,,,,,,,,,,,,,,,,,,,,,,,,,,,,,,,,,,,,,,,,,,,,,,,,,,,,,,,,,,,,,,,,,,,,,,,,,,,,,,,,,,,,,,
1702545404,1702545404,34,0,4366.153809,4568.717773,4420.384766,4293.717773,4392.307617,4368.846191,4404.615234,4428.974121,4419.358887,4401.025879,4617.05127,4602.179688,4358.333496,4540.641113,0,4,76,,,,0,4,4,4,4,4,4,4,4,4,4,4,4,4,4,100,,,,,,,,,,,,,,,,,,,,,,,,,,,,,,,,,,,,,,,,,,,,,,,,,,,,,,,,,,,,,,,,,,,,,,,,,,,,,,,,,,,,,,,,,,,,,,,,,,,,,,,,,,,,,,,,,,,,,,,,,,,,,,,,,,,,,,
1702545404,1702545404,35,0,4366.794922,4569.871582,4423.205078,4294.102539,4403.717773,4374.358887,4396.538574,4422.563965,4412.436035,4384.487305,4614.743652,4602.179688,4343.589844,4540.897461,0,4,76,,,,0,4,4,4,4,4,4,4,4,4,4,4,4,4,4,100,,,,,,,,,,,,,,,,,,,,,,,,,,,,,,,,,,,,,,,,,,,,,,,,,,,,,,,,,,,,,,,,,,,,,,,,,,,,,,,,,,,,,,,,,,,,,,,,,,,,,,,,,,,,,,,,,,,,,,,,,,,,,,,,,,,,,,
1702545404,1702545404,36,0,4365.384766,4563.461426,4421.282227,4299.102539,4402.307617,4378.717773,4390.384766,4415.256348,4406.666504,4386.282227,4609.743652,4593.461426,4338.846191,4540.897461,0,4,76,,,,0,4,4,4,4,4,4,4,4,4,4,4,4,4,4,100,,,,,,,,,,,,,,,,,9,0,0.717553,-0.162964,-0.672302,0.081055,0.932243,-0.315957,0.011232,-17.389297,0.786006,87.800484,,,,,,,,,,,,,,,,,,,,,,,,,,,,,,,,,,,,,,,,,,,,,,,,,,,,,,,,,,,,,,,,,,,,,,,,,,,,,,,,,,,,,,,,,,,,,,,,,,,,,,,,,,
1702545404,1702545404,37,0,4361.282227,4551.538574,4409.487305,4295.128418,4387.05127,4373.974121,4379.102539,4402.820313,4390.512695,4379.230957,4592.563965,4577.436035,4330.512695,4528.717773,0,4,76,,,,0,4,4,4,4,4,4,4,4,4,4,4,4,4,4,100,,,,,,,,,,,,,,,,,,,,,,,,,,,,,,,,,,,,,,,,,,,,,,,,,,,,,,,,,,,,,,,,,,,,,,,,,,,,,,,,,,,,,,,,,,,,,,,,,,,,,,,,,,,,,,,,,,,,,,,,,,,,,,,,,,,,,,
1702545404,1702545404,38,0,4349.230957,4540.256348,4396.025879,4287.563965,4381.794922,4362.692383,4367.05127,4394.871582,4379.230957,4357.692383,4579.615234,4565.128418,4322.692383,4510.897461,0,4,76,,,,0,4,4,4,4,4,4,4,4,4,4,4,4,4,4,100,,,,,,,,,,,,,,,,,,,,,,,,,,,,,,,,,,,,,,,,,,,,,,,,,,,,,,,,,,,,,,,,,,,,,,,,,,,,,,,,,,,,,,,,,,,,,,,,,,,,,,,,,,,,,,,,,,,,,,,,,,,,,,,,,,,,,,
1702545404,1702545404,39,0,4340,4539.487305,4390.641113,4290,4378.205078,4355.641113,4362.94873,4393.589844,4380.384766,4356.410156,4575.256348,4556.025879,4332.179688,4502.692383,0,4,76,,,,0,4,4,4,4,4,4,4,4,4,4,4,4,4,4,100,,,,,,,,,,,,,,,,,,,,,,,,,,,,,,,,,,,,,,,,,,,,,,,,,,,,,,,,,,,,,,,,,,,,,,,,,,,,,,,,,,,,,,,,,,,,,,,,,,,,,,,,,,,,,,,,,,,,,,,,,,,,,,,,,,,,,,
