Timestamp,EEG.Counter,EEG.Interpolated,EEG.AF3,EEG.F7,EEG.F3,EEG.FC5,EEG.T7,EEG.P7,EEG.O1,EEG.O2,EEG.P8,EEG.T8,EEG.FC6,EEG.F4,EEG.F8,EEG.AF4,EEG.RawCq,EEG.Battery,EEG.BatteryPercent,MarkerIndex,MarkerType,MarkerValueInt,EEG.MarkerHardware,CQ.AF3,CQ.F7,CQ.F3,CQ.FC5,CQ.T7,CQ.P7,CQ.O1,CQ.O2,CQ.P8,CQ.T8,CQ.FC6,CQ.F4,CQ.F8,CQ.AF4,CQ.Overall,EQ.SampleRateQuality,EQ.OVERALL,EQ.AF3,EQ.F7,EQ.F3,EQ.FC5,EQ.T7,EQ.P7,EQ.O1,EQ.O2,EQ.P8,EQ.T8,EQ.FC6,EQ.F4,EQ.F8,EQ.AF4,MOT.CounterMems,MOT.InterpolatedMems,MOT.Q0,MOT.Q1,MOT.Q2,MOT.Q3,MOT.AccX,MOT.AccY,MOT.AccZ,MOT.MagX,MOT.MagY,MOT.MagZ,PM.Attention.IsActive,PM.Attention.Scaled,PM.Attention.Raw,PM.Attention.Min,PM.Attention.Max,PM.Engagement.IsActive,PM.Engagement.Scaled,PM.Engagement.Raw,PM.Engagement.Min,PM.Engagement.Max,PM.Excitement.IsActive,PM.Excitement.Scaled,PM.Excitement.Raw,PM.Excitement.Min,PM.Excitement.Max,PM.LongTermExcitement,PM.Stress.IsActive,PM.Stress.Scaled,PM.Stress.Raw,PM.Stress.Min,PM.Stress.Max,PM.Relaxation.IsActive,PM.Relaxation.Scaled,PM.Relaxation.Raw,PM.Relaxation.Min,PM.Relaxation.Max,PM.Interest.IsActive,PM.Interest.Scaled,PM.Interest.Raw,PM.Interest.Min,PM.Interest.Max,PM.Focus.IsActive,PM.Focus.Scaled,PM.Focus.Raw,PM.Focus.Min,PM.Focus.Max,POW.AF3.Theta,POW.AF3.Alpha,POW.AF3.BetaL,POW.AF3.BetaH,POW.AF3.Gamma,POW.F7.Theta,POW.F7.Alpha,POW.F7.BetaL,POW.F7.BetaH,POW.F7.Gamma,POW.F3.Theta,POW.F3.Alpha,POW.F3.BetaL,POW.F3.BetaH,POW.F3.Gamma,POW.FC5.Theta,POW.FC5.Alpha,POW.FC5.BetaL,POW.FC5.BetaH,POW.FC5.Gamma,POW.T7.Theta,POW.T7.Alpha,POW.T7.BetaL,POW.T7.BetaH,POW.T7.Gamma,POW.P7.Theta,POW.P7.Alpha,POW.P7.BetaL,POW.P7.BetaH,POW.P7.Gamma,POW.O1.Theta,POW.O1.Alpha,POW.O1.BetaL,POW.O1.BetaH,POW.O1.Gamma,POW.O2.Theta,POW.O2.Alpha,POW.O2.BetaL,POW.O2.BetaH,POW.O2.Gamma,POW.P8.Theta,POW.P8.Alpha,POW.P8.BetaL,POW.P8.BetaH,POW.P8.Gamma,POW.T8.Theta,POW.T8.Alpha,POW.T8.BetaL,POW.T8.BetaH,POW.T8.Gamma,POW.FC6.Theta,POW.FC6.Alpha,POW.FC6.BetaL,POW.FC6.BetaH,POW.FC6.Gamma,POW.F4.Theta,POW.F4.Alpha,POW.F4.BetaL,POW.F4.BetaH,POW.F4.Gamma,POW.F8.Theta,POW.F8.Alpha,POW.F8.BetaL,POW.F8.BetaH,POW.F8.Gamma,POW.AF4.Theta,POW.AF4.Alpha,POW.AF4.BetaL,POW.AF4.BetaH,POW.AF4.Gamma
,,,,,,,,,,,,,,,,,,,,,,,,,,,,,,,,,,,,,,,,,,,,,,,,,,,,,,,,,,,,,,,,,,,,,,,,,,,,,,,,,,,,,,,,,,,,,,,,,,,,,,,,,,,,,,,,,,,,,,,,,,,,,,,,,,,,,,,,,,,,,,,,,,,,,,,,,,,,,,,,,,,,,,,,,,,,
1702629744,59,0,4338.974121,4457.179688,4311.410156,4348.974121,4297.563965,4457.94873,4308.717773,4264.487305,4301.922852,4278.333496,4602.436035,4471.025879,4287.94873,4779.743652,0,4,85,,,,0,4,4,4,4,4,4,4,4,4,4,4,4,4,4,100,,,,,,,,,,,,,,,,,,,,,,,,,,,,,,,,,,,,,,,,,,,,,,,,,,,,,,,,,,,,,,,,,,,,,,,,,,,,,,,,,,,,,,,,,,,,,,,,,,,,,,,,,,,,,,,,,,,,,,,,,,,,,,,,,,,,,,
1702629744,60,0,4360.897461,4473.974121,4312.820313,4357.820313,4304.743652,4503.461426,4305.128418,4266.153809,4309.615234,4278.717773,4613.974121,4477.563965,4311.025879,4804.358887,0,4,85,,,,0,4,4,4,4,4,4,4,4,4,4,4,4,4,4,100,,,,,,,,,,,,,,,,,15,0,0.493829,-0.635498,-0.334045,-0.490601,0.940056,-0.298376,-0.033696,-14.124333,-5.254388,84.046806,,,,,,,,,,,,,,,,,,,,,,,,,,,,,,,,,,,,,,,,,,,,,,,,,,,,,,,,,,,,,,,,,,,,,,,,,,,,,,,,,,,,,,,,,,,,,,,,,,,,,,,,,,
1702629744,61,0,4390.384766,4490.769043,4324.358887,4371.153809,4311.282227,4546.538574,4302.179688,4260.256348,4309.743652,4272.563965,4620.128418,4482.820313,4335.512695,4823.461426,0,4,85,,,,0,4,4,4,4,4,4,4,4,4,4,4,4,4,4,100,,,,,,,,,,,,,,,,,,,,,,,,,,,,,,,,,,,,,,,,,,,,,,,,,,,,,,,,,,,,,,,,,,,,,,,,,,,,,,,,,,,,,,,,,,,,,,,,,,,,,,,,,,,,,,,,,,,,,,,,,,,,,,,,,,,,,,
1702629744,62,0,4413.205078,4490.769043,4334.358887,4372.94873,4310.512695,4591.922852,4304.230957,4256.282227,4308.461426,4270.641113,4619.230957,4489.230957,4352.179688,4847.05127,0,4,85,,,,0,4,4,4,4,4,4,4,4,4,4,4,4,4,4,100,,,,,,,,,,,,,,,,,,,,,,,,,,,,,,,,,,,,,,,,,,,,,,,,,,,,,,,,,,,,,,,,,,,,,,,,,,,,,,,,,,,,,,,,,,,,,,,,,,,,,,,,,,,,,,,,,,,,,,,,,,,,,,,,,,,,,,
1702629744,63,0,4429.487305,4490.512695,4337.179688,4370.512695,4304.615234,4616.794922,4304.743652,4258.333496,4311.282227,4274.743652,4621.410156,4491.153809,4365.384766,4853.717773,0,4,85,,,,0,4,4,4,4,4,4,4,4,4,4,4,4,4,4,100,,,,,,,,,,,,,,,,,,,,,,,,,,,,,,,,,,,,,,,,,,,,,,,,,,,,,,,,,,,,,,,,,,,,,,,,,,,,,,,,,,,,,,,,,,,,,,,,,,,,,,,,,,,,,,,,,,,,,,,,,,,,,,,,,,,,,,
1702629744,64,0,4441.410156,4508.717773,4338.333496,4376.025879,4306.410156,4629.230957,4305.256348,4255.256348,4311.025879,4270.512695,4626.153809,4491.410156,4369.487305,4844.743652,5684,4,85,,,,0,4,4,4,4,4,4,4,4,4,4,4,4,4,4,100,,,,,,,,,,,,,,,,,16,0,0.493881,-0.635254,-0.333984,-0.490906,0.949823,-0.283726,-0.018069,-14.1119,-5.045616,84.075455,,,,,,,,,,,,,,,,,,,,,,,,,,,,,,,,,,,,,,,,,,,,,,,,,,,,,,,,,,,,,,,,,,,,,,,,,,,,,,,,,,,,,,,,,,,,,,,,,,,,,,,,,,
1702629744,65,0,4447.563965,4524.615234,4346.282227,4379.487305,4310.384766,4653.846191,4305.641113,4250,4310.897461,4263.333496,4628.333496,4498.077148,4366.666504,4834.615234,5609,4,85,,,,0,4,4,4,4,4,4,4,4,4,4,4,4,4,4,100,,,,,,,,,,,,,,,,,,,,,,,,,,,,,,,,,,,,,,,,,,,,,,,,,,,,,,,,,,,,,,,,,2.777633,0.982387,1.826287,0.384566,0.212561,7.873327,1.432555,1.069765,0.406624,0.143364,1.889053,0.855472,0.822775,0.179838,0.15359,1.738444,0.785059,0.571547,0.306739,0.146933,0.892562,0.384158,0.206887,0.286725,0.190175,515.657227,65.345375,14.496408,3.644605,1.69677,0.700079,0.186537,0.100308,0.112217,0.087152,1.947697,1.866092,0.394043,0.210216,0.117866,1.860165,1.28083,0.170067,0.251503,0.149526,2.541311,0.981748,0.432955,0.274323,0.185,13.944004,3.501835,1.028129,0.552696,0.190765,4.083553,1.303334,0.761895,0.374799,0.16597,12.594974,1.728708,1.266442,0.55485,0.337212,32.199146,9.118766,4.210558,2.724549,0.632332
1702629744,66,0,4446.538574,4526.025879,4348.333496,4373.461426,4310.769043,4678.717773,4305.256348,4249.230957,4309.230957,4264.230957,4628.589844,4500.384766,4371.538574,4816.794922,5399,4,85,,,,0,4,4,4,4,4,4,4,4,4,4,4,4,4,4,100,,,,,,,,,,,,,,,,,,,,,,,,,,,,,,,,,,,,,,,,,,,,,,,,,,,,,,,,,,,,,,,,,,,,,,,,,,,,,,,,,,,,,,,,,,,,,,,,,,,,,,,,,,,,,,,,,,,,,,,,,,,,,,,,,,,,,,
1702629744,67,0,4433.077148,4524.487305,4332.563965,4362.436035,4307.436035,4678.461426,4302.820313,4245,4297.563965,4254.230957,4617.563965,4486.538574,4369.743652,4795.641113,5364,4,85,,,,0,4,4,4,4,4,4,4,4,4,4,4,4,4,4,100,,,,,,,,,,,,,,,,,,,,,,,,,,,,,,,,,,,,,,,,,,,,,,,,,,,,,,,,,,,,,,,,,,,,,,,,,,,,,,,,,,,,,,,,,,,,,,,,,,,,,,,,,,,,,,,,,,,,,,,,,,,,,,,,,,,,,,
1702629744,68,0,4416.410156,4525.512695,4322.307617,4352.94873,4298.974121,4664.230957,4300.128418,4241.410156,4295.512695,4242.563965,4602.05127,4478.333496,4358.589844,4786.922852,5414,4,85,,,,0,4,4,4,4,4,4,4,4,4,4,4,4,4,4,100,,,,,,,,,,,,,,,,,17,0,0.493768,-0.635315,-0.333496,-0.491272,0.936149,-0.277378,-0.041509,-13.917377,-4.991055,83.767914,,,,,,,,,,,,,,,,,,,,,,,,,,,,,,,,,,,,,,,,,,,,,,,,,,,,,,,,,,,,,,,,,,,,,,,,,,,,,,,,,,,,,,,,,,,,,,,,,,,,,,,,,,
1702629744,69,0,4405.897461,4526.025879,4331.794922,4347.820313,4293.974121,4645.256348,4301.025879,4253.974121,4310.128418,4257.820313,4602.820313,4490.641113,4358.333496,4797.563965,5352,4,85,,,,0,4,4,4,4,4,4,4,4,4,4,4,4,4,4,100,,,,,,,,,,,,,,,,,,,,,,,,,,,,,,,,,,,,,,,,,,,,,,,,,,,,,,,,,,,,,,,,,,,,,,,,,,,,,,,,,,,,,,,,,,,,,,,,,,,,,,,,,,,,,,,,,,,,,,,,,,,,,,,,,,,,,,
1702629744,70,0,4391.538574,4524.102539,4332.692383,4341.538574,4295.641113,4591.794922,4300.641113,4259.871582,4313.974121,4267.692383,4599.743652,4495.128418,4358.461426,4806.410156,5128,4,85,,,,0,4,4,4,4,4,4,4,4,4,4,4,4,4,4,100,,,,,,,,,,,,,,,,,,,,,,,,,,,,,,,,,,,,,,,,,,,,,,,,,,,,,,,,,,,,,,,,,,,,,,,,,,,,,,,,,,,,,,,,,,,,,,,,,,,,,,,,,,,,,,,,,,,,,,,,,,,,,,,,,,,,,,
1702629744,71,0,4372.692383,4517.692383,4316.922852,4327.692383,4297.05127,4516.025879,4295.512695,4251.025879,4307.05127,4253.461426,4579.102539,4481.538574,4345.769043,4799.871582,5345,4,85,,,,0,4,4,4,4,4,4,4,4,4,4,4,4,4,4,100,,,,,,,,,,,,,,,,,,,,,,,,,,,,,,,,,,,,,,,,,,,,,,,,,,,,,,,,,,,,,,,,,,,,,,,,,,,,,,,,,,,,,,,,,,,,,,,,,,,,,,,,,,,,,,,,,,,,,,,,,,,,,,,,,,,,,,
1702629744,72,0,4350.641113,4504.102539,4304.743652,4313.589844,4292.179688,4467.94873,4293.205078,4251.282227,4310.769043,4249.615234,4565.641113,4471.153809,4331.153809,4796.666504,5402,4,85,,,,0,4,4,4,4,4,4,4,4,4,4,4,4,4,4,100,,,,,,,,,,,,,,,,,18,0,0.493653,-0.635376,-0.333191,-0.491516,0.95373,-0.283726,-0.028812,-13.958972,-4.941949,83.857788,,,,,,,,,,,,,,,,,,,,,,,,,,,,,,,,,,,,,,,,,,,,,,,,,,,,,,,,,,,,,,,,,,,,,,,,,,,,,,,,,,,,,,,,,,,,,,,,,,,,,,,,,,
1702629744,73,0,4332.179688,4493.205078,4300,4306.538574,4286.282227,4453.717773,4295.128418,4255.512695,4315,4259.871582,4559.230957,4467.05127,4320.384766,4807.05127,5337,4,85,,,,0,4,4,4,4,4,4,4,4,4,4,4,4,4,4,100,,,,,,,,,,,,,,,,,,,,,,,,,,,,,,,,,,,,,,,,,,,,,,,,,,,,,,,,,,,,,,,,,,,,,,,,,,,,,,,,,,,,,,,,,,,,,,,,,,,,,,,,,,,,,,,,,,,,,,,,,,,,,,,,,,,,,,
1702629744,74,0,4322.05127,4487.307617,4290.256348,4299.358887,4281.153809,4439.487305,4293.846191,4249.230957,4312.563965,4261.153809,4545.128418,4455,4312.179688,4814.230957,6035,4,85,,,,0,4,4,4,4,4,4,4,4,4,4,4,4,4,4,100,,,,,,,,,,,,,,,,,,,,,,,,,,,,,,,,,,,,,,,,,,,,,,,,,,,,,,,,,,,,,,,,,,,,,,,,,,,,,,,,,,,,,,,,,,,,,,,,,,,,,,,,,,,,,,,,,,,,,,,,,,,,,,,,,,,,,,
1702629744,75,0,4313.846191,4480.769043,4279.102539,4293.717773,4280.128418,4412.05127,4293.333496,4244.871582,4316.922852,4257.94873,4533.717773,4443.846191,4304.358887,4808.589844,6279,4,85,,,,0,4,4,4,4,4,4,4,4,4,4,4,4,4,4,100,,,,,,,,,,,,,,,,,,,,,,,,,,,,,,,,,,,,,,,,,,,,,,,,,,,,,,,,,,,,,,,,,,,,,,,,,,,,,,,,,,,,,,,,,,,,,,,,,,,,,,,,,,,,,,,,,,,,,,,,,,,,,,,,,,,,,,
1702629744,76,0,4307.820313,4472.94873,4274.230957,4293.461426,4288.717773,4388.077148,4296.410156,4247.179688,4321.410156,4255.256348,4536.666504,4443.333496,4296.282227,4809.871582,6848,4,85,,,,0,4,4,4,4,4,4,4,4,4,4,4,4,4,4,100,,,,,,,,,,,,,,,,,19,0,0.493494,-0.635315,-0.332642,-0.492126,0.946405,-0.271518,-0.022464,-13.863075,-5.014421,83.822006,,,,,,,,,,,,,,,,,,,,,,,,,,,,,,,,,,,,,,,,,,,,,,,,,,,,,,,,,,,,,,,,,,,,,,,,,,,,,,,,,,,,,,,,,,,,,,,,,,,,,,,,,,
1702629744,77,0,4307.05127,4466.410156,4276.538574,4296.410156,4297.307617,4381.153809,4296.538574,4245.769043,4319.743652,4252.563965,4539.230957,4441.410156,4293.717773,4829.615234,7309,4,85,,,,0,4,4,4,4,4,4,4,4,4,4,4,4,4,4,100,,,,,,,,,,,,,,,,,,,,,,,,,,,,,,,,,,,,,,,,,,,,,,,,,,,,,,,,,,,,,,,,,,,,,,,,,,,,,,,,,,,,,,,,,,,,,,,,,,,,,,,,,,,,,,,,,,,,,,,,,,,,,,,,,,,,,,
1702629744,78,0,4301.282227,4458.333496,4279.230957,4298.205078,4296.666504,4392.05127,4295.256348,4244.102539,4318.333496,4254.871582,4530.512695,4434.102539,4295.512695,4859.230957,6035,4,85,,,,0,4,4,4,4,4,4,4,4,4,4,4,4,4,4,100,,,,,,,,,,,,,,,,,,,,,,,,,,,,,,,,,,,,,,,,,,,,,,,,,,,,,,,,,,,,,,,,,,,,,,,,,,,,,,,,,,,,,,,,,,,,,,,,,,,,,,,,,,,,,,,,,,,,,,,,,,,,,,,,,,,,,,
1702629744,79,0,4292.820313,4444.615234,4279.102539,4299.358887,4291.922852,4398.461426,4295,4242.94873,4315.128418,4254.358887,4522.05127,4429.615234,4293.333496,4887.94873,6279,4,85,,,,0,4,4,4,4,4,4,4,4,4,4,4,4,4,4,100,,,,,,,,,,,,,,,,,,,,,,,,,,,,,,,,,,,,,,,,,,,,,,,,,,,,,,,,,,,,,,,,,,,,,,,,,,,,,,,,,,,,,,,,,,,,,,,,,,,,,,,,,,,,,,,,,,,,,,,,,,,,,,,,,,,,,,
1702629744,80,0,4293.974121,4431.666504,4278.589844,4301.666504,4294.743652,4368.333496,4297.179688,4242.179688,4310.641113,4249.487305,4522.692383,4435.384766,4291.410156,4915.256348,6848,4,85,,,,0,4,4,4,4,4,4,4,4,4,4,4,4,4,4,100,,,,,,,,,,,,,,,,,20,0,0.493734,-0.635132,-0.332092,-0.492493,0.946893,-0.278843,-0.020022,-13.910101,-5.129645,83.989807,,,,,,,,,,,,,,,,,,,,,,,,,,,,,,,,,,,,,,,,,,,,,,,,,,,,,,,,,,,,,,,,,,,,,,,,,,,,,,,,,,,,,,,,,,,,,,,,,,,,,,,,,,
1702629744,81,0,4294.358887,4423.077148,4278.589844,4302.820313,4305.641113,4305.641113,4297.820313,4244.230957,4310.384766,4249.487305,4520.256348,4439.871582,4293.333496,4945,7309,4,85,,,,0,4,4,4,4,4,4,4,4,4,4,4,4,4,4,100,1,8.333333,4,1,4,3,4,0,4,4,3,4,1,4,3,0,,,,,,,,,,,,,,,,,,,,,,,,,,,,,,,,,,,,,,,,,,,,,,,,,6.372997,1.01192,1.740653,0.383756,0.210304,5.319555,1.265461,0.99072,0.379352,0.153501,2.250604,0.962823,0.81199,0.183836,0.168685,1.999979,0.643917,0.524863,0.243641,0.142051,0.710086,0.408241,0.21041,0.282751,0.179661,476.814667,72.554474,14.826468,4.42683,1.864548,0.623244,0.211197,0.106795,0.122932,0.090716,2.25891,2.131196,0.390667,0.211394,0.127896,2.125659,1.466889,0.167983,0.248531,0.156719,3.060363,1.104533,0.41677,0.261797,0.187153,13.887308,3.039233,0.993344,0.542899,0.211044,5.173584,1.464143,0.811964,0.329618,0.178362,17.769445,2.206628,1.478006,0.589468,0.364745,55.0905,14.237458,5.264445,2.994133,0.744572
1702629744,82,0,4287.692383,4416.025879,4277.94873,4299.358887,4307.179688,4251.538574,4296.538574,4243.589844,4310.256348,4246.666504,4510.512695,4434.230957,4293.333496,4955.512695,6035,4,85,,,,0,4,4,4,4,4,4,4,4,4,4,4,4,4,4,100,,,,,,,,,,,,,,,,,,,,,,,,,,,,,,,,,,,,,,,,,,,,,,,,,,,,,,,,,,,,,,,,,,,,,,,,,,,,,,,,,,,,,,,,,,,,,,,,,,,,,,,,,,,,,,,,,,,,,,,,,,,,,,,,,,,,,,
1702629744,83,0,4286.025879,4406.410156,4275.256348,4294.102539,4299.487305,4217.563965,4293.974121,4242.179688,4311.025879,4246.794922,4505.897461,4433.333496,4292.179688,4943.077148,6279,4,85,,,,0,4,4,4,4,4,4,4,4,4,4,4,4,4,4,100,,,,,,,,,,,,,,,,,,,,,,,,,,,,,,,,,,,,,,,,,,,,,,,,,,,,,,,,,,,,,,,,,,,,,,,,,,,,,,,,,,,,,,,,,,,,,,,,,,,,,,,,,,,,,,,,,,,,,,,,,,,,,,,,,,,,,,
1702629744,84,0,4290.384766,4398.461426,4274.487305,4295.384766,4296.666504,4186.538574,4293.846191,4245.769043,4320.128418,4259.230957,4508.205078,4443.205078,4294.230957,4939.102539,6848,4,85,,,,0,4,4,4,4,4,4,4,4,4,4,4,4,4,4,100,,,,,,,,,,,,,,,,,21,0,0.493753,-0.63501,-0.331482,-0.493042,0.938103,-0.287144,-0.025882,-13.935758,-5.083348,84.040825,,,,,,,,,,,,,,,,,,,,,,,,,,,,,,,,,,,,,,,,,,,,,,,,,,,,,,,,,,,,,,,,,,,,,,,,,,,,,,,,,,,,,,,,,,,,,,,,,,,,,,,,,,
1702629744,85,0,4290.641113,4395.897461,4278.461426,4293.205078,4299.487305,4156.794922,4300.256348,4249.615234,4328.077148,4266.025879,4506.538574,4447.05127,4297.05127,4959.230957,7309,4,85,,,,0,4,4,4,4,4,4,4,4,4,4,4,4,4,4,100,,,,,,,,,,,,,,,,,,,,,,,,,,,,,,,,,,,,,,,,,,,,,,,,,,,,,,,,,,,,,,,,,,,,,,,,,,,,,,,,,,,,,,,,,,,,,,,,,,,,,,,,,,,,,,,,,,,,,,,,,,,,,,,,,,,,,,
1702629744,86,0,4284.230957,4393.461426,4275.641113,4284.102539,4297.436035,4133.333496,4302.820313,4250.256348,4326.538574,4260.384766,4498.974121,4438.333496,4297.307617,4976.922852,6035,4,85,,,,0,4,4,4,4,4,4,4,4,4,4,4,4,4,4,100,,,,,,,,,,,,,,,,,,,,,,,,,,,,,,,,,,,,,,,,,,,,,,,,,,,,,,,,,,,,,,,,,,,,,,,,,,,,,,,,,,,,,,,,,,,,,,,,,,,,,,,,,,,,,,,,,,,,,,,,,,,,,,,,,,,,,,
1702629744,87,0,4277.563965,4395.512695,4265.128418,4278.846191,4296.410156,4111.153809,4298.461426,4251.410156,4326.538574,4259.615234,4492.436035,4431.666504,4295,4970.897461,6279,4,85,,,,0,4,4,4,4,4,4,4,4,4,4,4,4,4,4,100,,,,,,,,,,,,,,,,,,,,,,,,,,,,,,,,,,,,,,,,,,,,,,,,,,,,,,,,,,,,,,,,,,,,,,,,,,,,,,,,,,,,,,,,,,,,,,,,,,,,,,,,,,,,,,,,,,,,,,,,,,,,,,,,,,,,,,
1702629744,88,0,4276.025879,4394.871582,4260.384766,4279.871582,4297.692383,4061.025635,4295.512695,4249.743652,4326.410156,4256.282227,4488.589844,4429.102539,4293.461426,4960.897461,6848,4,85,,,,0,4,4,4,4,4,4,4,4,4,4,4,4,4,4,100,,,,,,,,,,,,,,,,,22,0,0.49373,-0.634888,-0.33075,-0.493713,0.942498,-0.278354,-0.015139,-13.908849,-4.99168,84.00341,,,,,,,,,,,,,,,,,,,,,,,,,,,,,,,,,,,,,,,,,,,,,,,,,,,,,,,,,,,,,,,,,,,,,,,,,,,,,,,,,,,,,,,,,,,,,,,,,,,,,,,,,,
1702629744,89,0,4281.538574,4385.384766,4262.05127,4281.666504,4292.94873,3980.769287,4294.358887,4247.820313,4319.743652,4247.436035,4489.615234,4428.333496,4303.077148,4968.974121,7309,4,85,,,,0,4,4,4,4,4,4,4,4,4,4,4,4,4,4,100,,,,,,,,,,,,,,,,,,,,,,,,,,,,,,,,,,,,,,,,,,,,,,,,,,,,,,,,,,,,,,,,,,,,,,,,,,,,,,,,,,,,,,,,,,,,,,,,,,,,,,,,,,,,,,,,,,,,,,,,,,,,,,,,,,,,,,
1702629744,90,0,4279.102539,4380.256348,4265.512695,4280.128418,4291.794922,3917.307617,4289.615234,4246.153809,4316.282227,4245.897461,4491.153809,4426.410156,4312.563965,4985.769043,6035,4,85,,,,0,4,4,4,4,4,4,4,4,4,4,4,4,4,4,100,,,,,,,,,,,,,,,,,,,,,,,,,,,,,,,,,,,,,,,,,,,,,,,,,,,,,,,,,,,,,,,,,,,,,,,,,,,,,,,,,,,,,,,,,,,,,,,,,,,,,,,,,,,,,,,,,,,,,,,,,,,,,,,,,,,,,,
1702629744,91,0,4267.692383,4379.358887,4262.94873,4278.077148,4292.94873,3882.94873,4284.230957,4239.230957,4316.794922,4246.794922,4483.974121,4418.846191,4302.692383,4980.128418,6279,4,85,,,,0,4,4,4,4,4,4,4,4,4,4,4,4,4,4,100,,,,,,,,,,,,,,,,,,,,,,,,,,,,,,,,,,,,,,,,,,,,,,,,,,,,,,,,,,,,,,,,,,,,,,,,,,,,,,,,,,,,,,,,,,,,,,,,,,,,,,,,,,,,,,,,,,,,,,,,,,,,,,,,,,,,,,
1702629744,92,0,4267.179688,4375.256348,4254.358887,4277.05127,4289.102539,3866.281982,4279.230957,4232.179688,4312.94873,4244.615234,4478.846191,4410.641113,4296.282227,4959.487305,6848,4,85,,,,0,4,4,4,4,4,4,4,4,4,4,4,4,4,4,100,,,,,,,,,,,,,,,,,23,0,0.493612,-0.634949,-0.330078,-0.494202,0.957148,-0.284214,-0.025882,-13.767963,-4.875845,83.936401,,,,,,,,,,,,,,,,,,,,,,,,,,,,,,,,,,,,,,,,,,,,,,,,,,,,,,,,,,,,,,,,,,,,,,,,,,,,,,,,,,,,,,,,,,,,,,,,,,,,,,,,,,
1702629744,93,0,4278.205078,4376.025879,4252.692383,4279.743652,4288.333496,3887.179443,4278.205078,4230.641113,4315.256348,4247.179688,4488.077148,4410.769043,4313.589844,4975.384766,7309,4,85,,,,0,4,4,4,4,4,4,4,4,4,4,4,4,4,4,100,,,,,,,,,,,,,,,,,,,,,,,,,,,,,,,,,,,,,,,,,,,,,,,,,,,,,,,,,,,,,,,,,,,,,,,,,,,,,,,,,,,,,,,,,,,,,,,,,,,,,,,,,,,,,,,,,,,,,,,,,,,,,,,,,,,,,,
1702629744,94,0,4287.820313,4382.179688,4263.974121,4289.358887,4291.282227,3935.256348,4288.333496,4234.743652,4325.512695,4251.025879,4495.641113,4419.358887,4330.384766,5026.153809,6035,4,85,,,,0,4,4,4,4,4,4,4,4,4,4,4,4,4,4,100,,,,,,,,,,,,,,,,,,,,,,,,,,,,,,,,,,,,,,,,,,,,,,,,,,,,,,,,,,,,,,,,,,,,,,,,,,,,,,,,,,,,,,,,,,,,,,,,,,,,,,,,,,,,,,,,,,,,,,,,,,,,,,,,,,,,,,
1702629744,95,0,4294.615234,4379.871582,4278.974121,4301.922852,4292.563965,3977.05127,4296.282227,4240.384766,4329.871582,4250.769043,4492.05127,4427.179688,4336.025879,5065.641113,6279,4,85,,,,0,4,4,4,4,4,4,4,4,4,4,4,4,4,4,100,,,,,,,,,,,,,,,,,,,,,,,,,,,,,,,,,,,,,,,,,,,,,,,,,,,,,,,,,,,,,,,,,,,,,,,,,,,,,,,,,,,,,,,,,,,,,,,,,,,,,,,,,,,,,,,,,,,,,,,,,,,,,,,,,,,,,,
1702629744,96,0,4297.563965,4373.205078,4279.743652,4302.94873,4293.717773,4029.358887,4294.230957,4239.358887,4330.128418,4250.897461,4493.974121,4428.717773,4340.384766,5087.563965,6848,4,85,,,,0,4,4,4,4,4,4,4,4,4,4,4,4,4,4,100,,,,,,,,,,,,,,,,,24,0,0.493572,-0.634949,-0.32959,-0.494568,0.95373,-0.274448,-0.01465,-13.974501,-4.971594,83.826096,,,,,,,,,,,,,,,,,,,,,,,,,,,,,,,,,,,,,,,,,,,,,,,,,,,,,,,,,,,,,,,,,,,,,,,,,,,,,,,,,,,,,,,,,,,,,,,,,,,,,,,,,,
1702629744,97,0,4298.077148,4368.717773,4266.410156,4297.05127,4296.153809,4093.846191,4289.871582,4231.666504,4329.615234,4248.205078,4497.563965,4426.538574,4344.102539,5109.743652,7309,4,85,,,,0,4,4,4,4,4,4,4,4,4,4,4,4,4,4,100,,,,,,,,,,,,,,,,,,,,,,,,,,,,,,,,,,,,,,,,,,,,,,,,,,,,,,,,,,,,,,,,,13.661824,1.205261,1.515993,0.366178,0.211786,4.837067,1.378864,0.856327,0.355629,0.166917,3.299622,1.131464,0.769275,0.187521,0.183615,3.002403,0.644503,0.468146,0.19088,0.144334,0.710219,0.426137,0.209914,0.268145,0.168776,440.710815,75.923782,16.714622,5.637346,1.898042,0.578341,0.244744,0.108387,0.124721,0.095045,2.526213,2.37156,0.379142,0.224587,0.138291,2.331825,1.601225,0.169948,0.248191,0.161356,3.411929,1.21549,0.398498,0.246947,0.18462,13.584413,2.536077,0.935739,0.542138,0.2251,6.705768,1.789186,0.856417,0.299238,0.189769,25.755924,2.559513,1.569539,0.607664,0.370051,89.941429,22.998116,6.67236,3.480911,0.867378
1702629744,98,0,4307.692383,4360.897461,4263.846191,4297.436035,4292.307617,4143.461426,4287.94873,4230.256348,4325.897461,4245.641113,4494.615234,4425.769043,4354.102539,5122.94873,6035,4,85,,,,0,4,4,4,4,4,4,4,4,4,4,4,4,4,4,100,,,,,,,,,,,,,,,,,,,,,,,,,,,,,,,,,,,,,,,,,,,,,,,,,,,,,,,,,,,,,,,,,,,,,,,,,,,,,,,,,,,,,,,,,,,,,,,,,,,,,,,,,,,,,,,,,,,,,,,,,,,,,,,,,,,,,,
1702629744,99,0,4316.538574,4352.692383,4274.487305,4295.897461,4287.820313,4184.871582,4288.461426,4232.563965,4326.282227,4246.666504,4498.461426,4426.922852,4374.358887,5125,6279,4,85,,,,0,4,4,4,4,4,4,4,4,4,4,4,4,4,4,100,,,,,,,,,,,,,,,,,,,,,,,,,,,,,,,,,,,,,,,,,,,,,,,,,,,,,,,,,,,,,,,,,,,,,,,,,,,,,,,,,,,,,,,,,,,,,,,,,,,,,,,,,,,,,,,,,,,,,,,,,,,,,,,,,,,,,,
1702629744,100,0,4325.384766,4353.077148,4280.512695,4298.077148,4290.256348,4228.205078,4287.05127,4225.769043,4325.512695,4241.153809,4505.128418,4428.717773,4392.563965,5135,6848,4,85,,,,0,4,4,4,4,4,4,4,4,4,4,4,4,4,4,100,,,,,,,,,,,,,,,,,25,0,0.493694,-0.634949,-0.329224,-0.49469,0.947381,-0.289098,-0.020022,-14.093718,-5.091101,83.793488,,,,,,,,,,,,,,,,,,,,,,,,,,,,,,,,,,,,,,,,,,,,,,,,,,,,,,,,,,,,,,,,,,,,,,,,,,,,,,,,,,,,,,,,,,,,,,,,,,,,,,,,,,
1702629744,101,0,4347.436035,4360.384766,4284.743652,4314.871582,4291.282227,4266.922852,4282.94873,4218.333496,4315.384766,4232.179688,4504.871582,4429.230957,4405.769043,5140.256348,7309,4,85,,,,0,4,4,4,4,4,4,4,4,4,4,4,4,4,4,100,,,,,,,,,,,,,,,,,,,,,,,,,,,,,,,,,,,,,,,,,,,,,,,,,,,,,,,,,,,,,,,,,,,,,,,,,,,,,,,,,,,,,,,,,,,,,,,,,,,,,,,,,,,,,,,,,,,,,,,,,,,,,,,,,,,,,,
1702629744,102,0,4372.94873,4368.333496,4295.384766,4332.436035,4295.512695,4314.102539,4281.794922,4217.563965,4309.230957,4231.538574,4501.922852,4432.436035,4420.384766,5123.333496,6035,4,85,,,,0,4,4,4,4,4,4,4,4,4,4,4,4,4,4,100,,,,,,,,,,,,,,,,,,,,,,,,,,,,,,,,,,,,,,,,,,,,,,,,,,,,,,,,,,,,,,,,,,,,,,,,,,,,,,,,,,,,,,,,,,,,,,,,,,,,,,,,,,,,,,,,,,,,,,,,,,,,,,,,,,,,,,
1702629744,103,0,4398.077148,4376.025879,4305.256348,4343.589844,4304.871582,4379.615234,4283.717773,4218.205078,4310.128418,4228.717773,4497.436035,4440.897461,4436.410156,5116.282227,6279,4,85,,,,0,4,4,4,4,4,4,4,4,4,4,4,4,4,4,100,,,,,,,,,,,,,,,,,,,,,,,,,,,,,,,,,,,,,,,,,,,,,,,,,,,,,,,,,,,,,,,,,,,,,,,,,,,,,,,,,,,,,,,,,,,,,,,,,,,,,,,,,,,,,,,,,,,,,,,,,,,,,,,,,,,,,,
1702629744,104,0,4421.922852,4387.179688,4312.179688,4361.282227,4312.436035,4442.563965,4283.205078,4218.717773,4309.615234,4218.717773,4489.743652,4445.769043,4439.358887,5138.333496,6848,4,85,,,,0,4,4,4,4,4,4,4,4,4,4,4,4,4,4,100,,,,,,,,,,,,,,,,,26,0,0.49379,-0.634827,-0.329041,-0.494873,0.947381,-0.286168,-0.021487,-14.217679,-5.165324,83.81414,,,,,,,,,,,,,,,,,,,,,,,,,,,,,,,,,,,,,,,,,,,,,,,,,,,,,,,,,,,,,,,,,,,,,,,,,,,,,,,,,,,,,,,,,,,,,,,,,,,,,,,,,,
1702629744,105,0,4434.358887,4395.256348,4316.794922,4377.05127,4319.102539,4492.436035,4282.563965,4217.307617,4309.615234,4215.641113,4484.102539,4445.512695,4435.897461,5151.922852,7309,4,85,,,,0,4,4,4,4,4,4,4,4,4,4,4,4,4,4,100,,,,,,,,,,,,,,,,,,,,,,,,,,,,,,,,,,,,,,,,,,,,,,,,,,,,,,,,,,,,,,,,,,,,,,,,,,,,,,,,,,,,,,,,,,,,,,,,,,,,,,,,,,,,,,,,,,,,,,,,,,,,,,,,,,,,,,
1702629745,106,0,4435.641113,4393.333496,4315.128418,4375.128418,4324.743652,4531.410156,4281.410156,4215.128418,4308.205078,4220.384766,4483.846191,4443.205078,4443.077148,5140.128418,6035,4,85,,,,0,4,4,4,4,4,4,4,4,4,4,4,4,4,4,100,,,,,,,,,,,,,,,,,,,,,,,,,,,,,,,,,,,,,,,,,,,,,,,,,,,,,,,,,,,,,,,,,,,,,,,,,,,,,,,,,,,,,,,,,,,,,,,,,,,,,,,,,,,,,,,,,,,,,,,,,,,,,,,,,,,,,,
1702629745,107,0,4427.820313,4388.974121,4312.436035,4365.641113,4323.717773,4550.256348,4279.358887,4215,4306.282227,4223.205078,4477.307617,4435.769043,4441.025879,5130.897461,6279,4,85,,,,0,4,4,4,4,4,4,4,4,4,4,4,4,4,4,100,,,,,,,,,,,,,,,,,,,,,,,,,,,,,,,,,,,,,,,,,,,,,,,,,,,,,,,,,,,,,,,,,,,,,,,,,,,,,,,,,,,,,,,,,,,,,,,,,,,,,,,,,,,,,,,,,,,,,,,,,,,,,,,,,,,,,,
1702629745,108,0,4416.410156,4390.897461,4313.589844,4358.589844,4326.538574,4565,4280.384766,4215.897461,4308.717773,4225.384766,4472.307617,4426.922852,4429.358887,5134.102539,6848,4,85,,,,0,4,4,4,4,4,4,4,4,4,4,4,4,4,4,100,,,,,,,,,,,,,,,,,27,0,0.493722,-0.634705,-0.329102,-0.495056,0.941033,-0.282261,-0.020999,-13.995911,-5.198792,83.882721,,,,,,,,,,,,,,,,,,,,,,,,,,,,,,,,,,,,,,,,,,,,,,,,,,,,,,,,,,,,,,,,,,,,,,,,,,,,,,,,,,,,,,,,,,,,,,,,,,,,,,,,,,
1702629745,109,0,4414.743652,4389.871582,4310.769043,4353.717773,4329.358887,4563.077148,4282.820313,4216.922852,4311.538574,4231.794922,4480,4428.589844,4442.05127,5138.333496,7309,4,85,,,,0,4,4,4,4,4,4,4,4,4,4,4,4,4,4,100,,,,,,,,,,,,,,,,,,,,,,,,,,,,,,,,,,,,,,,,,,,,,,,,,,,,,,,,,,,,,,,,,,,,,,,,,,,,,,,,,,,,,,,,,,,,,,,,,,,,,,,,,,,,,,,,,,,,,,,,,,,,,,,,,,,,,,
1702629745,110,0,4411.153809,4375.512695,4302.692383,4336.282227,4314.487305,4484.615234,4282.05127,4217.179688,4312.179688,4231.410156,4478.974121,4428.846191,4468.077148,5134.102539,6035,4,85,,,,0,4,4,4,4,4,4,4,4,4,4,4,4,4,4,100,,,,,,,,,,,,,,,,,,,,,,,,,,,,,,,,,,,,,,,,,,,,,,,,,,,,,,,,,,,,,,,,,,,,,,,,,,,,,,,,,,,,,,,,,,,,,,,,,,,,,,,,,,,,,,,,,,,,,,,,,,,,,,,,,,,,,,
1702629745,111,0,4391.153809,4360.128418,4294.615234,4309.102539,4310,4378.846191,4280.769043,4218.589844,4312.820313,4226.025879,4463.974121,4417.179688,4478.589844,5120.769043,6279,4,85,,,,0,4,4,4,4,4,4,4,4,4,4,4,4,4,4,100,,,,,,,,,,,,,,,,,,,,,,,,,,,,,,,,,,,,,,,,,,,,,,,,,,,,,,,,,,,,,,,,,,,,,,,,,,,,,,,,,,,,,,,,,,,,,,,,,,,,,,,,,,,,,,,,,,,,,,,,,,,,,,,,,,,,,,
1702629745,112,0,4369.102539,4348.077148,4281.153809,4295.256348,4321.282227,4344.487305,4276.666504,4217.307617,4305.512695,4217.05127,4452.436035,4403.205078,4481.538574,5106.025879,6848,4,85,,,,0,4,4,4,4,4,4,4,4,4,4,4,4,4,4,100,,,,,,,,,,,,,,,,,28,0,0.493727,-0.634399,-0.329041,-0.495483,0.946893,-0.287144,-0.02051,-14.012986,-5.395579,83.744453,,,,,,,,,,,,,,,,,,,,,,,,,,,,,,,,,,,,,,,,,,,,,,,,,,,,,,,,,,,,,,,,,,,,,,,,,,,,,,,,,,,,,,,,,,,,,,,,,,,,,,,,,,
1702629745,113,0,4357.179688,4326.153809,4264.230957,4288.333496,4306.794922,4352.436035,4268.333496,4207.94873,4292.820313,4204.743652,4442.307617,4393.589844,4474.743652,5086.282227,7309,4,85,,,,0,4,4,4,4,4,4,4,4,4,4,4,4,4,4,100,,,,,,,,,,,,,,,,,,,,,,,,,,,,,,,,,,,,,,,,,,,,,,,,,,,,,,,,,,,,,,,,,24.776562,1.558974,1.221959,0.336841,0.212886,5.755303,1.611182,0.672153,0.331527,0.18064,5.043512,1.324886,0.705846,0.190989,0.196938,4.915976,0.802904,0.407907,0.162839,0.153133,0.955736,0.430556,0.202355,0.252806,0.1624,432.501923,75.97699,20.560804,7.071299,1.778447,0.608255,0.278193,0.106582,0.117844,0.100784,2.678218,2.553509,0.360896,0.244366,0.14583,2.450297,1.675002,0.168254,0.248321,0.16271,3.572753,1.308361,0.365929,0.234483,0.178311,13.567835,2.109773,0.861464,0.545902,0.231162,8.586947,2.251196,0.867892,0.286941,0.198937,35.587734,2.72064,1.510252,0.597986,0.348416,136.739517,34.495941,7.995897,4.007113,0.963053
1702629745,114,0,4353.077148,4309.615234,4266.153809,4278.205078,4292.563965,4344.487305,4265,4200.769043,4293.974121,4208.589844,4431.666504,4393.333496,4461.922852,5069.230957,6035,4,85,,,,0,4,4,4,4,4,4,4,4,4,4,4,4,4,4,100,,,,,,,,,,,,,,,,,,,,,,,,,,,,,,,,,,,,,,,,,,,,,,,,,,,,,,,,,,,,,,,,,,,,,,,,,,,,,,,,,,,,,,,,,,,,,,,,,,,,,,,,,,,,,,,,,,,,,,,,,,,,,,,,,,,,,,
1702629745,115,0,4346.410156,4312.692383,4275.256348,4276.666504,4307.436035,4327.179688,4266.410156,4203.589844,4298.589844,4224.230957,4429.102539,4394.102539,4459.102539,5069.102539,6279,4,85,,,,0,4,4,4,4,4,4,4,4,4,4,4,4,4,4,100,,,,,,,,,,,,,,,,,,,,,,,,,,,,,,,,,,,,,,,,,,,,,,,,,,,,,,,,,,,,,,,,,,,,,,,,,,,,,,,,,,,,,,,,,,,,,,,,,,,,,,,,,,,,,,,,,,,,,,,,,,,,,,,,,,,,,,
1702629745,116,0,4336.666504,4311.410156,4267.05127,4277.307617,4309.615234,4309.871582,4263.974121,4200.384766,4288.333496,4224.358887,4425.128418,4389.102539,4449.615234,5069.102539,6848,4,85,,,,0,4,4,4,4,4,4,4,4,4,4,4,4,4,4,100,,,,,,,,,,,,,,,,,29,0,0.493856,-0.634155,-0.328857,-0.495789,0.941521,-0.287144,-0.016115,-13.961688,-5.539355,83.886673,,,,,,,,,,,,,,,,,,,,,,,,,,,,,,,,,,,,,,,,,,,,,,,,,,,,,,,,,,,,,,,,,,,,,,,,,,,,,,,,,,,,,,,,,,,,,,,,,,,,,,,,,,
1702629745,117,0,4324.871582,4296.282227,4255.641113,4268.333496,4293.846191,4301.794922,4258.717773,4186.538574,4276.153809,4213.846191,4411.025879,4379.487305,4427.436035,5061.538574,7309,4,85,,,,0,4,4,4,4,4,4,4,4,4,4,4,4,4,4,100,,,,,,,,,,,,,,,,,,,,,,,,,,,,,,,,,,,,,,,,,,,,,,,,,,,,,,,,,,,,,,,,,,,,,,,,,,,,,,,,,,,,,,,,,,,,,,,,,,,,,,,,,,,,,,,,,,,,,,,,,,,,,,,,,,,,,,
1702629745,118,0,4313.205078,4286.666504,4255.641113,4263.205078,4294.358887,4297.436035,4257.307617,4182.563965,4276.025879,4212.563965,4400.769043,4371.410156,4416.153809,5066.538574,6035,4,85,,,,0,4,4,4,4,4,4,4,4,4,4,4,4,4,4,100,,,,,,,,,,,,,,,,,,,,,,,,,,,,,,,,,,,,,,,,,,,,,,,,,,,,,,,,,,,,,,,,,,,,,,,,,,,,,,,,,,,,,,,,,,,,,,,,,,,,,,,,,,,,,,,,,,,,,,,,,,,,,,,,,,,,,,
1702629745,119,0,4312.820313,4278.461426,4261.025879,4265.897461,4294.615234,4268.846191,4260.384766,4190.897461,4285.128418,4217.563965,4401.922852,4376.282227,4413.077148,5083.846191,6279,4,85,,,,0,4,4,4,4,4,4,4,4,4,4,4,4,4,4,100,,,,,,,,,,,,,,,,,,,,,,,,,,,,,,,,,,,,,,,,,,,,,,,,,,,,,,,,,,,,,,,,,,,,,,,,,,,,,,,,,,,,,,,,,,,,,,,,,,,,,,,,,,,,,,,,,,,,,,,,,,,,,,,,,,,,,,
1702629745,120,0,4325.384766,4273.333496,4272.436035,4265.128418,4294.487305,4232.436035,4266.538574,4200.769043,4293.461426,4225.769043,4411.025879,4396.922852,4413.461426,5101.922852,6848,4,85,,,,0,4,4,4,4,4,4,4,4,4,4,4,4,4,4,100,,,,,,,,,,,,,,,,,30,0,0.493909,-0.634033,-0.328552,-0.496094,0.943475,-0.287633,-0.017092,-14.048852,-5.518753,83.931335,,,,,,,,,,,,,,,,,,,,,,,,,,,,,,,,,,,,,,,,,,,,,,,,,,,,,,,,,,,,,,,,,,,,,,,,,,,,,,,,,,,,,,,,,,,,,,,,,,,,,,,,,,
1702629745,121,0,4327.05127,4276.666504,4281.410156,4264.358887,4308.461426,4200.384766,4275.897461,4213.205078,4293.717773,4235.641113,4417.820313,4414.871582,4422.307617,5119.358887,7309,4,85,,,,0,4,4,4,4,4,4,4,4,4,4,4,4,4,4,100,,,,,,,,,,,,,,,,,,,,,,,,,,,,,,,,,,,,,,,,,,,,,,,,,,,,,,,,,,,,,,,,,,,,,,,,,,,,,,,,,,,,,,,,,,,,,,,,,,,,,,,,,,,,,,,,,,,,,,,,,,,,,,,,,,,,,,
1702629745,122,0,4318.333496,4268.717773,4282.05127,4267.692383,4307.563965,4149.358887,4288.717773,4226.794922,4298.077148,4239.743652,4415.256348,4415.897461,4423.974121,5139.487305,6035,4,85,,,,0,4,4,4,4,4,4,4,4,4,4,4,4,4,4,100,,,,,,,,,,,,,,,,,,,,,,,,,,,,,,,,,,,,,,,,,,,,,,,,,,,,,,,,,,,,,,,,,,,,,,,,,,,,,,,,,,,,,,,,,,,,,,,,,,,,,,,,,,,,,,,,,,,,,,,,,,,,,,,,,,,,,,
1702629745,123,0,4319.871582,4249.871582,4284.487305,4267.436035,4292.179688,4098.846191,4297.563965,4238.589844,4311.153809,4244.487305,4414.615234,4420.897461,4416.410156,5166.025879,6279,4,85,,,,0,4,4,4,4,4,4,4,4,4,4,4,4,4,4,100,,,,,,,,,,,,,,,,,,,,,,,,,,,,,,,,,,,,,,,,,,,,,,,,,,,,,,,,,,,,,,,,,,,,,,,,,,,,,,,,,,,,,,,,,,,,,,,,,,,,,,,,,,,,,,,,,,,,,,,,,,,,,,,,,,,,,,
1702629745,124,0,4311.922852,4237.436035,4276.410156,4252.436035,4294.615234,4073.461426,4289.102539,4234.615234,4304.487305,4237.820313,4406.410156,4415.897461,4404.230957,5185,6848,4,85,,,,0,4,4,4,4,4,4,4,4,4,4,4,4,4,4,100,,,,,,,,,,,,,,,,,31,0,0.494085,-0.633911,-0.328247,-0.496277,0.963985,-0.270052,-0.017092,-13.9273,-5.516877,83.938202,,,,,,,,,,,,,,,,,,,,,,,,,,,,,,,,,,,,,,,,,,,,,,,,,,,,,,,,,,,,,,,,,,,,,,,,,,,,,,,,,,,,,,,,,,,,,,,,,,,,,,,,,,
1702629745,125,0,4280.641113,4222.436035,4251.025879,4231.922852,4296.794922,4053.076904,4277.179688,4217.563965,4279.230957,4217.05127,4377.179688,4380.897461,4379.358887,5192.307617,7309,4,85,,,,0,4,4,4,4,4,4,4,4,4,4,4,4,4,4,100,,,,,,,,,,,,,,,,,,,,,,,,,,,,,,,,,,,,,,,,,,,,,,,,,,,,,,,,,,,,,,,,,,,,,,,,,,,,,,,,,,,,,,,,,,,,,,,,,,,,,,,,,,,,,,,,,,,,,,,,,,,,,,,,,,,,,,
1702629745,126,0,4261.153809,4200.128418,4233.333496,4223.717773,4281.666504,4024.871826,4271.922852,4209.615234,4274.743652,4209.230957,4351.025879,4359.102539,4356.794922,5221.666504,6035,4,85,,,,0,4,4,4,4,4,4,4,4,4,4,4,4,4,4,100,,,,,,,,,,,,,,,,,,,,,,,,,,,,,,,,,,,,,,,,,,,,,,,,,,,,,,,,,,,,,,,,,,,,,,,,,,,,,,,,,,,,,,,,,,,,,,,,,,,,,,,,,,,,,,,,,,,,,,,,,,,,,,,,,,,,,,
1702629745,127,0,4271.922852,4188.333496,4240.384766,4231.282227,4276.410156,4012.564209,4269.615234,4213.717773,4286.410156,4216.410156,4353.077148,4373.077148,4363.717773,5293.461426,85,4,85,,,,0,4,4,4,4,4,4,4,4,4,4,4,4,4,4,100,,,,,,,,,,,,,,,,,,,,,,,,,,,,,,,,,,,,,,,,,,,,,,,,,,,,,,,,,,,,,,,,,,,,,,,,,,,,,,,,,,,,,,,,,,,,,,,,,,,,,,,,,,,,,,,,,,,,,,,,,,,,,,,,,,,,,,
1702629745,0,0,4282.820313,4186.666504,4255.256348,4241.025879,4289.487305,4030.769287,4273.333496,4220.128418,4293.717773,4226.025879,4365.384766,4388.974121,4380.512695,5387.179688,5684,4,85,,,,0,4,4,4,4,4,4,4,4,4,4,4,4,4,4,100,,,,,,,,,,,,,,,,,0,0,0.494218,-0.633728,-0.328308,-0.496338,0.953241,-0.296423,-0.012209,-14.101237,-5.41519,84.011055,,,,,,,,,,,,,,,,,,,,,,,,,,,,,,,,,,,,,,,,,,,,,,,,,,,,,,,,,,,,,,,,,,,,,,,,,,,,,,,,,,,,,,,,,,,,,,,,,,,,,,,,,,
1702629745,1,0,4279.102539,4178.077148,4258.461426,4246.666504,4298.333496,4045.512939,4280.256348,4226.025879,4302.563965,4242.94873,4368.077148,4390.769043,4379.102539,5481.538574,5609,4,85,,,,0,4,4,4,4,4,4,4,4,4,4,4,4,4,4,100,,,,,,,,,,,,,,,,,,,,,,,,,,,,,,,,,,,,,,,,,,,,,,,,,,,,,,,,,,,,,,,,,37.385262,2.029922,0.955355,0.300954,0.210156,7.865824,1.857074,0.50108,0.310587,0.192551,7.07206,1.49901,0.638146,0.195317,0.207963,7.406393,1.100095,0.358279,0.158992,0.164059,1.377141,0.426811,0.191401,0.243094,0.1637,457.220367,75.183838,26.279181,8.402523,1.5487,0.687035,0.304834,0.109006,0.10577,0.107012,2.687436,2.654727,0.342314,0.259652,0.148456,2.499321,1.702812,0.168854,0.245179,0.161618,3.544174,1.389414,0.319478,0.226664,0.171268,14.092797,1.843087,0.778244,0.540884,0.230301,10.36989,2.758567,0.839752,0.28639,0.206107,44.702198,2.651035,1.332387,0.559441,0.306853,174.600571,46.105579,8.815992,4.330149,0.998592
1702629745,2,0,4285.128418,4169.615234,4258.461426,4254.102539,4296.282227,4042.692383,4279.102539,4233.333496,4311.922852,4262.692383,4373.333496,4401.282227,4382.05127,5579.487305,5399,4,85,,,,0,4,4,4,4,4,4,4,4,4,4,4,4,4,4,100,,,,,,,,,,,,,,,,,,,,,,,,,,,,,,,,,,,,,,,,,,,,,,,,,,,,,,,,,,,,,,,,,,,,,,,,,,,,,,,,,,,,,,,,,,,,,,,,,,,,,,,,,,,,,,,,,,,,,,,,,,,,,,,,,,,,,,
1702629745,3,0,4296.025879,4163.974121,4263.846191,4263.974121,4294.230957,4041.794922,4280.256348,4242.436035,4313.461426,4272.05127,4383.589844,4414.615234,4395.256348,5681.025879,5397,4,85,,,,0,4,4,4,4,4,4,4,4,4,4,4,4,4,4,100,,,,,,,,,,,,,,,,,,,,,,,,,,,,,,,,,,,,,,,,,,,,,,,,,,,,,,,,,,,,,,,,,,,,,,,,,,,,,,,,,,,,,,,,,,,,,,,,,,,,,,,,,,,,,,,,,,,,,,,,,,,,,,,,,,,,,,
1702629745,4,0,4294.230957,4160,4269.230957,4273.589844,4303.717773,3982.820557,4291.794922,4248.846191,4313.333496,4265.384766,4383.974121,4415,4399.615234,5782.94873,5422,4,85,,,,0,4,4,4,4,4,4,4,4,4,4,4,4,4,4,100,,,,,,,,,,,,,,,,,1,0,0.494538,-0.633606,-0.32843,-0.496094,0.936149,-0.287633,-0.01758,-13.991114,-5.440337,83.993279,,,,,,,,,,,,,,,,,,,,,,,,,,,,,,,,,,,,,,,,,,,,,,,,,,,,,,,,,,,,,,,,,,,,,,,,,,,,,,,,,,,,,,,,,,,,,,,,,,,,,,,,,,
1702629745,5,0,4294.102539,4156.410156,4269.102539,4275.256348,4313.077148,3823.846191,4293.589844,4247.692383,4313.846191,4251.153809,4376.153809,4411.922852,4395.384766,5887.05127,5430,4,85,,,,0,4,4,4,4,4,4,4,4,4,4,4,4,4,4,100,,,,,,,,,,,,,,,,,,,,,,,,,,,,,,,,,,,,,,,,,,,,,,,,,,,,,,,,,,,,,,,,,,,,,,,,,,,,,,,,,,,,,,,,,,,,,,,,,,,,,,,,,,,,,,,,,,,,,,,,,,,,,,,,,,,,,,
1702629745,6,0,4305.384766,4154.230957,4274.230957,4276.025879,4310.256348,3652.05127,4289.615234,4247.179688,4311.282227,4243.333496,4370.512695,4415.769043,4401.153809,6011.410156,5128,4,85,,,,0,4,4,4,4,4,4,4,4,4,4,4,4,4,4,100,,,,,,,,,,,,,,,,,,,,,,,,,,,,,,,,,,,,,,,,,,,,,,,,,,,,,,,,,,,,,,,,,,,,,,,,,,,,,,,,,,,,,,,,,,,,,,,,,,,,,,,,,,,,,,,,,,,,,,,,,,,,,,,,,,,,,,
1702629745,7,0,4304.230957,4154.358887,4279.487305,4275,4309.615234,3539.743652,4292.05127,4246.794922,4311.025879,4244.871582,4366.025879,4415.769043,4410.512695,6156.282227,5345,4,85,,,,0,4,4,4,4,4,4,4,4,4,4,4,4,4,4,100,,,,,,,,,,,,,,,,,,,,,,,,,,,,,,,,,,,,,,,,,,,,,,,,,,,,,,,,,,,,,,,,,,,,,,,,,,,,,,,,,,,,,,,,,,,,,,,,,,,,,,,,,,,,,,,,,,,,,,,,,,,,,,,,,,,,,,
1702629745,8,0,4284.743652,4143.589844,4268.846191,4260.897461,4312.179688,3467.94873,4290.897461,4237.563965,4310.384766,4243.077148,4358.974121,4402.563965,4404.102539,6276.538574,5400,4,85,,,,0,4,4,4,4,4,4,4,4,4,4,4,4,4,4,100,,,,,,,,,,,,,,,,,2,0,0.494804,-0.633606,-0.328491,-0.495789,0.951288,-0.280796,-0.019045,-14.042002,-5.279637,83.99395,,,,,,,,,,,,,,,,,,,,,,,,,,,,,,,,,,,,,,,,,,,,,,,,,,,,,,,,,,,,,,,,,,,,,,,,,,,,,,,,,,,,,,,,,,,,,,,,,,,,,,,,,,
1702629745,9,0,4281.666504,4139.102539,4259.102539,4253.589844,4312.563965,3428.974365,4285,4231.153809,4305.128418,4236.410156,4350.897461,4395.256348,4399.487305,6349.743652,5337,4,85,,,,0,4,4,4,4,4,4,4,4,4,4,4,4,4,4,100,,,,,,,,,,,,,,,,,,,,,,,,,,,,,,,,,,,,,,,,,,,,,,,,,,,,,,,,,,,,,,,,,,,,,,,,,,,,,,,,,,,,,,,,,,,,,,,,,,,,,,,,,,,,,,,,,,,,,,,,,,,,,,,,,,,,,,
1702629745,10,0,4303.846191,4148.589844,4266.922852,4266.025879,4310.897461,3433.846191,4281.538574,4233.846191,4304.358887,4232.179688,4343.717773,4400.128418,4409.358887,6411.282227,6020,4,85,,,,0,4,4,4,4,4,4,4,4,4,4,4,4,4,4,100,,,,,,,,,,,,,,,,,,,,,,,,,,,,,,,,,,,,,,,,,,,,,,,,,,,,,,,,,,,,,,,,,,,,,,,,,,,,,,,,,,,,,,,,,,,,,,,,,,,,,,,,,,,,,,,,,,,,,,,,,,,,,,,,,,,,,,
1702629745,11,0,4320.512695,4153.717773,4277.94873,4280.128418,4303.846191,3460.769287,4281.666504,4231.282227,4307.179688,4235.256348,4344.102539,4404.102539,4418.589844,6498.974121,6090,4,85,,,,0,4,4,4,4,4,4,4,4,4,4,4,4,4,4,100,,,,,,,,,,,,,,,,,,,,,,,,,,,,,,,,,,,,,,,,,,,,,,,,,,,,,,,,,,,,,,,,,,,,,,,,,,,,,,,,,,,,,,,,,,,,,,,,,,,,,,,,,,,,,,,,,,,,,,,,,,,,,,,,,,,,,,
1702629745,12,0,4314.358887,4154.487305,4271.794922,4273.461426,4301.153809,3480.384521,4274.102539,4221.025879,4298.846191,4231.538574,4340.641113,4393.974121,4415.384766,6599.230957,6868,4,85,,,,0,4,4,4,4,4,4,4,4,4,4,4,4,4,4,100,,,,,,,,,,,,,,,,,3,0,0.494883,-0.633545,-0.328674,-0.495667,0.955683,-0.271029,-0.023929,-14.037802,-5.31834,83.97789,,,,,,,,,,,,,,,,,,,,,,,,,,,,,,,,,,,,,,,,,,,,,,,,,,,,,,,,,,,,,,,,,,,,,,,,,,,,,,,,,,,,,,,,,,,,,,,,,,,,,,,,,,
1702629745,13,0,4316.025879,4165.641113,4269.230957,4268.589844,4310.256348,3500.897461,4265.256348,4213.974121,4290.512695,4218.717773,4332.436035,4387.692383,4422.436035,6717.692383,7312,4,85,,,,0,4,4,4,4,4,4,4,4,4,4,4,4,4,4,100,,,,,,,,,,,,,,,,,,,,,,,,,,,,,,,,,,,,,,,,,,,,,,,,,,,,,,,,,,,,,,,,,,,,,,,,,,,,,,,,,,,,,,,,,,,,,,,,,,,,,,,,,,,,,,,,,,,,,,,,,,,,,,,,,,,,,,
1702629745,14,0,4338.974121,4179.102539,4281.282227,4284.615234,4317.692383,3553.205078,4265.512695,4214.358887,4297.692383,4223.717773,4338.333496,4404.102539,4446.794922,6882.94873,6020,4,85,,,,0,4,4,4,4,4,4,4,4,4,4,4,4,4,4,100,,,,,,,,,,,,,,,,,,,,,,,,,,,,,,,,,,,,,,,,,,,,,,,,,,,,,,,,,,,,,,,,,,,,,,,,,,,,,,,,,,,,,,,,,,,,,,,,,,,,,,,,,,,,,,,,,,,,,,,,,,,,,,,,,,,,,,
1702629745,15,0,4352.563965,4182.307617,4284.615234,4293.589844,4317.436035,3632.820557,4267.179688,4216.794922,4302.692383,4233.077148,4345,4411.025879,4460.769043,7071.666504,6090,4,85,,,,0,4,4,4,4,4,4,4,4,4,4,4,4,4,4,100,,,,,,,,,,,,,,,,,,,,,,,,,,,,,,,,,,,,,,,,,,,,,,,,,,,,,,,,,,,,,,,,,,,,,,,,,,,,,,,,,,,,,,,,,,,,,,,,,,,,,,,,,,,,,,,,,,,,,,,,,,,,,,,,,,,,,,
1702629745,16,0,4363.461426,4191.666504,4281.153809,4289.743652,4321.538574,3697.05127,4263.333496,4214.743652,4295.897461,4222.820313,4338.974121,4401.025879,4480.384766,7247.307617,0,4,85,,,,0,4,4,4,4,4,4,4,4,4,4,4,4,4,4,100,,,,,,,,,,,,,,,,,4,0,0.495104,-0.633484,-0.329102,-0.495239,0.937614,-0.272006,-0.019045,-14.034021,-5.436506,83.930099,,,,,,,,,,,,,,,,,,,,,,,,,,,,,,,,,,,,,,,,,,,,,,,,,,,,,,,,,,,,,,,,,,,,,,,,,,,,,,,,,,,,,,,,,,,,,,,,,,,,,,,,,,
1702629745,17,0,4395,4202.307617,4289.102539,4301.153809,4320.641113,3734.615479,4259.743652,4212.436035,4292.05127,4220.256348,4337.436035,4408.974121,4522.563965,7402.307617,0,4,85,,,,0,4,4,4,4,4,4,4,4,4,4,4,4,4,4,100,1,8.333333,4,1,4,3,4,0,4,4,3,4,1,4,3,0,,,,,,,,,,,,,,,,,,,,,,,,,,,,,,,,,,,,,,,,,,,,,,,,,48.400799,2.548788,0.799105,0.264717,0.202685,10.75701,2.094904,0.402637,0.292841,0.20004,8.862982,1.639435,0.579943,0.203409,0.217192,9.961674,1.558218,0.333461,0.169455,0.171615,1.930032,0.442152,0.182771,0.238823,0.173185,514.582642,75.08728,33.507835,9.295531,1.288845,0.79301,0.33603,0.124638,0.093972,0.111231,2.56863,2.680512,0.336506,0.259445,0.145733,2.452986,1.719741,0.181809,0.235121,0.159429,3.343509,1.476117,0.266626,0.227408,0.16628,14.884809,1.753631,0.694356,0.512809,0.224983,11.589206,3.191056,0.790167,0.28734,0.211782,50.356934,2.376102,1.143028,0.496559,0.259091,199.932938,54.478706,8.866471,4.268962,0.964002
1702629745,18,0,4422.692383,4203.461426,4306.153809,4322.436035,4317.94873,3774.615479,4260.384766,4212.563965,4296.025879,4232.94873,4343.589844,4428.461426,4554.102539,7516.153809,0,4,85,,,,0,4,4,4,4,4,4,4,4,4,4,4,4,4,4,100,,,,,,,,,,,,,,,,,,,,,,,,,,,,,,,,,,,,,,,,,,,,,,,,,,,,,,,,,,,,,,,,,,,,,,,,,,,,,,,,,,,,,,,,,,,,,,,,,,,,,,,,,,,,,,,,,,,,,,,,,,,,,,,,,,,,,,
1702629745,19,0,4432.563965,4205.128418,4319.358887,4327.05127,4326.666504,3840.128174,4261.538574,4218.461426,4303.846191,4236.794922,4350.256348,4434.358887,4572.94873,7563.461426,0,4,85,,,,0,4,4,4,4,4,4,4,4,4,4,4,4,4,4,100,,,,,,,,,,,,,,,,,,,,,,,,,,,,,,,,,,,,,,,,,,,,,,,,,,,,,,,,,,,,,,,,,,,,,,,,,,,,,,,,,,,,,,,,,,,,,,,,,,,,,,,,,,,,,,,,,,,,,,,,,,,,,,,,,,,,,,
1702629745,20,0,4451.794922,4203.589844,4328.077148,4329.230957,4328.205078,3912.94873,4263.717773,4224.487305,4312.05127,4236.666504,4367.179688,4442.307617,4608.205078,7567.307617,0,4,85,,,,0,4,4,4,4,4,4,4,4,4,4,4,4,4,4,100,,,,,,,,,,,,,,,,,5,0,0.495336,-0.63324,-0.329956,-0.494751,0.933219,-0.286168,-0.025394,-14.047286,-5.392855,83.870422,,,,,,,,,,,,,,,,,,,,,,,,,,,,,,,,,,,,,,,,,,,,,,,,,,,,,,,,,,,,,,,,,,,,,,,,,,,,,,,,,,,,,,,,,,,,,,,,,,,,,,,,,,
1702629745,21,0,4465.641113,4195.128418,4326.410156,4334.743652,4321.794922,3972.820557,4260.512695,4220.512695,4309.102539,4237.94873,4382.692383,4449.743652,4638.333496,7563.077148,0,4,85,,,,0,4,4,4,4,4,4,4,4,4,4,4,4,4,4,100,,,,,,,,,,,,,,,,,,,,,,,,,,,,,,,,,,,,,,,,,,,,,,,,,,,,,,,,,,,,,,,,,,,,,,,,,,,,,,,,,,,,,,,,,,,,,,,,,,,,,,,,,,,,,,,,,,,,,,,,,,,,,,,,,,,,,,
1702629745,22,0,4455.128418,4185.769043,4324.230957,4329.871582,4324.487305,4045.512939,4259.230957,4220.384766,4306.282227,4235.256348,4382.05127,4446.282227,4645.769043,7563.589844,0,4,85,,,,0,4,4,4,4,4,4,4,4,4,4,4,4,4,4,100,,,,,,,,,,,,,,,,,,,,,,,,,,,,,,,,,,,,,,,,,,,,,,,,,,,,,,,,,,,,,,,,,,,,,,,,,,,,,,,,,,,,,,,,,,,,,,,,,,,,,,,,,,,,,,,,,,,,,,,,,,,,,,,,,,,,,,
1702629745,23,0,4444.743652,4176.538574,4331.794922,4328.846191,4331.666504,4123.846191,4269.102539,4229.487305,4316.410156,4242.05127,4384.743652,4452.179688,4655.897461,7568.333496,0,4,85,,,,0,4,4,4,4,4,4,4,4,4,4,4,4,4,4,100,,,,,,,,,,,,,,,,,,,,,,,,,,,,,,,,,,,,,,,,,,,,,,,,,,,,,,,,,,,,,,,,,,,,,,,,,,,,,,,,,,,,,,,,,,,,,,,,,,,,,,,,,,,,,,,,,,,,,,,,,,,,,,,,,,,,,,
1702629745,24,0,4434.230957,4155.384766,4333.974121,4328.589844,4327.436035,4172.820313,4272.563965,4235,4321.922852,4249.615234,4390.128418,4456.666504,4662.307617,7567.563965,0,4,85,,,,0,4,4,4,4,4,4,4,4,4,4,4,4,4,4,100,,,,,,,,,,,,,,,,,6,0,0.49565,-0.633057,-0.33075,-0.494141,0.938591,-0.293005,-0.023929,-14.059224,-5.436903,83.850052,,,,,,,,,,,,,,,,,,,,,,,,,,,,,,,,,,,,,,,,,,,,,,,,,,,,,,,,,,,,,,,,,,,,,,,,,,,,,,,,,,,,,,,,,,,,,,,,,,,,,,,,,,
1702629745,25,0,4409.871582,4132.94873,4322.563965,4316.538574,4323.974121,4223.205078,4266.153809,4233.974121,4319.102539,4246.666504,4386.538574,4447.436035,4657.692383,7564.358887,0,4,85,,,,0,4,4,4,4,4,4,4,4,4,4,4,4,4,4,100,,,,,,,,,,,,,,,,,,,,,,,,,,,,,,,,,,,,,,,,,,,,,,,,,,,,,,,,,,,,,,,,,,,,,,,,,,,,,,,,,,,,,,,,,,,,,,,,,,,,,,,,,,,,,,,,,,,,,,,,,,,,,,,,,,,,,,
1702629745,26,0,4387.94873,4126.538574,4310.384766,4300.769043,4325.512695,4293.846191,4263.846191,4234.102539,4318.974121,4245.256348,4381.410156,4442.692383,4658.461426,7565.769043,0,4,85,,,,0,4,4,4,4,4,4,4,4,4,4,4,4,4,4,100,,,,,,,,,,,,,,,,,,,,,,,,,,,,,,,,,,,,,,,,,,,,,,,,,,,,,,,,,,,,,,,,,,,,,,,,,,,,,,,,,,,,,,,,,,,,,,,,,,,,,,,,,,,,,,,,,,,,,,,,,,,,,,,,,,,,,,
1702629745,27,0,4375.769043,4121.922852,4311.282227,4294.615234,4316.922852,4357.820313,4267.307617,4235.512695,4322.307617,4248.333496,4382.820313,4448.077148,4661.282227,7566.025879,0,4,85,,,,0,4,4,4,4,4,4,4,4,4,4,4,4,4,4,100,,,,,,,,,,,,,,,,,,,,,,,,,,,,,,,,,,,,,,,,,,,,,,,,,,,,,,,,,,,,,,,,,,,,,,,,,,,,,,,,,,,,,,,,,,,,,,,,,,,,,,,,,,,,,,,,,,,,,,,,,,,,,,,,,,,,,,
1702629745,28,0,4360.641113,4108.846191,4309.743652,4291.153809,4307.820313,4414.102539,4264.358887,4234.871582,4322.05127,4248.589844,4381.153809,4447.307617,4658.205078,7563.333496,0,4,85,,,,0,4,4,4,4,4,4,4,4,4,4,4,4,4,4,100,,,,,,,,,,,,,,,,,7,0,0.495834,-0.632751,-0.331604,-0.493774,0.935661,-0.293005,-0.019045,-14.103302,-5.393213,83.798378,,,,,,,,,,,,,,,,,,,,,,,,,,,,,,,,,,,,,,,,,,,,,,,,,,,,,,,,,,,,,,,,,,,,,,,,,,,,,,,,,,,,,,,,,,,,,,,,,,,,,,,,,,
1702629745,29,0,4344.615234,4100.512695,4296.666504,4282.820313,4309.871582,4439.871582,4259.487305,4231.025879,4322.563965,4250.128418,4375.128418,4435.641113,4657.179688,7564.487305,0,4,85,,,,0,4,4,4,4,4,4,4,4,4,4,4,4,4,4,100,,,,,,,,,,,,,,,,,,,,,,,,,,,,,,,,,,,,,,,,,,,,,,,,,,,,,,,,,,,,,,,,,,,,,,,,,,,,,,,,,,,,,,,,,,,,,,,,,,,,,,,,,,,,,,,,,,,,,,,,,,,,,,,,,,,,,,
1702629745,30,0,4331.025879,4103.717773,4289.871582,4284.615234,4314.358887,4399.871582,4260.897461,4229.102539,4323.333496,4255.641113,4374.358887,4427.692383,4665.128418,7565.384766,0,4,85,,,,0,4,4,4,4,4,4,4,4,4,4,4,4,4,4,100,,,,,,,,,,,,,,,,,,,,,,,,,,,,,,,,,,,,,,,,,,,,,,,,,,,,,,,,,,,,,,,,,,,,,,,,,,,,,,,,,,,,,,,,,,,,,,,,,,,,,,,,,,,,,,,,,,,,,,,,,,,,,,,,,,,,,,
1702629745,31,0,4322.05127,4104.230957,4293.846191,4290,4312.692383,4354.871582,4261.666504,4231.666504,4317.307617,4256.538574,4373.974121,4427.820313,4672.692383,7564.743652,0,4,85,,,,0,4,4,4,4,4,4,4,4,4,4,4,4,4,4,100,,,,,,,,,,,,,,,,,,,,,,,,,,,,,,,,,,,,,,,,,,,,,,,,,,,,,,,,,,,,,,,,,,,,,,,,,,,,,,,,,,,,,,,,,,,,,,,,,,,,,,,,,,,,,,,,,,,,,,,,,,,,,,,,,,,,,,
1702629745,32,0,4324.102539,4095.641113,4294.358887,4285,4310.641113,4374.230957,4258.461426,4225.897461,4308.846191,4250.256348,4372.692383,4429.615234,4670.512695,7564.871582,0,4,85,,,,0,4,4,4,4,4,4,4,4,4,4,4,4,4,4,100,,,,,,,,,,,,,,,,,8,0,0.495719,-0.632202,-0.332458,-0.494019,0.938591,-0.281773,-0.006348,-14.226305,-5.270558,83.818542,,,,,,,,,,,,,,,,,,,,,,,,,,,,,,,,,,,,,,,,,,,,,,,,,,,,,,,,,,,,,,,,,,,,,,,,,,,,,,,,,,,,,,,,,,,,,,,,,,,,,,,,,,
1702629745,33,0,4327.436035,4096.538574,4292.563965,4286.538574,4312.692383,4428.077148,4258.717773,4221.025879,4305.384766,4246.282227,4378.974121,4429.487305,4675.897461,7565,0,4,85,,,,0,4,4,4,4,4,4,4,4,4,4,4,4,4,4,100,,,,,,,,,,,,,,,,,,,,,,,,,,,,,,,,,,,,,,,,,,,,,,,,,,,,,,,,,,,,,,,,,55.003754,3.032224,0.793411,0.238011,0.194288,13.795654,2.342614,0.383289,0.278401,0.200471,9.956251,1.752966,0.542994,0.223558,0.226003,12.07616,2.221012,0.347157,0.184608,0.172698,2.477848,0.503661,0.181099,0.235041,0.190257,573.478149,76.411263,40.900333,9.591887,1.084445,0.872498,0.396466,0.160988,0.088891,0.110988,2.330455,2.633812,0.366689,0.242194,0.139003,2.319146,1.747528,0.21928,0.219772,0.158066,2.984588,1.57718,0.232149,0.24985,0.164409,15.342087,1.775115,0.647341,0.464916,0.218239,11.947626,3.429063,0.771662,0.291802,0.217174,50.384235,1.970634,1.094392,0.426762,0.219729,192.387878,57.232117,8.17516,3.839803,0.881385
1702629745,34,0,4318.846191,4106.922852,4295.512695,4293.717773,4313.077148,4475.641113,4263.205078,4228.717773,4307.436035,4249.230957,4385.384766,4430.512695,4691.794922,7564.871582,0,4,85,,,,0,4,4,4,4,4,4,4,4,4,4,4,4,4,4,100,,,,,,,,,,,,,,,,,,,,,,,,,,,,,,,,,,,,,,,,,,,,,,,,,,,,,,,,,,,,,,,,,,,,,,,,,,,,,,,,,,,,,,,,,,,,,,,,,,,,,,,,,,,,,,,,,,,,,,,,,,,,,,,,,,,,,,
1702629745,35,0,4308.205078,4106.538574,4293.846191,4285.512695,4308.205078,4519.615234,4263.077148,4233.589844,4307.307617,4251.666504,4379.102539,4432.563965,4696.922852,7564.871582,0,4,85,,,,0,4,4,4,4,4,4,4,4,4,4,4,4,4,4,100,,,,,,,,,,,,,,,,,,,,,,,,,,,,,,,,,,,,,,,,,,,,,,,,,,,,,,,,,,,,,,,,,,,,,,,,,,,,,,,,,,,,,,,,,,,,,,,,,,,,,,,,,,,,,,,,,,,,,,,,,,,,,,,,,,,,,,
1702629745,36,0,4301.666504,4095.769287,4288.717773,4274.230957,4303.974121,4569.102539,4260.641113,4230,4299.743652,4246.538574,4366.666504,4431.282227,4690.256348,7564.871582,0,4,85,,,,0,4,4,4,4,4,4,4,4,4,4,4,4,4,4,100,,,,,,,,,,,,,,,,,9,0,0.495395,-0.631592,-0.333374,-0.494507,0.944451,-0.273471,-0.021975,-14.137008,-5.160169,83.77002,,,,,,,,,,,,,,,,,,,,,,,,,,,,,,,,,,,,,,,,,,,,,,,,,,,,,,,,,,,,,,,,,,,,,,,,,,,,,,,,,,,,,,,,,,,,,,,,,,,,,,,,,,
1702629745,37,0,4295.128418,4090.769287,4290.384766,4275.512695,4304.615234,4624.871582,4260.769043,4227.94873,4294.230957,4240.512695,4361.153809,4431.282227,4693.846191,7564.871582,0,4,85,,,,0,4,4,4,4,4,4,4,4,4,4,4,4,4,4,100,,,,,,,,,,,,,,,,,,,,,,,,,,,,,,,,,,,,,,,,,,,,,,,,,,,,,,,,,,,,,,,,,,,,,,,,,,,,,,,,,,,,,,,,,,,,,,,,,,,,,,,,,,,,,,,,,,,,,,,,,,,,,,,,,,,,,,
1702629745,38,0,4298.461426,4092.435791,4292.820313,4278.333496,4308.077148,4663.077148,4263.589844,4232.563965,4301.282227,4246.410156,4355.769043,4438.717773,4705,7564.871582,0,4,85,,,,0,4,4,4,4,4,4,4,4,4,4,4,4,4,4,100,,,,,,,,,,,,,,,,,,,,,,,,,,,,,,,,,,,,,,,,,,,,,,,,,,,,,,,,,,,,,,,,,,,,,,,,,,,,,,,,,,,,,,,,,,,,,,,,,,,,,,,,,,,,,,,,,,,,,,,,,,,,,,,,,,,,,,
1702629745,39,0,4295.769043,4092.05127,4285,4278.589844,4307.94873,4664.743652,4266.153809,4233.974121,4305.384766,4250.256348,4337.179688,4441.794922,4703.333496,7564.871582,0,4,85,,,,0,4,4,4,4,4,4,4,4,4,4,4,4,4,4,100,,,,,,,,,,,,,,,,,,,,,,,,,,,,,,,,,,,,,,,,,,,,,,,,,,,,,,,,,,,,,,,,,,,,,,,,,,,,,,,,,,,,,,,,,,,,,,,,,,,,,,,,,,,,,,,,,,,,,,,,,,,,,,,,,,,,,,
1702629745,40,0,4280.384766,4086.410156,4275.769043,4269.487305,4298.717773,4658.461426,4261.666504,4225.641113,4295,4238.717773,4313.205078,4429.358887,4692.307617,7564.871582,0,4,85,,,,0,4,4,4,4,4,4,4,4,4,4,4,4,4,4,100,,,,,,,,,,,,,,,,,10,0,0.494907,-0.630981,-0.334167,-0.495239,0.939568,-0.266146,-0.020999,-14.139974,-5.060819,83.676353,,,,,,,,,,,,,,,,,,,,,,,,,,,,,,,,,,,,,,,,,,,,,,,,,,,,,,,,,,,,,,,,,,,,,,,,,,,,,,,,,,,,,,,,,,,,,,,,,,,,,,,,,,
1702629745,41,0,4282.820313,4085.769287,4278.461426,4262.179688,4292.563965,4669.230957,4257.692383,4216.153809,4289.743652,4231.153809,4302.692383,4422.307617,4691.922852,7564.871582,0,4,85,,,,0,4,4,4,4,4,4,4,4,4,4,4,4,4,4,100,,,,,,,,,,,,,,,,,,,,,,,,,,,,,,,,,,,,,,,,,,,,,,,,,,,,,,,,,,,,,,,,,,,,,,,,,,,,,,,,,,,,,,,,,,,,,,,,,,,,,,,,,,,,,,,,,,,,,,,,,,,,,,,,,,,,,,
1702629745,42,0,4293.717773,4099.102539,4285.128418,4272.307617,4296.794922,4685.512695,4259.487305,4217.436035,4296.922852,4235.641113,4300,4430.512695,4701.922852,7564.871582,0,4,85,,,,0,4,4,4,4,4,4,4,4,4,4,4,4,4,4,100,,,,,,,,,,,,,,,,,,,,,,,,,,,,,,,,,,,,,,,,,,,,,,,,,,,,,,,,,,,,,,,,,,,,,,,,,,,,,,,,,,,,,,,,,,,,,,,,,,,,,,,,,,,,,,,,,,,,,,,,,,,,,,,,,,,,,,
1702629745,43,0,4283.717773,4105.128418,4280.769043,4273.846191,4297.307617,4695.256348,4254.871582,4221.025879,4295.512695,4233.974121,4290.641113,4426.538574,4700.512695,7564.871582,0,4,85,,,,0,4,4,4,4,4,4,4,4,4,4,4,4,4,4,100,,,,,,,,,,,,,,,,,,,,,,,,,,,,,,,,,,,,,,,,,,,,,,,,,,,,,,,,,,,,,,,,,,,,,,,,,,,,,,,,,,,,,,,,,,,,,,,,,,,,,,,,,,,,,,,,,,,,,,,,,,,,,,,,,,,,,,
1702629745,44,0,4275,4102.307617,4275.512695,4260.512695,4292.692383,4715.384766,4249.102539,4217.436035,4283.717773,4228.717773,4285.641113,4416.153809,4690.256348,7564.871582,0,4,85,,,,0,4,4,4,4,4,4,4,4,4,4,4,4,4,4,100,,,,,,,,,,,,,,,,,11,0,0.494759,-0.630615,-0.334534,-0.495605,0.947381,-0.275913,-0.024417,-14.20931,-5.08807,83.74205,,,,,,,,,,,,,,,,,,,,,,,,,,,,,,,,,,,,,,,,,,,,,,,,,,,,,,,,,,,,,,,,,,,,,,,,,,,,,,,,,,,,,,,,,,,,,,,,,,,,,,,,,,
1702629745,45,0,4281.410156,4117.05127,4281.153809,4260.897461,4295,4763.461426,4254.871582,4216.410156,4278.205078,4230.641113,4291.282227,4421.538574,4689.230957,7565.128418,0,4,85,,,,0,4,4,4,4,4,4,4,4,4,4,4,4,4,4,100,,,,,,,,,,,,,,,,,,,,,,,,,,,,,,,,,,,,,,,,,,,,,,,,,,,,,,,,,,,,,,,,,,,,,,,,,,,,,,,,,,,,,,,,,,,,,,,,,,,,,,,,,,,,,,,,,,,,,,,,,,,,,,,,,,,,,,
1702629745,46,0,4283.077148,4138.846191,4289.230957,4273.333496,4294.743652,4826.282227,4264.230957,4223.846191,4284.487305,4232.563965,4300.128418,4429.743652,4699.743652,7565.641113,0,4,85,,,,0,4,4,4,4,4,4,4,4,4,4,4,4,4,4,100,,,,,,,,,,,,,,,,,,,,,,,,,,,,,,,,,,,,,,,,,,,,,,,,,,,,,,,,,,,,,,,,,,,,,,,,,,,,,,,,,,,,,,,,,,,,,,,,,,,,,,,,,,,,,,,,,,,,,,,,,,,,,,,,,,,,,,
1702629745,47,0,4279.871582,4146.666504,4291.153809,4277.05127,4288.974121,4881.794922,4266.282227,4232.307617,4290.641113,4237.179688,4308.077148,4428.205078,4708.717773,7564.871582,0,4,85,,,,0,4,4,4,4,4,4,4,4,4,4,4,4,4,4,100,,,,,,,,,,,,,,,,,,,,,,,,,,,,,,,,,,,,,,,,,,,,,,,,,,,,,,,,,,,,,,,,,,,,,,,,,,,,,,,,,,,,,,,,,,,,,,,,,,,,,,,,,,,,,,,,,,,,,,,,,,,,,,,,,,,,,,
1702629745,48,0,4277.05127,4149.358887,4287.563965,4270.512695,4293.077148,4922.05127,4265.769043,4231.153809,4284.871582,4243.717773,4307.563965,4424.743652,4706.794922,7564.743652,0,4,85,,,,0,4,4,4,4,4,4,4,4,4,4,4,4,4,4,100,,,,,,,,,,,,,,,,,12,0,0.494313,-0.629822,-0.33551,-0.496399,0.948358,-0.279331,-0.024905,-14.238379,-5.079263,83.767845,,,,,,,,,,,,,,,,,,,,,,,,,,,,,,,,,,,,,,,,,,,,,,,,,,,,,,,,,,,,,,,,,,,,,,,,,,,,,,,,,,,,,,,,,,,,,,,,,,,,,,,,,,
1702629745,49,0,4275.128418,4156.025879,4288.589844,4270,4296.666504,4959.230957,4272.692383,4227.05127,4280.769043,4246.666504,4310.897461,4426.538574,4710.256348,7566.538574,0,4,85,,,,0,4,4,4,4,4,4,4,4,4,4,4,4,4,4,100,,,,,,,,,,,,,,,,,,,,,,,,,,,,,,,,,,,,,,,,,,,,,,,,,,,,,,,,,,,,,,,,,55.227943,3.481007,0.938885,0.233401,0.193341,15.303562,2.591796,0.413639,0.268404,0.192958,10.076274,1.892688,0.547358,0.264811,0.235882,13.31284,3.11544,0.414324,0.202408,0.169087,2.937929,0.626192,0.188829,0.226017,0.212595,623.904297,82.749077,46.860531,9.385814,0.986425,0.919053,0.523481,0.221987,0.095403,0.105582,2.065757,2.561649,0.459367,0.216518,0.130301,2.110129,1.804518,0.29458,0.205335,0.15937,2.555915,1.715826,0.256929,0.310203,0.164751,14.959403,1.847233,0.702755,0.416902,0.21214,11.464345,3.479881,0.854332,0.311902,0.224736,45.177578,1.62491,1.292501,0.373084,0.198864,164.476181,54.940502,7.304531,3.274759,0.792951
1702629745,50,0,4282.307617,4156.666504,4293.333496,4278.077148,4285.769043,4989.358887,4276.153809,4232.436035,4284.102539,4245.384766,4328.717773,4429.615234,4721.794922,7561.794922,0,4,85,,,,0,4,4,4,4,4,4,4,4,4,4,4,4,4,4,100,,,,,,,,,,,,,,,,,,,,,,,,,,,,,,,,,,,,,,,,,,,,,,,,,,,,,,,,,,,,,,,,,,,,,,,,,,,,,,,,,,,,,,,,,,,,,,,,,,,,,,,,,,,,,,,,,,,,,,,,,,,,,,,,,,,,,,
1702629745,51,0,4284.102539,4148.846191,4291.282227,4276.282227,4275.641113,5002.307617,4270.512695,4237.179688,4282.436035,4236.410156,4335,4430.128418,4720.128418,7551.922852,0,4,85,,,,0,4,4,4,4,4,4,4,4,4,4,4,4,4,4,100,,,,,,,,,,,,,,,,,,,,,,,,,,,,,,,,,,,,,,,,,,,,,,,,,,,,,,,,,,,,,,,,,,,,,,,,,,,,,,,,,,,,,,,,,,,,,,,,,,,,,,,,,,,,,,,,,,,,,,,,,,,,,,,,,,,,,,
1702629745,52,0,4284.487305,4150.384766,4286.666504,4269.743652,4276.794922,5018.205078,4270.384766,4234.358887,4277.05127,4233.846191,4327.820313,4427.436035,4719.615234,7550.128418,0,4,85,,,,0,4,4,4,4,4,4,4,4,4,4,4,4,4,4,100,,,,,,,,,,,,,,,,,13,0,0.493846,-0.629089,-0.336487,-0.497131,0.946893,-0.273471,-0.024905,-14.114541,-5.138003,83.774391,,,,,,,,,,,,,,,,,,,,,,,,,,,,,,,,,,,,,,,,,,,,,,,,,,,,,,,,,,,,,,,,,,,,,,,,,,,,,,,,,,,,,,,,,,,,,,,,,,,,,,,,,,
1702629745,53,0,4298.333496,4174.230957,4289.871582,4279.487305,4280,5025.512695,4278.717773,4232.820313,4273.077148,4239.358887,4332.563965,4427.692383,4735,7553.846191,0,4,85,,,,0,4,4,4,4,4,4,4,4,4,4,4,4,4,4,100,,,,,,,,,,,,,,,,,,,,,,,,,,,,,,,,,,,,,,,,,,,,,,,,,,,,,,,,,,,,,,,,,,,,,,,,,,,,,,,,,,,,,,,,,,,,,,,,,,,,,,,,,,,,,,,,,,,,,,,,,,,,,,,,,,,,,,
1702629745,54,0,4311.282227,4196.538574,4297.436035,4289.615234,4281.794922,4986.922852,4281.025879,4233.589844,4266.282227,4236.666504,4344.871582,4431.922852,4744.743652,7553.205078,0,4,85,,,,0,4,4,4,4,4,4,4,4,4,4,4,4,4,4,100,,,,,,,,,,,,,,,,,,,,,,,,,,,,,,,,,,,,,,,,,,,,,,,,,,,,,,,,,,,,,,,,,,,,,,,,,,,,,,,,,,,,,,,,,,,,,,,,,,,,,,,,,,,,,,,,,,,,,,,,,,,,,,,,,,,,,,
1702629745,55,0,4329.230957,4210.128418,4306.410156,4290.128418,4286.410156,4930.512695,4275.384766,4231.410156,4261.410156,4235.384766,4357.307617,4442.692383,4765.256348,7552.05127,0,4,85,,,,0,4,4,4,4,4,4,4,4,4,4,4,4,4,4,100,,,,,,,,,,,,,,,,,,,,,,,,,,,,,,,,,,,,,,,,,,,,,,,,,,,,,,,,,,,,,,,,,,,,,,,,,,,,,,,,,,,,,,,,,,,,,,,,,,,,,,,,,,,,,,,,,,,,,,,,,,,,,,,,,,,,,,
1702629745,56,0,4370.897461,4235.897461,4319.871582,4302.94873,4290.128418,4900,4273.077148,4230.256348,4263.205078,4245.897461,4385.256348,4461.922852,4820.256348,7552.94873,0,4,85,,,,0,4,4,4,4,4,4,4,4,4,4,4,4,4,4,100,,,,,,,,,,,,,,,,,14,0,0.493383,-0.628479,-0.337402,-0.497742,0.953241,-0.263216,-0.015139,-14.13642,-4.94087,83.830284,,,,,,,,,,,,,,,,,,,,,,,,,,,,,,,,,,,,,,,,,,,,,,,,,,,,,,,,,,,,,,,,,,,,,,,,,,,,,,,,,,,,,,,,,,,,,,,,,,,,,,,,,,
1702629745,57,0,4411.025879,4254.230957,4333.333496,4324.743652,4286.666504,4871.666504,4274.358887,4230.128418,4257.563965,4251.666504,4417.307617,4475.384766,4870.769043,7552.179688,0,4,85,,,,0,4,4,4,4,4,4,4,4,4,4,4,4,4,4,100,,,,,,,,,,,,,,,,,,,,,,,,,,,,,,,,,,,,,,,,,,,,,,,,,,,,,,,,,,,,,,,,,,,,,,,,,,,,,,,,,,,,,,,,,,,,,,,,,,,,,,,,,,,,,,,,,,,,,,,,,,,,,,,,,,,,,,
1702629745,58,0,4432.307617,4253.589844,4350.641113,4331.794922,4288.461426,4839.102539,4280.128418,4230.641113,4252.563965,4254.230957,4440.769043,4486.282227,4899.743652,7551.410156,0,4,85,,,,0,4,4,4,4,4,4,4,4,4,4,4,4,4,4,100,,,,,,,,,,,,,,,,,,,,,,,,,,,,,,,,,,,,,,,,,,,,,,,,,,,,,,,,,,,,,,,,,,,,,,,,,,,,,,,,,,,,,,,,,,,,,,,,,,,,,,,,,,,,,,,,,,,,,,,,,,,,,,,,,,,,,,
1702629745,59,0,4448.717773,4264.615234,4365.512695,4330.128418,4292.820313,4833.461426,4284.615234,4239.615234,4258.717773,4267.563965,4461.153809,4502.307617,4928.077148,7552.05127,0,4,85,,,,0,4,4,4,4,4,4,4,4,4,4,4,4,4,4,100,,,,,,,,,,,,,,,,,,,,,,,,,,,,,,,,,,,,,,,,,,,,,,,,,,,,,,,,,,,,,,,,,,,,,,,,,,,,,,,,,,,,,,,,,,,,,,,,,,,,,,,,,,,,,,,,,,,,,,,,,,,,,,,,,,,,,,
1702629745,60,0,4453.461426,4280.641113,4361.538574,4329.871582,4286.282227,4848.077148,4281.538574,4244.743652,4257.307617,4269.358887,4464.487305,4507.94873,4940.384766,7551.922852,0,4,85,,,,0,4,4,4,4,4,4,4,4,4,4,4,4,4,4,100,,,,,,,,,,,,,,,,,15,0,0.493047,-0.627686,-0.338379,-0.498413,0.957148,-0.262239,-0.013185,-14.122778,-4.930116,83.997261,,,,,,,,,,,,,,,,,,,,,,,,,,,,,,,,,,,,,,,,,,,,,,,,,,,,,,,,,,,,,,,,,,,,,,,,,,,,,,,,,,,,,,,,,,,,,,,,,,,,,,,,,,
1702629745,61,0,4446.410156,4278.077148,4358.589844,4330,4277.307617,4862.05127,4285.641113,4240.512695,4247.436035,4260.384766,4461.153809,4505.256348,4937.820313,7551.794922,0,4,85,,,,0,4,4,4,4,4,4,4,4,4,4,4,4,4,4,100,,,,,,,,,,,,,,,,,,,,,,,,,,,,,,,,,,,,,,,,,,,,,,,,,,,,,,,,,,,,,,,,,,,,,,,,,,,,,,,,,,,,,,,,,,,,,,,,,,,,,,,,,,,,,,,,,,,,,,,,,,,,,,,,,,,,,,
1702629745,62,0,4444.487305,4280.897461,4370.769043,4330.256348,4279.871582,4867.436035,4294.743652,4245.512695,4250,4266.410156,4468.589844,4510.641113,4944.358887,7552.436035,0,4,85,,,,0,4,4,4,4,4,4,4,4,4,4,4,4,4,4,100,,,,,,,,,,,,,,,,,,,,,,,,,,,,,,,,,,,,,,,,,,,,,,,,,,,,,,,,,,,,,,,,,,,,,,,,,,,,,,,,,,,,,,,,,,,,,,,,,,,,,,,,,,,,,,,,,,,,,,,,,,,,,,,,,,,,,,
1702629745,63,0,4435.256348,4292.692383,4370.256348,4323.974121,4285.897461,4867.436035,4289.871582,4249.487305,4253.205078,4273.974121,4461.666504,4508.846191,4942.179688,7551.922852,0,4,85,,,,0,4,4,4,4,4,4,4,4,4,4,4,4,4,4,100,,,,,,,,,,,,,,,,,,,,,,,,,,,,,,,,,,,,,,,,,,,,,,,,,,,,,,,,,,,,,,,,,,,,,,,,,,,,,,,,,,,,,,,,,,,,,,,,,,,,,,,,,,,,,,,,,,,,,,,,,,,,,,,,,,,,,,
1702629745,64,0,4407.563965,4286.025879,4346.538574,4304.102539,4277.436035,4866.538574,4278.205078,4238.205078,4241.282227,4263.205078,4431.153809,4487.820313,4919.358887,7550.769043,5681,4,85,,,,0,4,4,4,4,4,4,4,4,4,4,4,4,4,4,100,,,,,,,,,,,,,,,,,16,0,0.492824,-0.62677,-0.33905,-0.499329,0.956171,-0.259309,-0.003907,-14.1105,-4.887105,84.064201,,,,,,,,,,,,,,,,,,,,,,,,,,,,,,,,,,,,,,,,,,,,,,,,,,,,,,,,,,,,,,,,,,,,,,,,,,,,,,,,,,,,,,,,,,,,,,,,,,,,,,,,,,
1702629745,65,0,4380.128418,4277.563965,4328.333496,4282.692383,4266.025879,4856.538574,4279.358887,4230.512695,4228.589844,4248.589844,4407.94873,4471.025879,4897.307617,7549.871582,5601,4,85,,,,0,4,4,4,4,4,4,4,4,4,4,4,4,4,4,100,,,,,,,,,,,,,,,,,,,,,,,,,,,,,,,,,,,,,,,,,,,,,,,,,,,,,,,,,,,,,,,,,50.455154,4.113917,1.195754,0.25763,0.207258,14.664731,2.859726,0.448948,0.265261,0.179237,9.376595,2.149029,0.606732,0.326962,0.247316,13.761417,4.232041,0.540212,0.224604,0.166056,3.203035,0.803617,0.205759,0.209431,0.235613,659.967896,95.293053,49.756859,8.966131,0.999716,0.95623,0.736779,0.301545,0.113807,0.096482,1.918856,2.507284,0.627571,0.195039,0.121931,1.957042,1.876026,0.408058,0.199217,0.164739,2.205946,1.89841,0.368578,0.414559,0.166508,13.813963,2.015791,0.916666,0.391509,0.206912,10.461625,3.482874,1.083566,0.358211,0.236822,37.024353,1.643883,1.75471,0.351792,0.198341,143.033325,52.486115,7.52544,2.883429,0.731055
1702629745,66,0,4360.769043,4287.179688,4323.846191,4281.025879,4259.230957,4828.461426,4279.102539,4226.794922,4221.025879,4246.538574,4398.589844,4460.512695,4880.769043,7546.282227,5382,4,85,,,,0,4,4,4,4,4,4,4,4,4,4,4,4,4,4,100,,,,,,,,,,,,,,,,,,,,,,,,,,,,,,,,,,,,,,,,,,,,,,,,,,,,,,,,,,,,,,,,,,,,,,,,,,,,,,,,,,,,,,,,,,,,,,,,,,,,,,,,,,,,,,,,,,,,,,,,,,,,,,,,,,,,,,
1702629745,67,0,4342.94873,4291.025879,4315.512695,4280.769043,4252.563965,4786.025879,4266.410156,4215,4211.794922,4247.05127,4387.05127,4444.102539,4861.153809,7542.436035,5385,4,85,,,,0,4,4,4,4,4,4,4,4,4,4,4,4,4,4,100,,,,,,,,,,,,,,,,,,,,,,,,,,,,,,,,,,,,,,,,,,,,,,,,,,,,,,,,,,,,,,,,,,,,,,,,,,,,,,,,,,,,,,,,,,,,,,,,,,,,,,,,,,,,,,,,,,,,,,,,,,,,,,,,,,,,,,
1702629745,68,0,4327.563965,4282.307617,4301.538574,4264.743652,4247.820313,4739.615234,4261.666504,4211.410156,4211.922852,4245.128418,4378.974121,4431.153809,4845.256348,7540.384766,5415,4,85,,,,0,4,4,4,4,4,4,4,4,4,4,4,4,4,4,100,,,,,,,,,,,,,,,,,17,0,0.492496,-0.626099,-0.339417,-0.500244,0.946405,-0.257356,-0.018069,-14.032784,-4.865061,83.941109,,,,,,,,,,,,,,,,,,,,,,,,,,,,,,,,,,,,,,,,,,,,,,,,,,,,,,,,,,,,,,,,,,,,,,,,,,,,,,,,,,,,,,,,,,,,,,,,,,,,,,,,,,
1702629745,69,0,4312.05127,4280.128418,4293.974121,4258.589844,4248.077148,4697.307617,4263.589844,4217.436035,4219.102539,4247.05127,4376.025879,4428.461426,4830,7536.666504,5338,4,85,,,,0,4,4,4,4,4,4,4,4,4,4,4,4,4,4,100,,,,,,,,,,,,,,,,,,,,,,,,,,,,,,,,,,,,,,,,,,,,,,,,,,,,,,,,,,,,,,,,,,,,,,,,,,,,,,,,,,,,,,,,,,,,,,,,,,,,,,,,,,,,,,,,,,,,,,,,,,,,,,,,,,,,,,
1702629745,70,0,4297.307617,4280.512695,4292.94873,4260.641113,4245.384766,4658.077148,4258.589844,4214.358887,4219.102539,4250.256348,4375.256348,4428.846191,4815,7533.461426,5125,4,85,,,,0,4,4,4,4,4,4,4,4,4,4,4,4,4,4,100,,,,,,,,,,,,,,,,,,,,,,,,,,,,,,,,,,,,,,,,,,,,,,,,,,,,,,,,,,,,,,,,,,,,,,,,,,,,,,,,,,,,,,,,,,,,,,,,,,,,,,,,,,,,,,,,,,,,,,,,,,,,,,,,,,,,,,
1702629745,71,0,4285.128418,4280.512695,4292.05127,4253.461426,4239.102539,4619.102539,4255,4208.333496,4220.384766,4247.692383,4377.94873,4422.307617,4808.077148,7535.384766,5345,4,85,,,,0,4,4,4,4,4,4,4,4,4,4,4,4,4,4,100,,,,,,,,,,,,,,,,,,,,,,,,,,,,,,,,,,,,,,,,,,,,,,,,,,,,,,,,,,,,,,,,,,,,,,,,,,,,,,,,,,,,,,,,,,,,,,,,,,,,,,,,,,,,,,,,,,,,,,,,,,,,,,,,,,,,,,
1702629745,72,0,4281.282227,4286.666504,4290.128418,4250.512695,4241.282227,4596.538574,4256.410156,4210.256348,4231.794922,4249.615234,4385,4415.897461,4810.256348,7536.922852,5395,4,85,,,,0,4,4,4,4,4,4,4,4,4,4,4,4,4,4,100,,,,,,,,,,,,,,,,,18,0,0.492226,-0.62561,-0.339539,-0.501038,0.958613,-0.252472,-0.014162,-13.912839,-4.845222,83.830338,,,,,,,,,,,,,,,,,,,,,,,,,,,,,,,,,,,,,,,,,,,,,,,,,,,,,,,,,,,,,,,,,,,,,,,,,,,,,,,,,,,,,,,,,,,,,,,,,,,,,,,,,,
1702629745,73,0,4286.410156,4295.384766,4292.05127,4258.333496,4246.794922,4597.179688,4258.589844,4215.384766,4238.461426,4257.820313,4394.358887,4422.563965,4810.897461,7535.128418,5328,4,85,,,,0,4,4,4,4,4,4,4,4,4,4,4,4,4,4,100,,,,,,,,,,,,,,,,,,,,,,,,,,,,,,,,,,,,,,,,,,,,,,,,,,,,,,,,,,,,,,,,,,,,,,,,,,,,,,,,,,,,,,,,,,,,,,,,,,,,,,,,,,,,,,,,,,,,,,,,,,,,,,,,,,,,,,
1702629745,74,0,4291.153809,4308.846191,4300.769043,4262.179688,4256.666504,4599.102539,4261.025879,4217.436035,4236.538574,4257.179688,4397.692383,4431.538574,4803.333496,7534.871582,5933,4,85,,,,0,4,4,4,4,4,4,4,4,4,4,4,4,4,2,83.333336,,,,,,,,,,,,,,,,,,,,,,,,,,,,,,,,,,,,,,,,,,,,,,,,,,,,,,,,,,,,,,,,,,,,,,,,,,,,,,,,,,,,,,,,,,,,,,,,,,,,,,,,,,,,,,,,,,,,,,,,,,,,,,,,,,,,,,
1702629745,75,0,4290.769043,4323.077148,4308.077148,4262.692383,4264.487305,4592.05127,4260.641113,4215.128418,4236.153809,4256.538574,4397.05127,4429.102539,4801.666504,7535.769043,818,4,85,,,,0,4,4,4,4,4,4,4,4,4,4,4,4,4,2,83.333336,,,,,,,,,,,,,,,,,,,,,,,,,,,,,,,,,,,,,,,,,,,,,,,,,,,,,,,,,,,,,,,,,,,,,,,,,,,,,,,,,,,,,,,,,,,,,,,,,,,,,,,,,,,,,,,,,,,,,,,,,,,,,,,,,,,,,,
1702629745,76,0,4288.333496,4325.512695,4307.179688,4261.922852,4257.179688,4581.794922,4256.282227,4213.333496,4236.666504,4264.102539,4400.641113,4424.358887,4806.538574,7535.384766,6850,4,85,,,,0,4,4,4,4,4,4,4,4,4,4,4,4,4,2,83.333336,,,,,,,,,,,,,,,,,19,0,0.492193,-0.625183,-0.339111,-0.501892,0.949823,-0.255402,-0.015627,-13.821555,-4.894032,83.830635,,,,,,,,,,,,,,,,,,,,,,,,,,,,,,,,,,,,,,,,,,,,,,,,,,,,,,,,,,,,,,,,,,,,,,,,,,,,,,,,,,,,,,,,,,,,,,,,,,,,,,,,,,
1702629745,77,0,4290.256348,4330.641113,4307.94873,4264.871582,4248.205078,4581.922852,4263.589844,4217.179688,4236.410156,4268.589844,4407.179688,4429.615234,4805.384766,7534.743652,7297,4,85,,,,0,4,4,4,4,4,4,4,4,4,4,4,4,4,2,83.333336,,,,,,,,,,,,,,,,,,,,,,,,,,,,,,,,,,,,,,,,,,,,,,,,,,,,,,,,,,,,,,,,,,,,,,,,,,,,,,,,,,,,,,,,,,,,,,,,,,,,,,,,,,,,,,,,,,,,,,,,,,,,,,,,,,,,,,
1702629745,78,0,4291.538574,4344.743652,4314.615234,4273.974121,4246.794922,4596.153809,4276.666504,4218.077148,4236.410156,4261.025879,4407.563965,4431.794922,4794.743652,7536.025879,5933,4,85,,,,0,4,4,4,4,4,4,4,4,4,4,4,4,4,2,83.333336,,,,,,,,,,,,,,,,,,,,,,,,,,,,,,,,,,,,,,,,,,,,,,,,,,,,,,,,,,,,,,,,,,,,,,,,,,,,,,,,,,,,,,,,,,,,,,,,,,,,,,,,,,,,,,,,,,,,,,,,,,,,,,,,,,,,,,
1702629745,79,0,4285.512695,4352.436035,4312.563965,4271.922852,4247.692383,4607.307617,4273.333496,4208.461426,4232.436035,4251.153809,4400.769043,4421.794922,4783.205078,7534.358887,818,4,85,,,,0,4,4,4,4,4,4,4,4,4,4,4,4,4,2,83.333336,,,,,,,,,,,,,,,,,,,,,,,,,,,,,,,,,,,,,,,,,,,,,,,,,,,,,,,,,,,,,,,,,,,,,,,,,,,,,,,,,,,,,,,,,,,,,,,,,,,,,,,,,,,,,,,,,,,,,,,,,,,,,,,,,,,,,,
1702629745,80,0,4274.102539,4362.436035,4300.128418,4262.05127,4249.358887,4607.820313,4265.128418,4202.563965,4230.769043,4246.666504,4392.692383,4408.333496,4773.846191,7530.256348,6850,4,85,,,,0,4,4,4,4,4,4,4,4,4,4,4,4,4,2,83.333336,,,,,,,,,,,,,,,,,20,0,0.492208,-0.624878,-0.338928,-0.50238,0.937126,-0.255891,-0.002442,-13.789399,-5.021296,83.747574,,,,,,,,,,,,,,,,,,,,,,,,,,,,,,,,,,,,,,,,,,,,,,,,,,,,,,,,,,,,,,,,,,,,,,,,,,,,,,,,,,,,,,,,,,,,,,,,,,,,,,,,,,
1702629745,81,0,4263.205078,4383.077148,4293.333496,4259.487305,4245.384766,4599.615234,4266.794922,4206.282227,4232.307617,4245.256348,4390.897461,4401.153809,4767.307617,7531.410156,7297,4,85,,,,0,4,4,4,4,4,4,4,4,4,4,4,4,4,2,83.333336,1,8.333333,1,1,4,3,4,0,4,4,3,4,1,4,1,0,,,,,,,,,,,,,,,,,,,,,,,,,,,,,,,,,,,,,,,,,,,,,,,,,43.266117,5.052896,1.474696,0.306656,0.237993,13.303931,3.193311,0.465869,0.269722,0.16427,8.280873,2.557643,0.704972,0.397576,0.259453,13.432733,5.4211,0.698439,0.250661,0.16974,3.235822,1.002581,0.229462,0.189957,0.254261,671.570496,113.57753,49.312183,8.650743,1.090496,1.03938,1.018313,0.37966,0.139158,0.086997,2.041706,2.495085,0.840188,0.184883,0.115889,1.90669,1.921825,0.532517,0.203735,0.174839,2.146759,2.103783,0.551869,0.54598,0.169651,12.950339,2.405022,1.267261,0.398139,0.201964,9.476364,3.583138,1.42423,0.427063,0.25381,28.710882,2.211052,2.375767,0.363026,0.213774,134.741699,55.089375,9.431525,2.868066,0.698762
1702629745,82,0,4258.974121,4402.307617,4293.333496,4258.333496,4233.846191,4572.94873,4267.179688,4204.615234,4233.589844,4244.487305,4394.230957,4398.333496,4765.769043,7534.358887,5933,4,85,,,,0,4,4,4,4,4,4,4,4,4,4,4,4,4,2,83.333336,,,,,,,,,,,,,,,,,,,,,,,,,,,,,,,,,,,,,,,,,,,,,,,,,,,,,,,,,,,,,,,,,,,,,,,,,,,,,,,,,,,,,,,,,,,,,,,,,,,,,,,,,,,,,,,,,,,,,,,,,,,,,,,,,,,,,,
1702629745,83,0,4260.769043,4416.922852,4293.205078,4260.128418,4228.846191,4520.641113,4263.333496,4201.153809,4240.512695,4246.153809,4397.307617,4403.589844,4766.922852,7533.846191,818,4,85,,,,0,4,4,4,4,4,4,4,4,4,4,4,4,4,2,83.333336,,,,,,,,,,,,,,,,,,,,,,,,,,,,,,,,,,,,,,,,,,,,,,,,,,,,,,,,,,,,,,,,,,,,,,,,,,,,,,,,,,,,,,,,,,,,,,,,,,,,,,,,,,,,,,,,,,,,,,,,,,,,,,,,,,,,,,
1702629745,84,0,4265.256348,4433.846191,4294.615234,4267.179688,4232.179688,4469.871582,4263.717773,4204.487305,4249.358887,4246.153809,4397.563965,4410.641113,4763.077148,7533.205078,6850,4,85,,,,0,4,4,4,4,4,4,4,4,4,4,4,4,4,2,83.333336,,,,,,,,,,,,,,,,,21,0,0.491799,-0.624268,-0.338745,-0.503662,0.95959,-0.266634,-0.000488,-13.860459,-4.935833,83.656151,,,,,,,,,,,,,,,,,,,,,,,,,,,,,,,,,,,,,,,,,,,,,,,,,,,,,,,,,,,,,,,,,,,,,,,,,,,,,,,,,,,,,,,,,,,,,,,,,,,,,,,,,,
1702629745,85,0,4262.179688,4447.436035,4295.512695,4265.256348,4234.102539,4452.179688,4264.743652,4203.333496,4247.563965,4238.077148,4395,4400.897461,4751.922852,7533.333496,7297,4,85,,,,0,4,4,4,4,4,4,4,4,4,4,4,4,4,2,83.333336,,,,,,,,,,,,,,,,,,,,,,,,,,,,,,,,,,,,,,,,,,,,,,,,,,,,,,,,,,,,,,,,,,,,,,,,,,,,,,,,,,,,,,,,,,,,,,,,,,,,,,,,,,,,,,,,,,,,,,,,,,,,,,,,,,,,,,
1702629745,86,0,4255.897461,4451.282227,4291.922852,4260.128418,4231.410156,4448.974121,4262.563965,4198.077148,4245.128418,4237.820313,4396.666504,4394.487305,4752.94873,7538.846191,5933,4,85,,,,0,4,4,4,4,4,4,4,4,4,4,4,4,4,2,83.333336,,,,,,,,,,,,,,,,,,,,,,,,,,,,,,,,,,,,,,,,,,,,,,,,,,,,,,,,,,,,,,,,,,,,,,,,,,,,,,,,,,,,,,,,,,,,,,,,,,,,,,,,,,,,,,,,,,,,,,,,,,,,,,,,,,,,,,
1702629745,87,0,4260.769043,4452.94873,4295.256348,4269.615234,4226.282227,4417.820313,4262.307617,4200.512695,4254.615234,4246.282227,4401.153809,4407.692383,4765.384766,7547.692383,818,4,85,,,,0,4,4,4,4,4,4,4,4,4,4,4,4,4,2,83.333336,,,,,,,,,,,,,,,,,,,,,,,,,,,,,,,,,,,,,,,,,,,,,,,,,,,,,,,,,,,,,,,,,,,,,,,,,,,,,,,,,,,,,,,,,,,,,,,,,,,,,,,,,,,,,,,,,,,,,,,,,,,,,,,,,,,,,,
1702629745,88,0,4269.487305,4459.102539,4308.846191,4282.05127,4228.589844,4373.461426,4268.205078,4205.384766,4263.333496,4248.461426,4400.128418,4416.153809,4769.871582,7550.641113,6850,4,85,,,,0,4,4,4,4,4,4,4,4,4,4,4,4,4,2,83.333336,,,,,,,,,,,,,,,,,22,0,0.49141,-0.623901,-0.33844,-0.5047,0.966915,-0.237822,0.006348,-13.74108,-5.008916,83.59053,,,,,,,,,,,,,,,,,,,,,,,,,,,,,,,,,,,,,,,,,,,,,,,,,,,,,,,,,,,,,,,,,,,,,,,,,,,,,,,,,,,,,,,,,,,,,,,,,,,,,,,,,,
1702629745,89,0,4266.538574,4467.436035,4312.436035,4279.743652,4237.820313,4355.769043,4276.282227,4209.102539,4263.333496,4249.102539,4397.692383,4411.410156,4768.589844,7549.102539,7297,4,85,,,,0,4,4,4,4,4,4,4,4,4,4,4,4,4,2,83.333336,,,,,,,,,,,,,,,,,,,,,,,,,,,,,,,,,,,,,,,,,,,,,,,,,,,,,,,,,,,,,,,,,,,,,,,,,,,,,,,,,,,,,,,,,,,,,,,,,,,,,,,,,,,,,,,,,,,,,,,,,,,,,,,,,,,,,,
1702629745,90,0,4258.461426,4465.512695,4308.717773,4276.025879,4237.436035,4332.05127,4277.94873,4213.717773,4265,4249.230957,4398.205078,4416.538574,4771.410156,7550.384766,5933,4,85,,,,0,4,4,4,4,4,4,4,4,4,4,4,4,4,2,83.333336,,,,,,,,,,,,,,,,,,,,,,,,,,,,,,,,,,,,,,,,,,,,,,,,,,,,,,,,,,,,,,,,,,,,,,,,,,,,,,,,,,,,,,,,,,,,,,,,,,,,,,,,,,,,,,,,,,,,,,,,,,,,,,,,,,,,,,
1702629745,91,0,4265.384766,4458.205078,4315.512695,4285.641113,4233.717773,4273.974121,4282.179688,4216.666504,4272.563965,4250.512695,4395.256348,4429.487305,4775.384766,7550.512695,818,4,85,,,,0,4,4,4,4,4,4,4,4,4,4,4,4,4,2,83.333336,,,,,,,,,,,,,,,,,,,,,,,,,,,,,,,,,,,,,,,,,,,,,,,,,,,,,,,,,,,,,,,,,,,,,,,,,,,,,,,,,,,,,,,,,,,,,,,,,,,,,,,,,,,,,,,,,,,,,,,,,,,,,,,,,,,,,,
1702629745,92,0,4281.025879,4459.230957,4323.461426,4297.563965,4232.563965,4227.179688,4291.025879,4220.256348,4277.692383,4258.333496,4389.871582,4433.205078,4780.384766,7548.589844,6850,4,85,,,,0,4,4,4,4,4,4,4,4,4,4,4,4,4,2,83.333336,,,,,,,,,,,,,,,,,23,0,0.490885,-0.623474,-0.338623,-0.505615,0.965938,-0.250519,0.008302,-13.783639,-4.774692,83.481476,,,,,,,,,,,,,,,,,,,,,,,,,,,,,,,,,,,,,,,,,,,,,,,,,,,,,,,,,,,,,,,,,,,,,,,,,,,,,,,,,,,,,,,,,,,,,,,,,,,,,,,,,,
1702629745,93,0,4278.589844,4458.205078,4318.205078,4299.358887,4234.743652,4209.487305,4288.077148,4217.436035,4271.794922,4256.025879,4380.128418,4424.871582,4778.589844,7548.974121,7297,4,85,,,,0,4,4,4,4,4,4,4,4,4,4,4,4,4,2,83.333336,,,,,,,,,,,,,,,,,,,,,,,,,,,,,,,,,,,,,,,,,,,,,,,,,,,,,,,,,,,,,,,,,,,,,,,,,,,,,,,,,,,,,,,,,,,,,,,,,,,,,,,,,,,,,,,,,,,,,,,,,,,,,,,,,,,,,,
1702629745,94,0,4263.333496,4448.077148,4307.563965,4294.871582,4242.94873,4191.922852,4277.307617,4205.897461,4262.94873,4241.922852,4363.974121,4410.512695,4766.025879,7549.358887,5933,4,85,,,,0,4,4,4,4,4,4,4,4,4,4,4,4,4,2,83.333336,,,,,,,,,,,,,,,,,,,,,,,,,,,,,,,,,,,,,,,,,,,,,,,,,,,,,,,,,,,,,,,,,,,,,,,,,,,,,,,,,,,,,,,,,,,,,,,,,,,,,,,,,,,,,,,,,,,,,,,,,,,,,,,,,,,,,,
1702629745,95,0,4261.282227,4442.307617,4307.05127,4299.102539,4241.538574,4172.94873,4277.179688,4199.871582,4262.94873,4241.794922,4356.282227,4405.897461,4766.794922,7549.871582,818,4,85,,,,0,4,4,4,4,4,4,4,4,4,4,4,4,4,2,83.333336,,,,,,,,,,,,,,,,,,,,,,,,,,,,,,,,,,,,,,,,,,,,,,,,,,,,,,,,,,,,,,,,,,,,,,,,,,,,,,,,,,,,,,,,,,,,,,,,,,,,,,,,,,,,,,,,,,,,,,,,,,,,,,,,,,,,,,
1702629745,96,0,4267.563965,4444.487305,4311.410156,4309.230957,4229.230957,4173.205078,4277.307617,4201.794922,4266.410156,4245.384766,4357.820313,4403.846191,4779.358887,7551.153809,6850,4,85,,,,0,4,4,4,4,4,4,4,4,4,4,4,4,4,2,83.333336,,,,,,,,,,,,,,,,,24,0,0.49051,-0.623108,-0.338745,-0.506348,0.961543,-0.2471,-0.003418,-13.621942,-4.697222,83.366661,,,,,,,,,,,,,,,,,,,,,,,,,,,,,,,,,,,,,,,,,,,,,,,,,,,,,,,,,,,,,,,,,,,,,,,,,,,,,,,,,,,,,,,,,,,,,,,,,,,,,,,,,,
1702629745,97,0,4265.512695,4442.05127,4305.512695,4312.179688,4235.897461,4152.820313,4273.205078,4201.666504,4266.666504,4244.358887,4354.230957,4398.333496,4781.282227,7551.794922,7297,4,85,,,,0,4,4,4,4,4,4,4,4,4,4,4,4,4,2,83.333336,,,,,,,,,,,,,,,,,,,,,,,,,,,,,,,,,,,,,,,,,,,,,,,,,,,,,,,,,,,,,,,,,37.263004,6.250453,1.696453,0.367358,0.279953,12.131034,3.595442,0.475283,0.276378,0.154687,7.337589,3.069872,0.805464,0.454403,0.270639,12.601899,6.421327,0.84202,0.274409,0.184384,3.043293,1.171741,0.25738,0.173843,0.264542,677.656067,136.222961,46.302086,8.541432,1.208646,1.206809,1.311409,0.434867,0.163267,0.081045,2.502477,2.507069,1.031294,0.184391,0.113389,2.032617,1.902901,0.630829,0.214493,0.188805,2.474318,2.28006,0.761966,0.667469,0.174118,13.769664,3.14676,1.639592,0.427484,0.197488,9.126138,3.815957,1.767983,0.497331,0.272963,24.392767,3.259609,2.959957,0.39527,0.238876,164.862091,64.649422,13.021492,3.19699,0.672093
1702629745,98,0,4260.769043,4433.717773,4294.487305,4309.743652,4252.692383,4048.461426,4274.871582,4195.641113,4265.897461,4244.230957,4343.077148,4395.641113,4776.153809,7552.05127,5933,4,85,,,,0,4,4,4,4,4,4,4,4,4,4,4,4,4,2,83.333336,,,,,,,,,,,,,,,,,,,,,,,,,,,,,,,,,,,,,,,,,,,,,,,,,,,,,,,,,,,,,,,,,,,,,,,,,,,,,,,,,,,,,,,,,,,,,,,,,,,,,,,,,,,,,,,,,,,,,,,,,,,,,,,,,,,,,,
1702629745,99,0,4260.384766,4418.461426,4291.538574,4309.615234,4243.974121,3913.974365,4276.153809,4187.692383,4263.974121,4239.358887,4329.358887,4390.897461,4776.922852,7551.794922,818,4,85,,,,0,4,4,4,4,4,4,4,4,4,4,4,4,4,2,83.333336,,,,,,,,,,,,,,,,,,,,,,,,,,,,,,,,,,,,,,,,,,,,,,,,,,,,,,,,,,,,,,,,,,,,,,,,,,,,,,,,,,,,,,,,,,,,,,,,,,,,,,,,,,,,,,,,,,,,,,,,,,,,,,,,,,,,,,
1702629745,100,0,4260.512695,4399.230957,4294.102539,4314.743652,4232.94873,3829.230713,4272.94873,4183.589844,4261.922852,4233.846191,4318.974121,4385.128418,4777.94873,7552.05127,6850,4,85,,,,0,4,4,4,4,4,4,4,4,4,4,4,4,4,2,83.333336,,,,,,,,,,,,,,,,,25,0,0.490358,-0.622864,-0.338867,-0.506714,0.969357,-0.240264,0.013674,-13.593081,-4.7775,83.596664,,,,,,,,,,,,,,,,,,,,,,,,,,,,,,,,,,,,,,,,,,,,,,,,,,,,,,,,,,,,,,,,,,,,,,,,,,,,,,,,,,,,,,,,,,,,,,,,,,,,,,,,,,
1702629745,101,0,4260,4387.94873,4291.922852,4319.102539,4244.871582,3742.435791,4268.589844,4186.153809,4258.077148,4232.692383,4312.94873,4383.717773,4775.384766,7551.794922,7297,4,85,,,,0,4,4,4,4,4,4,4,4,4,4,4,4,4,2,83.333336,,,,,,,,,,,,,,,,,,,,,,,,,,,,,,,,,,,,,,,,,,,,,,,,,,,,,,,,,,,,,,,,,,,,,,,,,,,,,,,,,,,,,,,,,,,,,,,,,,,,,,,,,,,,,,,,,,,,,,,,,,,,,,,,,,,,,,
1702629745,102,0,4265,4383.205078,4291.922852,4323.717773,4251.410156,3637.692383,4264.230957,4185.256348,4251.025879,4231.794922,4306.794922,4385.384766,4779.871582,7551.794922,5933,4,85,,,,0,4,4,4,4,4,4,4,4,4,4,4,4,4,2,83.333336,,,,,,,,,,,,,,,,,,,,,,,,,,,,,,,,,,,,,,,,,,,,,,,,,,,,,,,,,,,,,,,,,,,,,,,,,,,,,,,,,,,,,,,,,,,,,,,,,,,,,,,,,,,,,,,,,,,,,,,,,,,,,,,,,,,,,,
1702629745,103,0,4281.922852,4378.717773,4301.025879,4332.05127,4244.615234,3611.538574,4263.846191,4183.333496,4251.666504,4236.794922,4312.692383,4395.384766,4802.436035,7553.077148,818,4,85,,,,0,4,4,4,4,4,4,4,4,4,4,4,4,4,2,83.333336,,,,,,,,,,,,,,,,,,,,,,,,,,,,,,,,,,,,,,,,,,,,,,,,,,,,,,,,,,,,,,,,,,,,,,,,,,,,,,,,,,,,,,,,,,,,,,,,,,,,,,,,,,,,,,,,,,,,,,,,,,,,,,,,,,,,,,
1702629745,104,0,4295.897461,4375.641113,4312.563965,4339.230957,4244.102539,3629.487061,4267.820313,4190.128418,4260.256348,4242.307617,4328.589844,4411.666504,4825,7553.461426,6850,4,85,,,,0,4,4,4,4,4,4,4,4,4,4,4,4,4,2,83.333336,,,,,,,,,,,,,,,,,26,0,0.490339,-0.622498,-0.339111,-0.507019,0.96545,-0.233915,0.00586,-13.483772,-4.766417,83.637001,,,,,,,,,,,,,,,,,,,,,,,,,,,,,,,,,,,,,,,,,,,,,,,,,,,,,,,,,,,,,,,,,,,,,,,,,,,,,,,,,,,,,,,,,,,,,,,,,,,,,,,,,,
1702629745,105,0,4303.333496,4380.897461,4320.128418,4345,4253.589844,3586.153809,4267.820313,4192.820313,4255.512695,4235.256348,4329.743652,4413.717773,4826.282227,7552.307617,7297,4,85,,,,0,4,4,4,4,4,4,4,4,4,4,4,4,4,2,83.333336,,,,,,,,,,,,,,,,,,,,,,,,,,,,,,,,,,,,,,,,,,,,,,,,,,,,,,,,,,,,,,,,,,,,,,,,,,,,,,,,,,,,,,,,,,,,,,,,,,,,,,,,,,,,,,,,,,,,,,,,,,,,,,,,,,,,,,
1702629746,106,0,4330,4394.102539,4330,4362.179688,4261.410156,3548.846191,4264.871582,4186.410156,4244.871582,4230.641113,4329.230957,4415.384766,4836.538574,7551.794922,5933,4,85,,,,0,4,4,4,4,4,4,4,4,4,4,4,4,4,2,83.333336,,,,,,,,,,,,,,,,,,,,,,,,,,,,,,,,,,,,,,,,,,,,,,,,,,,,,,,,,,,,,,,,,,,,,,,,,,,,,,,,,,,,,,,,,,,,,,,,,,,,,,,,,,,,,,,,,,,,,,,,,,,,,,,,,,,,,,
1702629746,107,0,4368.333496,4404.358887,4343.461426,4383.974121,4265.641113,3594.743652,4266.922852,4185.641113,4251.410156,4233.589844,4348.717773,4433.589844,4869.358887,7552.179688,818,4,85,,,,0,4,4,4,4,4,4,4,4,4,4,4,4,4,2,83.333336,,,,,,,,,,,,,,,,,,,,,,,,,,,,,,,,,,,,,,,,,,,,,,,,,,,,,,,,,,,,,,,,,,,,,,,,,,,,,,,,,,,,,,,,,,,,,,,,,,,,,,,,,,,,,,,,,,,,,,,,,,,,,,,,,,,,,,
1702629746,108,0,4394.487305,4413.846191,4360.512695,4399.743652,4268.974121,3682.94873,4274.230957,4194.743652,4262.692383,4234.487305,4370,4451.153809,4884.230957,7552.05127,6850,4,85,,,,0,4,4,4,4,4,4,4,4,4,4,4,4,4,2,83.333336,,,,,,,,,,,,,,,,,27,0,0.490431,-0.622192,-0.339172,-0.507263,0.96252,-0.248565,0.00586,-13.385395,-4.706442,83.639969,,,,,,,,,,,,,,,,,,,,,,,,,,,,,,,,,,,,,,,,,,,,,,,,,,,,,,,,,,,,,,,,,,,,,,,,,,,,,,,,,,,,,,,,,,,,,,,,,,,,,,,,,,
1702629746,109,0,4413.974121,4428.974121,4381.922852,4416.410156,4276.794922,3769.102539,4283.333496,4202.820313,4265,4241.794922,4381.153809,4467.692383,4878.974121,7551.922852,7297,4,85,,,,0,4,4,4,4,4,4,4,4,4,4,4,4,4,2,83.333336,,,,,,,,,,,,,,,,,,,,,,,,,,,,,,,,,,,,,,,,,,,,,,,,,,,,,,,,,,,,,,,,,,,,,,,,,,,,,,,,,,,,,,,,,,,,,,,,,,,,,,,,,,,,,,,,,,,,,,,,,,,,,,,,,,,,,,
1702629746,110,0,4423.333496,4434.615234,4390.512695,4418.333496,4283.974121,3838.076904,4283.333496,4202.94873,4261.922852,4248.589844,4386.153809,4476.922852,4875.256348,7552.179688,5933,4,85,,,,0,4,4,4,4,4,4,4,4,4,4,4,4,4,2,83.333336,,,,,,,,,,,,,,,,,,,,,,,,,,,,,,,,,,,,,,,,,,,,,,,,,,,,,,,,,,,,,,,,,,,,,,,,,,,,,,,,,,,,,,,,,,,,,,,,,,,,,,,,,,,,,,,,,,,,,,,,,,,,,,,,,,,,,,
1702629746,111,0,4416.410156,4427.563965,4382.692383,4402.820313,4280.384766,3892.94873,4272.563965,4198.589844,4258.717773,4245.769043,4388.333496,4466.794922,4867.307617,7551.922852,818,4,85,,,,0,4,4,4,4,4,4,4,4,4,4,4,4,4,2,83.333336,,,,,,,,,,,,,,,,,,,,,,,,,,,,,,,,,,,,,,,,,,,,,,,,,,,,,,,,,,,,,,,,,,,,,,,,,,,,,,,,,,,,,,,,,,,,,,,,,,,,,,,,,,,,,,,,,,,,,,,,,,,,,,,,,,,,,,
1702629746,112,0,4415.256348,4427.563965,4378.846191,4399.743652,4276.410156,3948.589844,4265.769043,4197.94873,4259.871582,4242.179688,4395.128418,4461.922852,4861.410156,7552.179688,6850,4,85,,,,0,4,4,4,4,4,4,4,4,4,4,4,4,4,2,83.333336,,,,,,,,,,,,,,,,,28,0,0.490523,-0.62207,-0.339172,-0.507324,0.951288,-0.236845,0.003418,-13.246856,-4.502464,83.609299,,,,,,,,,,,,,,,,,,,,,,,,,,,,,,,,,,,,,,,,,,,,,,,,,,,,,,,,,,,,,,,,,,,,,,,,,,,,,,,,,,,,,,,,,,,,,,,,,,,,,,,,,,
1702629746,113,0,4416.025879,4428.974121,4379.871582,4405.512695,4276.025879,4002.564209,4267.179688,4199.102539,4264.743652,4245.897461,4400.769043,4467.05127,4867.179688,7552.563965,7297,4,85,,,,0,4,4,4,4,4,4,4,4,4,4,4,4,4,2,83.333336,,,,,,,,,,,,,,,,,,,,,,,,,,,,,,,,,,,,,,,,,,,,,,,,,,,,,,,,,,,,,,,,,35.056919,7.519626,1.805631,0.421963,0.321125,12.248397,4.000446,0.510877,0.280101,0.155369,7.00084,3.601968,0.8636,0.475659,0.278464,11.636662,6.948921,0.922218,0.287996,0.209668,2.701014,1.265778,0.287709,0.167509,0.264516,668.755066,159.889816,41.026627,8.454725,1.302854,1.455295,1.54212,0.452113,0.177844,0.081407,3.153093,2.501693,1.138913,0.185462,0.114448,2.326037,1.80106,0.67553,0.222283,0.203337,3.045458,2.375899,0.936176,0.736316,0.17912,17.220261,4.32973,1.910828,0.458066,0.194404,9.606281,4.142675,1.987833,0.539881,0.289135,25.144094,4.700679,3.322256,0.430639,0.266987,214.579514,78.35701,16.988808,3.622846,0.61973
1702629746,114,0,4391.025879,4414.102539,4364.358887,4394.102539,4268.589844,4050.769287,4266.153809,4189.102539,4259.487305,4247.94873,4388.717773,4450.384766,4853.589844,7551.538574,5933,4,85,,,,0,4,4,4,4,4,4,4,4,4,4,4,4,4,2,83.333336,,,,,,,,,,,,,,,,,,,,,,,,,,,,,,,,,,,,,,,,,,,,,,,,,,,,,,,,,,,,,,,,,,,,,,,,,,,,,,,,,,,,,,,,,,,,,,,,,,,,,,,,,,,,,,,,,,,,,,,,,,,,,,,,,,,,,,
1702629746,115,0,4362.05127,4396.153809,4345.769043,4380.256348,4258.589844,4111.153809,4262.692383,4182.820313,4251.538574,4243.461426,4379.230957,4428.717773,4831.922852,7550.256348,818,4,85,,,,0,4,4,4,4,4,4,4,4,4,4,4,4,4,2,83.333336,,,,,,,,,,,,,,,,,,,,,,,,,,,,,,,,,,,,,,,,,,,,,,,,,,,,,,,,,,,,,,,,,,,,,,,,,,,,,,,,,,,,,,,,,,,,,,,,,,,,,,,,,,,,,,,,,,,,,,,,,,,,,,,,,,,,,,
1702629746,116,0,4347.436035,4391.153809,4341.282227,4372.436035,4262.563965,4182.820313,4264.871582,4192.94873,4257.692383,4236.538574,4385.384766,4430.897461,4827.436035,7551.153809,6850,4,85,,,,0,4,4,4,4,4,4,4,4,4,4,4,4,4,2,83.333336,,,,,,,,,,,,,,,,,29,0,0.490657,-0.621582,-0.339417,-0.507629,0.954218,-0.239287,-0.003418,-13.038836,-4.385551,83.731705,,,,,,,,,,,,,,,,,,,,,,,,,,,,,,,,,,,,,,,,,,,,,,,,,,,,,,,,,,,,,,,,,,,,,,,,,,,,,,,,,,,,,,,,,,,,,,,,,,,,,,,,,,
1702629746,117,0,4327.94873,4388.333496,4333.974121,4359.487305,4270.641113,4245.256348,4267.307617,4199.615234,4261.666504,4228.461426,4382.05127,4428.846191,4816.410156,7549.871582,7297,4,85,,,,0,4,4,4,4,4,4,4,4,4,4,4,4,4,2,83.333336,,,,,,,,,,,,,,,,,,,,,,,,,,,,,,,,,,,,,,,,,,,,,,,,,,,,,,,,,,,,,,,,,,,,,,,,,,,,,,,,,,,,,,,,,,,,,,,,,,,,,,,,,,,,,,,,,,,,,,,,,,,,,,,,,,,,,,
1702629746,118,0,4306.153809,4372.94873,4326.025879,4350.897461,4259.615234,4283.461426,4265.897461,4199.102539,4261.025879,4231.153809,4374.743652,4421.410156,4798.333496,7546.794922,5933,4,85,,,,0,4,4,4,4,4,4,4,4,4,4,4,4,4,2,83.333336,,,,,,,,,,,,,,,,,,,,,,,,,,,,,,,,,,,,,,,,,,,,,,,,,,,,,,,,,,,,,,,,,,,,,,,,,,,,,,,,,,,,,,,,,,,,,,,,,,,,,,,,,,,,,,,,,,,,,,,,,,,,,,,,,,,,,,
1702629746,119,0,4298.461426,4359.102539,4324.743652,4351.282227,4252.563965,4300.384766,4266.025879,4201.025879,4264.358887,4233.205078,4377.94873,4424.615234,4790.641113,7545.256348,818,4,85,,,,0,4,4,4,4,4,4,4,4,4,4,4,4,4,2,83.333336,,,,,,,,,,,,,,,,,,,,,,,,,,,,,,,,,,,,,,,,,,,,,,,,,,,,,,,,,,,,,,,,,,,,,,,,,,,,,,,,,,,,,,,,,,,,,,,,,,,,,,,,,,,,,,,,,,,,,,,,,,,,,,,,,,,,,,
1702629746,120,0,4288.717773,4351.794922,4321.025879,4344.615234,4262.05127,4324.358887,4261.666504,4195.128418,4259.871582,4216.025879,4368.717773,4416.666504,4775.384766,7541.410156,6850,4,85,,,,0,4,4,4,4,4,4,4,4,4,4,4,4,4,2,83.333336,,,,,,,,,,,,,,,,,30,0,0.490966,-0.620789,-0.339966,-0.507935,0.96545,-0.243682,0.004883,-13.134953,-4.263663,83.875198,,,,,,,,,,,,,,,,,,,,,,,,,,,,,,,,,,,,,,,,,,,,,,,,,,,,,,,,,,,,,,,,,,,,,,,,,,,,,,,,,,,,,,,,,,,,,,,,,,,,,,,,,,
1702629746,121,0,4267.563965,4338.461426,4307.692383,4328.974121,4263.974121,4349.743652,4252.05127,4181.025879,4243.717773,4199.102539,4345.641113,4391.666504,4751.282227,7536.282227,7297,4,85,,,,0,4,4,4,4,4,4,4,4,4,4,4,4,4,2,83.333336,,,,,,,,,,,,,,,,,,,,,,,,,,,,,,,,,,,,,,,,,,,,,,,,,,,,,,,,,,,,,,,,,,,,,,,,,,,,,,,,,,,,,,,,,,,,,,,,,,,,,,,,,,,,,,,,,,,,,,,,,,,,,,,,,,,,,,
1702629746,122,0,4256.922852,4325.256348,4297.563965,4323.333496,4260.641113,4347.820313,4250.769043,4174.358887,4232.692383,4200,4333.974121,4380.256348,4739.487305,7531.538574,5933,4,85,,,,0,4,4,4,4,4,4,4,4,4,4,4,4,4,2,83.333336,,,,,,,,,,,,,,,,,,,,,,,,,,,,,,,,,,,,,,,,,,,,,,,,,,,,,,,,,,,,,,,,,,,,,,,,,,,,,,,,,,,,,,,,,,,,,,,,,,,,,,,,,,,,,,,,,,,,,,,,,,,,,,,,,,,,,,
1702629746,123,0,4252.179688,4312.820313,4293.846191,4323.077148,4257.563965,4340.128418,4250.897461,4172.179688,4231.153809,4201.538574,4326.794922,4381.666504,4728.974121,7518.589844,818,4,85,,,,0,4,4,4,4,4,4,4,4,4,4,4,4,4,2,83.333336,,,,,,,,,,,,,,,,,,,,,,,,,,,,,,,,,,,,,,,,,,,,,,,,,,,,,,,,,,,,,,,,,,,,,,,,,,,,,,,,,,,,,,,,,,,,,,,,,,,,,,,,,,,,,,,,,,,,,,,,,,,,,,,,,,,,,,
1702629746,124,0,4238.846191,4297.05127,4293.846191,4320.384766,4255.897461,4354.102539,4249.743652,4171.794922,4232.94873,4197.436035,4323.461426,4380.641113,4720.128418,7502.05127,6850,4,85,,,,0,4,4,4,4,4,4,4,4,4,4,4,4,4,2,83.333336,,,,,,,,,,,,,,,,,31,0,0.491608,-0.619995,-0.340576,-0.507874,0.963497,-0.251496,-0.00293,-13.171458,-4.37063,83.871017,,,,,,,,,,,,,,,,,,,,,,,,,,,,,,,,,,,,,,,,,,,,,,,,,,,,,,,,,,,,,,,,,,,,,,,,,,,,,,,,,,,,,,,,,,,,,,,,,,,,,,,,,,
1702629746,125,0,4229.743652,4284.230957,4296.282227,4319.615234,4263.717773,4375.128418,4251.282227,4173.974121,4233.846191,4198.333496,4332.94873,4379.230957,4722.563965,7485.512695,7297,4,85,,,,0,4,4,4,4,4,4,4,4,4,4,4,4,4,2,83.333336,,,,,,,,,,,,,,,,,,,,,,,,,,,,,,,,,,,,,,,,,,,,,,,,,,,,,,,,,,,,,,,,,,,,,,,,,,,,,,,,,,,,,,,,,,,,,,,,,,,,,,,,,,,,,,,,,,,,,,,,,,,,,,,,,,,,,,
1702629746,126,0,4232.436035,4269.230957,4295.641113,4316.153809,4270.641113,4378.974121,4251.794922,4172.563965,4228.077148,4196.794922,4338.077148,4375.897461,4718.333496,7460.256348,5933,4,85,,,,0,4,4,4,4,4,4,4,4,4,4,4,4,4,2,83.333336,,,,,,,,,,,,,,,,,,,,,,,,,,,,,,,,,,,,,,,,,,,,,,,,,,,,,,,,,,,,,,,,,,,,,,,,,,,,,,,,,,,,,,,,,,,,,,,,,,,,,,,,,,,,,,,,,,,,,,,,,,,,,,,,,,,,,,
1702629746,127,0,4235.128418,4247.820313,4300.384766,4313.589844,4259.487305,4343.333496,4255.384766,4176.538574,4228.333496,4196.922852,4344.487305,4380.384766,4716.153809,7434.230957,85,4,85,,,,0,4,4,4,4,4,4,4,4,4,4,4,4,4,2,83.333336,,,,,,,,,,,,,,,,,,,,,,,,,,,,,,,,,,,,,,,,,,,,,,,,,,,,,,,,,,,,,,,,,,,,,,,,,,,,,,,,,,,,,,,,,,,,,,,,,,,,,,,,,,,,,,,,,,,,,,,,,,,,,,,,,,,,,,
1702629746,0,0,4230.641113,4240.641113,4309.358887,4315.256348,4261.922852,4286.538574,4262.94873,4186.922852,4241.282227,4203.589844,4361.666504,4393.974121,4725.769043,7418.461426,5681,4,85,,,,0,4,4,4,4,4,4,4,4,4,4,4,4,4,2,83.333336,,,,,,,,,,,,,,,,,0,0,0.492491,-0.618958,-0.341187,-0.507874,0.954218,-0.236845,-0.002442,-12.970979,-4.233567,83.683914,,,,,,,,,,,,,,,,,,,,,,,,,,,,,,,,,,,,,,,,,,,,,,,,,,,,,,,,,,,,,,,,,,,,,,,,,,,,,,,,,,,,,,,,,,,,,,,,,,,,,,,,,,
1702629746,1,0,4233.974121,4248.333496,4312.94873,4321.666504,4281.153809,4261.538574,4267.563965,4187.692383,4249.871582,4202.563965,4368.589844,4400.384766,4725.641113,7402.436035,5601,4,85,,,,0,4,4,4,4,4,4,4,4,4,4,4,4,4,2,83.333336,,,,,,,,,,,,,,,,,,,,,,,,,,,,,,,,,,,,,,,,,,,,,,,,,,,,,,,,,,,,,,,,,38.073029,8.608215,1.787868,0.455562,0.349611,14.434349,4.330949,0.610501,0.278043,0.166299,7.654691,4.081294,0.851398,0.451416,0.281095,10.872158,6.841008,0.914027,0.28588,0.240547,2.343107,1.273344,0.317198,0.17282,0.255261,649.588989,180.422241,34.810844,8.155317,1.344854,1.749401,1.659183,0.428143,0.178088,0.088542,3.76356,2.449884,1.120281,0.178821,0.118135,2.694938,1.649114,0.657074,0.218169,0.213957,3.648254,2.374683,1.012465,0.724616,0.183701,23.620001,5.880935,1.98708,0.469258,0.193455,10.987317,4.493389,1.991982,0.53394,0.297954,31.383268,6.365873,3.358308,0.455305,0.292208,260.973114,89.5868,19.791056,3.836534,0.525466
1702629746,2,0,4244.358887,4241.666504,4311.538574,4323.717773,4272.563965,4245.128418,4266.666504,4182.563965,4242.692383,4200.128418,4364.230957,4398.461426,4718.077148,7380.641113,5399,4,85,,,,0,4,4,4,4,4,4,4,4,4,4,4,4,4,2,83.333336,,,,,,,,,,,,,,,,,,,,,,,,,,,,,,,,,,,,,,,,,,,,,,,,,,,,,,,,,,,,,,,,,,,,,,,,,,,,,,,,,,,,,,,,,,,,,,,,,,,,,,,,,,,,,,,,,,,,,,,,,,,,,,,,,,,,,,
1702629746,3,0,4243.333496,4236.666504,4307.436035,4316.410156,4261.282227,4178.333496,4264.487305,4181.922852,4233.974121,4201.410156,4367.307617,4394.743652,4722.307617,7361.922852,5382,4,85,,,,0,4,4,4,4,4,4,4,4,4,4,4,4,4,2,83.333336,,,,,,,,,,,,,,,,,,,,,,,,,,,,,,,,,,,,,,,,,,,,,,,,,,,,,,,,,,,,,,,,,,,,,,,,,,,,,,,,,,,,,,,,,,,,,,,,,,,,,,,,,,,,,,,,,,,,,,,,,,,,,,,,,,,,,,
1702629746,4,0,4233.333496,4245.897461,4304.487305,4311.282227,4272.94873,4091.410156,4263.077148,4183.974121,4239.871582,4202.05127,4374.487305,4392.436035,4727.179688,7346.538574,5435,4,85,,,,0,4,4,4,4,4,4,4,4,4,4,4,4,4,2,83.333336,,,,,,,,,,,,,,,,,1,0,0.492969,-0.617737,-0.342163,-0.50824,0.945428,-0.24124,0.005372,-12.857214,-4.093544,83.615524,,,,,,,,,,,,,,,,,,,,,,,,,,,,,,,,,,,,,,,,,,,,,,,,,,,,,,,,,,,,,,,,,,,,,,,,,,,,,,,,,,,,,,,,,,,,,,,,,,,,,,,,,,
1702629746,5,0,4231.153809,4255.897461,4300.641113,4310.769043,4281.282227,4052.435791,4262.179688,4184.615234,4247.94873,4207.436035,4378.205078,4394.102539,4724.230957,7327.94873,5392,4,85,,,,0,4,4,4,4,4,4,4,4,4,4,4,4,4,2,83.333336,,,,,,,,,,,,,,,,,,,,,,,,,,,,,,,,,,,,,,,,,,,,,,,,,,,,,,,,,,,,,,,,,,,,,,,,,,,,,,,,,,,,,,,,,,,,,,,,,,,,,,,,,,,,,,,,,,,,,,,,,,,,,,,,,,,,,,
1702629746,6,0,4232.692383,4267.820313,4296.410156,4307.94873,4278.461426,4057.307617,4260.128418,4186.282227,4248.846191,4216.410156,4387.692383,4398.974121,4729.102539,7310.897461,5125,4,85,,,,0,4,4,4,4,4,4,4,4,4,4,4,4,4,2,83.333336,,,,,,,,,,,,,,,,,,,,,,,,,,,,,,,,,,,,,,,,,,,,,,,,,,,,,,,,,,,,,,,,,,,,,,,,,,,,,,,,,,,,,,,,,,,,,,,,,,,,,,,,,,,,,,,,,,,,,,,,,,,,,,,,,,,,,,
1702629746,7,0,4227.05127,4280.128418,4297.179688,4303.205078,4272.436035,4067.435791,4259.230957,4189.615234,4253.205078,4218.846191,4396.922852,4399.615234,4735.641113,7296.282227,5345,4,85,,,,0,4,4,4,4,4,4,4,4,4,4,4,4,4,2,83.333336,,,,,,,,,,,,,,,,,,,,,,,,,,,,,,,,,,,,,,,,,,,,,,,,,,,,,,,,,,,,,,,,,,,,,,,,,,,,,,,,,,,,,,,,,,,,,,,,,,,,,,,,,,,,,,,,,,,,,,,,,,,,,,,,,,,,,,
1702629746,8,0,4220.641113,4280.897461,4298.974121,4301.153809,4265.769043,4078.718018,4265.256348,4190.897461,4259.743652,4217.820313,4394.487305,4400.128418,4732.307617,7274.102539,5380,4,85,,,,0,4,4,4,4,4,4,4,4,4,4,4,4,4,2,83.333336,,,,,,,,,,,,,,,,,2,0,0.493584,-0.616333,-0.343262,-0.508606,0.943475,-0.24417,-0.003418,-12.854826,-4.067523,83.653969,,,,,,,,,,,,,,,,,,,,,,,,,,,,,,,,,,,,,,,,,,,,,,,,,,,,,,,,,,,,,,,,,,,,,,,,,,,,,,,,,,,,,,,,,,,,,,,,,,,,,,,,,,
1702629746,9,0,4213.589844,4275.512695,4295,4296.538574,4262.179688,4113.461426,4260,4184.615234,4248.846191,4214.871582,4383.974121,4397.563965,4723.589844,7239.487305,5337,4,85,,,,0,4,4,4,4,4,4,4,4,4,4,4,4,4,2,83.333336,,,,,,,,,,,,,,,,,,,,,,,,,,,,,,,,,,,,,,,,,,,,,,,,,,,,,,,,,,,,,,,,,,,,,,,,,,,,,,,,,,,,,,,,,,,,,,,,,,,,,,,,,,,,,,,,,,,,,,,,,,,,,,,,,,,,,,
1702629746,10,0,4211.282227,4282.436035,4293.461426,4293.461426,4262.563965,4175,4250.384766,4181.538574,4236.282227,4207.94873,4381.282227,4391.538574,4715.769043,7204.102539,5945,4,85,,,,0,4,4,4,4,4,4,4,4,4,4,4,4,4,2,83.333336,,,,,,,,,,,,,,,,,,,,,,,,,,,,,,,,,,,,,,,,,,,,,,,,,,,,,,,,,,,,,,,,,,,,,,,,,,,,,,,,,,,,,,,,,,,,,,,,,,,,,,,,,,,,,,,,,,,,,,,,,,,,,,,,,,,,,,
1702629746,11,0,4215.128418,4293.205078,4296.410156,4297.179688,4264.230957,4240.384766,4254.230957,4182.05127,4240,4202.692383,4379.871582,4393.717773,4709.487305,7172.179688,641,4,85,,,,0,4,4,4,4,4,4,4,4,4,4,4,4,4,2,83.333336,,,,,,,,,,,,,,,,,,,,,,,,,,,,,,,,,,,,,,,,,,,,,,,,,,,,,,,,,,,,,,,,,,,,,,,,,,,,,,,,,,,,,,,,,,,,,,,,,,,,,,,,,,,,,,,,,,,,,,,,,,,,,,,,,,,,,,
1702629746,12,0,4207.563965,4294.358887,4292.436035,4293.077148,4265,4296.794922,4257.563965,4176.666504,4241.025879,4201.410156,4365.128418,4396.538574,4702.05127,7138.077148,6858,4,85,,,,0,4,4,4,4,4,4,4,4,4,4,4,4,4,2,83.333336,,,,,,,,,,,,,,,,,3,0,0.4939,-0.614502,-0.34491,-0.509399,0.9508,-0.250031,0.006348,-12.736011,-3.927437,83.571907,,,,,,,,,,,,,,,,,,,,,,,,,,,,,,,,,,,,,,,,,,,,,,,,,,,,,,,,,,,,,,,,,,,,,,,,,,,,,,,,,,,,,,,,,,,,,,,,,,,,,,,,,,
1702629746,13,0,4198.846191,4293.205078,4288.846191,4282.820313,4257.05127,4336.153809,4255.384766,4175.641113,4234.615234,4200.641113,4358.333496,4395.641113,4697.307617,7107.563965,7301,4,85,,,,0,4,4,4,4,4,4,4,4,4,4,4,4,4,2,83.333336,,,,,,,,,,,,,,,,,,,,,,,,,,,,,,,,,,,,,,,,,,,,,,,,,,,,,,,,,,,,,,,,,,,,,,,,,,,,,,,,,,,,,,,,,,,,,,,,,,,,,,,,,,,,,,,,,,,,,,,,,,,,,,,,,,,,,,
1702629746,14,0,4197.94873,4295.512695,4289.743652,4278.589844,4246.794922,4377.436035,4256.666504,4183.205078,4234.358887,4199.487305,4365.769043,4397.692383,4691.538574,7084.743652,5945,4,85,,,,0,4,4,4,4,4,4,4,4,4,4,4,4,4,2,83.333336,,,,,,,,,,,,,,,,,,,,,,,,,,,,,,,,,,,,,,,,,,,,,,,,,,,,,,,,,,,,,,,,,,,,,,,,,,,,,,,,,,,,,,,,,,,,,,,,,,,,,,,,,,,,,,,,,,,,,,,,,,,,,,,,,,,,,,
1702629746,15,0,4192.94873,4301.538574,4284.230957,4277.307617,4245.256348,4412.05127,4263.077148,4186.794922,4241.922852,4200.641113,4370.384766,4400,4687.820313,7065.128418,641,4,85,,,,0,4,4,4,4,4,4,4,4,4,4,4,4,4,2,83.333336,,,,,,,,,,,,,,,,,,,,,,,,,,,,,,,,,,,,,,,,,,,,,,,,,,,,,,,,,,,,,,,,,,,,,,,,,,,,,,,,,,,,,,,,,,,,,,,,,,,,,,,,,,,,,,,,,,,,,,,,,,,,,,,,,,,,,,
1702629746,16,0,4187.820313,4310,4278.974121,4274.871582,4245.384766,4345.512695,4263.205078,4183.205078,4244.230957,4203.717773,4370,4400.384766,4687.307617,7045.128418,0,4,85,,,,0,4,4,4,4,4,4,4,4,4,4,4,4,4,2,83.333336,,,,,,,,,,,,,,,,,4,0,0.494171,-0.613464,-0.345825,-0.509766,0.957148,-0.23831,0.003907,-12.679076,-3.984693,83.514717,,,,,,,,,,,,,,,,,,,,,,,,,,,,,,,,,,,,,,,,,,,,,,,,,,,,,,,,,,,,,,,,,,,,,,,,,,,,,,,,,,,,,,,,,,,,,,,,,,,,,,,,,,
1702629746,17,0,4189.230957,4312.307617,4277.692383,4273.974121,4241.666504,4188.205078,4253.589844,4174.487305,4233.589844,4195.769043,4368.717773,4395.512695,4680.384766,7019.743652,0,4,85,,,,0,4,4,4,4,4,4,4,4,4,4,4,4,4,2,83.333336,1,8.333333,1,1,4,4,4,0,4,4,3,4,1,4,1,0,,,,,,,,,,,,,,,,,,,,,,,,,,,,,,,,,,,,,,,,,,,,,,,,,46.481667,9.321134,1.660851,0.462704,0.359226,19.557961,4.498094,0.767596,0.27001,0.182656,9.619554,4.451556,0.765255,0.38802,0.278173,10.777537,6.139162,0.82589,0.270608,0.26919,2.110644,1.214267,0.33957,0.185227,0.241352,636.782593,192.234177,28.617218,7.605125,1.342807,2.0095,1.648975,0.37652,0.165491,0.100416,4.120853,2.329906,0.971608,0.16121,0.122999,2.966205,1.505233,0.583826,0.199632,0.217493,4.009418,2.281588,0.957175,0.634522,0.186841,32.612907,7.489105,1.833547,0.453125,0.195042,13.33554,4.777107,1.764807,0.479973,0.298216,41.611816,8.046038,3.068763,0.465494,0.311929,293.675873,91.752853,20.269749,3.633794,0.398554
1702629746,18,0,4188.846191,4302.563965,4279.102539,4277.820313,4239.230957,4081.923096,4249.358887,4168.205078,4229.358887,4188.333496,4375.769043,4389.743652,4673.846191,6993.077148,0,4,85,,,,0,4,4,4,4,4,4,4,4,4,4,4,4,4,2,83.333336,,,,,,,,,,,,,,,,,,,,,,,,,,,,,,,,,,,,,,,,,,,,,,,,,,,,,,,,,,,,,,,,,,,,,,,,,,,,,,,,,,,,,,,,,,,,,,,,,,,,,,,,,,,,,,,,,,,,,,,,,,,,,,,,,,,,,,
1702629746,19,0,4190.897461,4295.512695,4283.589844,4281.025879,4243.717773,4055.256348,4255.128418,4171.666504,4239.230957,4197.307617,4391.153809,4391.666504,4675.256348,6970.641113,0,4,85,,,,0,4,4,4,4,4,4,4,4,4,4,4,4,4,2,83.333336,,,,,,,,,,,,,,,,,,,,,,,,,,,,,,,,,,,,,,,,,,,,,,,,,,,,,,,,,,,,,,,,,,,,,,,,,,,,,,,,,,,,,,,,,,,,,,,,,,,,,,,,,,,,,,,,,,,,,,,,,,,,,,,,,,,,,,
1702629746,20,0,4200.512695,4299.871582,4285.897461,4282.179688,4251.794922,4043.846191,4253.717773,4175,4241.538574,4203.717773,4400.769043,4400.897461,4676.794922,6948.205078,0,4,85,,,,0,4,4,4,4,4,4,4,4,4,4,4,4,4,2,83.333336,,,,,,,,,,,,,,,,,5,0,0.494729,-0.611145,-0.347778,-0.510681,0.952265,-0.234404,0.01172,-12.594501,-4.069557,83.513245,,,,,,,,,,,,,,,,,,,,,,,,,,,,,,,,,,,,,,,,,,,,,,,,,,,,,,,,,,,,,,,,,,,,,,,,,,,,,,,,,,,,,,,,,,,,,,,,,,,,,,,,,,
1702629746,21,0,4198.589844,4296.666504,4280.769043,4279.743652,4246.666504,4050,4246.538574,4171.794922,4233.461426,4199.487305,4404.102539,4400,4673.717773,6920.769043,0,4,85,,,,0,4,4,4,4,4,4,4,4,4,4,4,4,4,2,83.333336,,,,,,,,,,,,,,,,,,,,,,,,,,,,,,,,,,,,,,,,,,,,,,,,,,,,,,,,,,,,,,,,,,,,,,,,,,,,,,,,,,,,,,,,,,,,,,,,,,,,,,,,,,,,,,,,,,,,,,,,,,,,,,,,,,,,,,
1702629746,22,0,4191.538574,4290.769043,4276.666504,4279.743652,4238.589844,4069.487061,4246.538574,4169.358887,4234.871582,4203.205078,4411.153809,4387.563965,4674.487305,6902.179688,0,4,85,,,,0,4,4,4,4,4,4,4,4,4,4,4,4,4,2,83.333336,,,,,,,,,,,,,,,,,,,,,,,,,,,,,,,,,,,,,,,,,,,,,,,,,,,,,,,,,,,,,,,,,,,,,,,,,,,,,,,,,,,,,,,,,,,,,,,,,,,,,,,,,,,,,,,,,,,,,,,,,,,,,,,,,,,,,,
1702629746,23,0,4204.230957,4300.128418,4280,4290,4247.563965,4075.256348,4242.05127,4166.538574,4234.102539,4203.717773,4415.128418,4384.743652,4676.282227,6892.563965,0,4,85,,,,0,4,4,4,4,4,4,4,4,4,4,4,4,4,2,83.333336,,,,,,,,,,,,,,,,,,,,,,,,,,,,,,,,,,,,,,,,,,,,,,,,,,,,,,,,,,,,,,,,,,,,,,,,,,,,,,,,,,,,,,,,,,,,,,,,,,,,,,,,,,,,,,,,,,,,,,,,,,,,,,,,,,,,,,
1702629746,24,0,4217.179688,4301.666504,4281.538574,4297.563965,4251.410156,4095,4238.974121,4165,4231.282227,4199.230957,4413.205078,4395.256348,4674.358887,6869.871582,0,4,85,,,,0,4,4,4,4,4,4,4,4,4,4,4,4,4,2,83.333336,,,,,,,,,,,,,,,,,6,0,0.495701,-0.608887,-0.349365,-0.511353,0.967892,-0.23245,0.015627,-12.468385,-3.945935,83.461922,,,,,,,,,,,,,,,,,,,,,,,,,,,,,,,,,,,,,,,,,,,,,,,,,,,,,,,,,,,,,,,,,,,,,,,,,,,,,,,,,,,,,,,,,,,,,,,,,,,,,,,,,,
1702629746,25,0,4209.102539,4286.153809,4281.153809,4295.512695,4246.538574,4135.384766,4245.897461,4168.205078,4238.205078,4208.846191,4413.974121,4395.897461,4677.692383,6833.846191,0,4,85,,,,0,4,4,4,4,4,4,4,4,4,4,4,4,4,2,83.333336,,,,,,,,,,,,,,,,,,,,,,,,,,,,,,,,,,,,,,,,,,,,,,,,,,,,,,,,,,,,,,,,,,,,,,,,,,,,,,,,,,,,,,,,,,,,,,,,,,,,,,,,,,,,,,,,,,,,,,,,,,,,,,,,,,,,,,
1702629746,26,0,4197.436035,4278.589844,4279.358887,4292.692383,4248.205078,4175.512695,4246.538574,4167.692383,4240.384766,4213.974121,4414.871582,4381.410156,4684.871582,6794.230957,0,4,85,,,,0,4,4,4,4,4,4,4,4,4,4,4,4,4,2,83.333336,,,,,,,,,,,,,,,,,,,,,,,,,,,,,,,,,,,,,,,,,,,,,,,,,,,,,,,,,,,,,,,,,,,,,,,,,,,,,,,,,,,,,,,,,,,,,,,,,,,,,,,,,,,,,,,,,,,,,,,,,,,,,,,,,,,,,,
1702629746,27,0,4201.794922,4279.871582,4278.461426,4294.102539,4243.077148,4224.615234,4244.358887,4162.307617,4232.94873,4204.871582,4412.563965,4376.794922,4689.102539,6752.94873,0,4,85,,,,0,4,4,4,4,4,4,4,4,4,4,4,4,4,2,83.333336,,,,,,,,,,,,,,,,,,,,,,,,,,,,,,,,,,,,,,,,,,,,,,,,,,,,,,,,,,,,,,,,,,,,,,,,,,,,,,,,,,,,,,,,,,,,,,,,,,,,,,,,,,,,,,,,,,,,,,,,,,,,,,,,,,,,,,
1702629746,28,0,4209.102539,4285,4282.05127,4294.743652,4238.717773,4283.333496,4242.692383,4158.846191,4231.153809,4201.153809,4411.410156,4381.666504,4688.205078,6710,0,4,85,,,,0,4,4,4,4,4,4,4,4,4,4,4,4,4,2,83.333336,,,,,,,,,,,,,,,,,7,0,0.496804,-0.606995,-0.350464,-0.51178,0.945428,-0.227078,0.022464,-12.388213,-3.684675,83.36573,,,,,,,,,,,,,,,,,,,,,,,,,,,,,,,,,,,,,,,,,,,,,,,,,,,,,,,,,,,,,,,,,,,,,,,,,,,,,,,,,,,,,,,,,,,,,,,,,,,,,,,,,,
1702629746,29,0,4212.94873,4299.230957,4284.230957,4295.897461,4245.256348,4333.077148,4236.025879,4156.025879,4232.563965,4206.922852,4416.922852,4378.205078,4695.256348,6676.922852,0,4,85,,,,0,4,4,4,4,4,4,4,4,4,4,4,4,4,2,83.333336,,,,,,,,,,,,,,,,,,,,,,,,,,,,,,,,,,,,,,,,,,,,,,,,,,,,,,,,,,,,,,,,,,,,,,,,,,,,,,,,,,,,,,,,,,,,,,,,,,,,,,,,,,,,,,,,,,,,,,,,,,,,,,,,,,,,,,
1702629746,30,0,4228.589844,4300.897461,4290,4295.256348,4242.563965,4365,4238.461426,4155.128418,4232.179688,4214.487305,4433.974121,4382.179688,4719.487305,6666.666504,0,4,85,,,,0,4,4,4,4,4,4,4,4,4,4,4,4,4,2,83.333336,,,,,,,,,,,,,,,,,,,,,,,,,,,,,,,,,,,,,,,,,,,,,,,,,,,,,,,,,,,,,,,,,,,,,,,,,,,,,,,,,,,,,,,,,,,,,,,,,,,,,,,,,,,,,,,,,,,,,,,,,,,,,,,,,,,,,,
1702629746,31,0,4246.025879,4291.153809,4302.820313,4293.205078,4229.615234,4367.179688,4246.410156,4161.025879,4232.820313,4217.05127,4449.487305,4396.666504,4734.358887,6656.410156,0,4,85,,,,0,4,4,4,4,4,4,4,4,4,4,4,4,4,2,83.333336,,,,,,,,,,,,,,,,,,,,,,,,,,,,,,,,,,,,,,,,,,,,,,,,,,,,,,,,,,,,,,,,,,,,,,,,,,,,,,,,,,,,,,,,,,,,,,,,,,,,,,,,,,,,,,,,,,,,,,,,,,,,,,,,,,,,,,
1702629746,32,0,4257.820313,4304.871582,4310.897461,4302.179688,4226.410156,4345.769043,4238.333496,4166.282227,4232.05127,4214.871582,4455.641113,4403.974121,4738.205078,6619.871582,0,4,85,,,,0,4,4,4,4,4,4,4,4,4,4,4,4,4,2,83.333336,,,,,,,,,,,,,,,,,8,0,0.497787,-0.605591,-0.351318,-0.511902,0.973263,-0.251984,0.03223,-12.249392,-3.766207,83.329155,,,,,,,,,,,,,,,,,,,,,,,,,,,,,,,,,,,,,,,,,,,,,,,,,,,,,,,,,,,,,,,,,,,,,,,,,,,,,,,,,,,,,,,,,,,,,,,,,,,,,,,,,,
1702629746,33,0,4283.205078,4325.769043,4315.897461,4314.615234,4233.461426,4336.153809,4233.461426,4165.897461,4231.410156,4213.717773,4466.922852,4411.410156,4759.102539,6580.512695,0,4,85,,,,0,4,4,4,4,4,4,4,4,4,4,4,4,4,2,83.333336,,,,,,,,,,,,,,,,,,,,,,,,,,,,,,,,,,,,,,,,,,,,,,,,,,,,,,,,,,,,,,,,,58.706612,9.678168,1.475891,0.443788,0.350642,27.93675,4.519377,0.929735,0.25854,0.197396,12.92542,4.715443,0.64244,0.30437,0.269848,11.599355,5.096789,0.69683,0.251525,0.287895,2.073408,1.130732,0.348217,0.195867,0.230153,653.574585,193.480896,23.366882,6.977507,1.338348,2.187822,1.53913,0.327712,0.146899,0.113213,4.110829,2.149603,0.753267,0.140394,0.127308,3.100063,1.412392,0.490241,0.174069,0.214054,4.033112,2.112972,0.788185,0.499382,0.188043,42.719769,8.714523,1.50819,0.418915,0.198602,16.550205,4.965404,1.394096,0.40199,0.292507,52.546288,9.464651,2.573649,0.465385,0.325558,269.035858,81.617653,18.13681,3.023643,0.267687
1702629746,34,0,4319.102539,4325.128418,4329.743652,4314.102539,4244.615234,4361.153809,4244.358887,4166.025879,4233.333496,4215.769043,4485,4426.025879,4785.769043,6565.128418,0,4,85,,,,0,4,4,4,4,4,4,4,4,4,4,4,4,4,2,83.333336,,,,,,,,,,,,,,,,,,,,,,,,,,,,,,,,,,,,,,,,,,,,,,,,,,,,,,,,,,,,,,,,,,,,,,,,,,,,,,,,,,,,,,,,,,,,,,,,,,,,,,,,,,,,,,,,,,,,,,,,,,,,,,,,,,,,,,
1702629746,35,0,4343.717773,4323.205078,4347.05127,4310,4251.666504,4407.563965,4246.794922,4169.871582,4236.153809,4220.256348,4503.077148,4440.384766,4798.974121,6558.589844,0,4,85,,,,0,4,4,4,4,4,4,4,4,4,4,4,4,4,2,83.333336,,,,,,,,,,,,,,,,,,,,,,,,,,,,,,,,,,,,,,,,,,,,,,,,,,,,,,,,,,,,,,,,,,,,,,,,,,,,,,,,,,,,,,,,,,,,,,,,,,,,,,,,,,,,,,,,,,,,,,,,,,,,,,,,,,,,,,
1702629746,36,0,4355.897461,4327.05127,4354.358887,4309.743652,4248.077148,4445.384766,4235.641113,4167.820313,4235.769043,4217.94873,4509.615234,4445.512695,4802.692383,6540.512695,0,4,85,,,,0,4,4,4,4,4,4,4,4,4,4,4,4,4,2,83.333336,,,,,,,,,,,,,,,,,9,0,0.498296,-0.604248,-0.351929,-0.512573,0.960566,-0.215358,0.030277,-12.157785,-3.62292,83.37957,,,,,,,,,,,,,,,,,,,,,,,,,,,,,,,,,,,,,,,,,,,,,,,,,,,,,,,,,,,,,,,,,,,,,,,,,,,,,,,,,,,,,,,,,,,,,,,,,,,,,,,,,,
1702629746,37,0,4367.436035,4326.025879,4359.743652,4312.05127,4248.846191,4476.410156,4240.512695,4167.820313,4234.358887,4214.871582,4512.307617,4449.358887,4803.077148,6517.692383,0,4,85,,,,0,4,4,4,4,4,4,4,4,4,4,4,4,4,2,83.333336,,,,,,,,,,,,,,,,,,,,,,,,,,,,,,,,,,,,,,,,,,,,,,,,,,,,,,,,,,,,,,,,,,,,,,,,,,,,,,,,,,,,,,,,,,,,,,,,,,,,,,,,,,,,,,,,,,,,,,,,,,,,,,,,,,,,,,
1702629746,38,0,4375.897461,4327.179688,4372.94873,4320.897461,4253.333496,4518.205078,4258.717773,4178.461426,4238.461426,4225.897461,4531.794922,4461.922852,4804.487305,6495.384766,0,4,85,,,,0,4,4,4,4,4,4,4,4,4,4,4,4,4,2,83.333336,,,,,,,,,,,,,,,,,,,,,,,,,,,,,,,,,,,,,,,,,,,,,,,,,,,,,,,,,,,,,,,,,,,,,,,,,,,,,,,,,,,,,,,,,,,,,,,,,,,,,,,,,,,,,,,,,,,,,,,,,,,,,,,,,,,,,,
1702629746,39,0,4368.205078,4320.128418,4374.358887,4318.077148,4248.974121,4560.256348,4258.717773,4179.871582,4239.230957,4228.589844,4545.769043,4465.641113,4801.025879,6455.641113,0,4,85,,,,0,4,4,4,4,4,4,4,4,4,4,4,4,4,2,83.333336,,,,,,,,,,,,,,,,,,,,,,,,,,,,,,,,,,,,,,,,,,,,,,,,,,,,,,,,,,,,,,,,,,,,,,,,,,,,,,,,,,,,,,,,,,,,,,,,,,,,,,,,,,,,,,,,,,,,,,,,,,,,,,,,,,,,,,
1702629746,40,0,4341.282227,4293.461426,4355.897461,4290.128418,4247.820313,4594.615234,4245.384766,4165.512695,4230.897461,4211.153809,4525.128418,4444.743652,4777.692383,6394.487305,0,4,85,,,,0,4,4,4,4,4,4,4,4,4,4,4,4,4,2,83.333336,,,,,,,,,,,,,,,,,10,0,0.498469,-0.603088,-0.352783,-0.513184,0.956171,-0.221218,0.030277,-12.058674,-3.643961,83.441612,,,,,,,,,,,,,,,,,,,,,,,,,,,,,,,,,,,,,,,,,,,,,,,,,,,,,,,,,,,,,,,,,,,,,,,,,,,,,,,,,,,,,,,,,,,,,,,,,,,,,,,,,,
1702629746,41,0,4308.589844,4267.307617,4338.717773,4267.179688,4246.025879,4636.538574,4244.102539,4154.615234,4215.641113,4195.769043,4494.743652,4417.563965,4747.820313,6340.512695,0,4,85,,,,0,4,4,4,4,4,4,4,4,4,4,4,4,4,2,83.333336,,,,,,,,,,,,,,,,,,,,,,,,,,,,,,,,,,,,,,,,,,,,,,,,,,,,,,,,,,,,,,,,,,,,,,,,,,,,,,,,,,,,,,,,,,,,,,,,,,,,,,,,,,,,,,,,,,,,,,,,,,,,,,,,,,,,,,
1702629746,42,0,4282.94873,4248.205078,4329.230957,4259.102539,4235.128418,4678.846191,4249.230957,4148.717773,4202.436035,4185.897461,4481.282227,4400.769043,4730.641113,6305.769043,0,4,85,,,,0,4,4,4,4,4,4,4,4,4,4,4,4,4,2,83.333336,,,,,,,,,,,,,,,,,,,,,,,,,,,,,,,,,,,,,,,,,,,,,,,,,,,,,,,,,,,,,,,,,,,,,,,,,,,,,,,,,,,,,,,,,,,,,,,,,,,,,,,,,,,,,,,,,,,,,,,,,,,,,,,,,,,,,,
1702629746,43,0,4264.230957,4233.333496,4317.307617,4251.025879,4228.205078,4693.717773,4248.589844,4141.282227,4200,4178.589844,4473.717773,4388.333496,4714.487305,6270.769043,0,4,85,,,,0,4,4,4,4,4,4,4,4,4,4,4,4,4,2,83.333336,,,,,,,,,,,,,,,,,,,,,,,,,,,,,,,,,,,,,,,,,,,,,,,,,,,,,,,,,,,,,,,,,,,,,,,,,,,,,,,,,,,,,,,,,,,,,,,,,,,,,,,,,,,,,,,,,,,,,,,,,,,,,,,,,,,,,,
1702629746,44,0,4245.256348,4227.94873,4303.589844,4241.282227,4233.461426,4684.102539,4242.563965,4137.692383,4200.384766,4176.794922,4460.769043,4374.358887,4695.512695,6214.230957,0,4,85,,,,0,4,4,4,4,4,4,4,4,4,4,4,4,4,2,83.333336,,,,,,,,,,,,,,,,,11,0,0.49866,-0.602417,-0.353394,-0.513367,0.994262,-0.22073,0.029789,-12.019473,-3.546232,83.34745,,,,,,,,,,,,,,,,,,,,,,,,,,,,,,,,,,,,,,,,,,,,,,,,,,,,,,,,,,,,,,,,,,,,,,,,,,,,,,,,,,,,,,,,,,,,,,,,,,,,,,,,,,
1702629746,45,0,4224.871582,4226.922852,4295.256348,4228.461426,4232.436035,4680.256348,4232.179688,4136.922852,4195.897461,4169.615234,4443.461426,4361.538574,4684.358887,6133.589844,0,4,85,,,,0,4,4,4,4,4,4,4,4,4,4,4,4,4,2,83.333336,,,,,,,,,,,,,,,,,,,,,,,,,,,,,,,,,,,,,,,,,,,,,,,,,,,,,,,,,,,,,,,,,,,,,,,,,,,,,,,,,,,,,,,,,,,,,,,,,,,,,,,,,,,,,,,,,,,,,,,,,,,,,,,,,,,,,,
1702629746,46,0,4215.897461,4224.871582,4290.256348,4219.615234,4222.05127,4695.897461,4227.692383,4133.333496,4194.230957,4163.461426,4431.922852,4355.641113,4679.102539,6017.436035,0,4,85,,,,0,4,4,4,4,4,4,4,4,4,4,4,4,4,2,83.333336,,,,,,,,,,,,,,,,,,,,,,,,,,,,,,,,,,,,,,,,,,,,,,,,,,,,,,,,,,,,,,,,,,,,,,,,,,,,,,,,,,,,,,,,,,,,,,,,,,,,,,,,,,,,,,,,,,,,,,,,,,,,,,,,,,,,,,
1702629746,47,0,4212.94873,4227.436035,4285,4212.820313,4217.820313,4710.641113,4226.666504,4127.307617,4192.436035,4169.615234,4426.153809,4352.05127,4666.282227,5828.717773,0,4,85,,,,0,4,4,4,4,4,4,4,4,4,4,4,4,4,2,83.333336,,,,,,,,,,,,,,,,,,,,,,,,,,,,,,,,,,,,,,,,,,,,,,,,,,,,,,,,,,,,,,,,,,,,,,,,,,,,,,,,,,,,,,,,,,,,,,,,,,,,,,,,,,,,,,,,,,,,,,,,,,,,,,,,,,,,,,
1702629746,48,0,4201.410156,4227.563965,4276.282227,4194.358887,4214.615234,4710,4218.589844,4119.487305,4181.794922,4168.974121,4414.102539,4340.769043,4646.025879,5590.128418,0,4,85,,,,0,4,4,4,4,4,4,4,4,4,4,4,4,4,2,83.333336,,,,,,,,,,,,,,,,,12,0,0.498647,-0.602356,-0.353516,-0.513367,0.983518,-0.215847,0.037114,-11.85086,-3.374942,83.49604,,,,,,,,,,,,,,,,,,,,,,,,,,,,,,,,,,,,,,,,,,,,,,,,,,,,,,,,,,,,,,,,,,,,,,,,,,,,,,,,,,,,,,,,,,,,,,,,,,,,,,,,,,
1702629746,49,0,4195.769043,4226.922852,4276.153809,4180.897461,4209.615234,4716.922852,4219.615234,4124.358887,4186.538574,4171.153809,4415.769043,4339.230957,4641.922852,5405.512695,0,4,85,,,,0,4,4,4,4,4,4,4,4,4,4,4,4,4,2,83.333336,,,,,,,,,,,,,,,,,,,,,,,,,,,,,,,,,,,,,,,,,,,,,,,,,,,,,,,,,,,,,,,,,71.0756,9.582596,1.303549,0.404995,0.330172,37.34161,4.434955,1.044439,0.247675,0.204806,17.041229,4.819394,0.546172,0.223671,0.255748,13.236272,4.025614,0.575491,0.239426,0.290825,2.258828,1.058473,0.340448,0.200206,0.228951,694.857971,189.71492,19.271358,6.62215,1.393026,2.254054,1.38021,0.308821,0.130436,0.122966,3.847692,1.926814,0.552831,0.128733,0.129366,3.105865,1.361405,0.41866,0.155031,0.207225,3.902965,1.885711,0.571848,0.366408,0.186727,51.303333,9.134975,1.152597,0.385713,0.202642,20.169905,4.972197,1.028949,0.33384,0.28484,60.979134,10.184258,2.039492,0.460283,0.332734,229.10878,62.03167,14.048678,2.180289,0.160255
1702629746,50,0,4197.436035,4238.589844,4289.615234,4181.794922,4207.05127,4737.692383,4231.666504,4142.179688,4209.615234,4185.897461,4433.461426,4356.153809,4649.487305,5300.769043,0,4,85,,,,0,4,4,4,4,4,4,4,4,4,4,4,4,4,2,83.333336,,,,,,,,,,,,,,,,,,,,,,,,,,,,,,,,,,,,,,,,,,,,,,,,,,,,,,,,,,,,,,,,,,,,,,,,,,,,,,,,,,,,,,,,,,,,,,,,,,,,,,,,,,,,,,,,,,,,,,,,,,,,,,,,,,,,,,
1702629746,51,0,4195.897461,4258.205078,4296.922852,4176.153809,4211.538574,4758.846191,4235.512695,4148.077148,4216.282227,4187.436035,4436.410156,4368.589844,4641.538574,5215.512695,0,4,85,,,,0,4,4,4,4,4,4,4,4,4,4,4,4,4,2,83.333336,,,,,,,,,,,,,,,,,,,,,,,,,,,,,,,,,,,,,,,,,,,,,,,,,,,,,,,,,,,,,,,,,,,,,,,,,,,,,,,,,,,,,,,,,,,,,,,,,,,,,,,,,,,,,,,,,,,,,,,,,,,,,,,,,,,,,,
1702629746,52,0,4195.384766,4271.153809,4293.717773,4162.94873,4214.615234,4768.333496,4234.487305,4140.512695,4204.615234,4178.461426,4426.922852,4366.410156,4621.025879,5132.179688,0,4,85,,,,0,4,4,4,4,4,4,4,4,4,4,4,4,4,2,83.333336,,,,,,,,,,,,,,,,,13,0,0.498719,-0.602173,-0.353638,-0.513428,0.970333,-0.223172,0.021975,-11.865773,-3.304114,83.54644,,,,,,,,,,,,,,,,,,,,,,,,,,,,,,,,,,,,,,,,,,,,,,,,,,,,,,,,,,,,,,,,,,,,,,,,,,,,,,,,,,,,,,,,,,,,,,,,,,,,,,,,,,
1702629746,53,0,4193.461426,4274.871582,4290.128418,4158.461426,4207.179688,4751.153809,4235.256348,4137.94873,4197.563965,4175.512695,4423.077148,4358.846191,4605.641113,5059.230957,0,4,85,,,,0,4,4,4,4,4,4,4,4,4,4,4,4,4,2,83.333336,,,,,,,,,,,,,,,,,,,,,,,,,,,,,,,,,,,,,,,,,,,,,,,,,,,,,,,,,,,,,,,,,,,,,,,,,,,,,,,,,,,,,,,,,,,,,,,,,,,,,,,,,,,,,,,,,,,,,,,,,,,,,,,,,,,,,,
1702629746,54,0,4188.461426,4276.666504,4291.538574,4158.846191,4205.769043,4724.230957,4234.743652,4141.538574,4199.743652,4175.769043,4423.077148,4357.563965,4599.102539,4992.563965,0,4,85,,,,0,4,4,4,4,4,4,4,4,4,4,4,4,4,2,83.333336,,,,,,,,,,,,,,,,,,,,,,,,,,,,,,,,,,,,,,,,,,,,,,,,,,,,,,,,,,,,,,,,,,,,,,,,,,,,,,,,,,,,,,,,,,,,,,,,,,,,,,,,,,,,,,,,,,,,,,,,,,,,,,,,,,,,,,
1702629746,55,0,4190.641113,4283.077148,4292.05127,4159.743652,4216.282227,4695.769043,4236.666504,4139.743652,4198.717773,4168.205078,4420.128418,4360.256348,4590,4937.563965,0,4,85,,,,0,4,4,4,4,4,4,4,4,4,4,4,4,4,2,83.333336,,,,,,,,,,,,,,,,,,,,,,,,,,,,,,,,,,,,,,,,,,,,,,,,,,,,,,,,,,,,,,,,,,,,,,,,,,,,,,,,,,,,,,,,,,,,,,,,,,,,,,,,,,,,,,,,,,,,,,,,,,,,,,,,,,,,,,
1702629746,56,0,4185,4277.820313,4282.05127,4153.205078,4212.563965,4643.717773,4238.333496,4133.974121,4187.820313,4155.897461,4408.717773,4351.410156,4570.512695,4887.307617,0,4,85,,,,0,4,4,4,4,4,4,4,4,4,4,4,4,4,2,83.333336,,,,,,,,,,,,,,,,,14,0,0.498499,-0.602478,-0.353516,-0.513367,0.964962,-0.21194,0.025882,-11.86253,-3.173703,83.458458,,,,,,,,,,,,,,,,,,,,,,,,,,,,,,,,,,,,,,,,,,,,,,,,,,,,,,,,,,,,,,,,,,,,,,,,,,,,,,,,,,,,,,,,,,,,,,,,,,,,,,,,,,
1702629746,57,0,4171.153809,4264.230957,4274.102539,4143.333496,4191.153809,4585.128418,4234.743652,4134.743652,4184.743652,4157.436035,4400.256348,4342.820313,4556.538574,4845.256348,0,4,85,,,,0,4,4,4,4,4,4,4,4,4,4,4,4,4,2,83.333336,,,,,,,,,,,,,,,,,,,,,,,,,,,,,,,,,,,,,,,,,,,,,,,,,,,,,,,,,,,,,,,,,,,,,,,,,,,,,,,,,,,,,,,,,,,,,,,,,,,,,,,,,,,,,,,,,,,,,,,,,,,,,,,,,,,,,,
1702629746,58,0,4169.487305,4272.05127,4271.282227,4140.641113,4193.846191,4555.769043,4231.410156,4138.846191,4192.820313,4164.358887,4400.384766,4342.307617,4546.410156,4821.538574,0,4,85,,,,0,4,4,4,4,4,4,4,4,4,4,4,4,4,2,83.333336,,,,,,,,,,,,,,,,,,,,,,,,,,,,,,,,,,,,,,,,,,,,,,,,,,,,,,,,,,,,,,,,,,,,,,,,,,,,,,,,,,,,,,,,,,,,,,,,,,,,,,,,,,,,,,,,,,,,,,,,,,,,,,,,,,,,,,
1702629746,59,0,4167.179688,4290.256348,4264.615234,4133.205078,4206.666504,4533.333496,4231.794922,4136.666504,4193.077148,4162.05127,4394.615234,4337.563965,4522.05127,4807.179688,0,4,85,,,,0,4,4,4,4,4,4,4,4,4,4,4,4,4,2,83.333336,,,,,,,,,,,,,,,,,,,,,,,,,,,,,,,,,,,,,,,,,,,,,,,,,,,,,,,,,,,,,,,,,,,,,,,,,,,,,,,,,,,,,,,,,,,,,,,,,,,,,,,,,,,,,,,,,,,,,,,,,,,,,,,,,,,,,,
1702629746,60,0,4157.307617,4293.077148,4259.487305,4122.94873,4193.846191,4469.487305,4232.563965,4137.179688,4191.538574,4165.256348,4385.384766,4337.94873,4490.641113,4803.589844,0,4,85,,,,0,4,4,4,4,4,4,4,4,4,4,4,4,4,2,83.333336,,,,,,,,,,,,,,,,,15,0,0.498625,-0.603027,-0.352844,-0.513062,0.956171,-0.199243,0.017092,-11.876276,-3.239666,83.562614,,,,,,,,,,,,,,,,,,,,,,,,,,,,,,,,,,,,,,,,,,,,,,,,,,,,,,,,,,,,,,,,,,,,,,,,,,,,,,,,,,,,,,,,,,,,,,,,,,,,,,,,,,
1702629746,61,0,4153.974121,4294.871582,4258.077148,4118.205078,4181.538574,4390,4231.153809,4144.102539,4201.538574,4172.436035,4383.589844,4345.512695,4459.615234,4810.641113,0,4,85,,,,0,4,4,4,4,4,4,4,4,4,4,4,4,4,2,83.333336,,,,,,,,,,,,,,,,,,,,,,,,,,,,,,,,,,,,,,,,,,,,,,,,,,,,,,,,,,,,,,,,,,,,,,,,,,,,,,,,,,,,,,,,,,,,,,,,,,,,,,,,,,,,,,,,,,,,,,,,,,,,,,,,,,,,,,
1702629746,62,0,4155.256348,4298.333496,4251.538574,4112.307617,4184.102539,4346.794922,4229.102539,4139.743652,4203.205078,4164.102539,4376.410156,4337.179688,4411.666504,4802.820313,0,4,85,,,,0,4,4,4,4,4,4,4,4,4,4,4,4,4,2,83.333336,,,,,,,,,,,,,,,,,,,,,,,,,,,,,,,,,,,,,,,,,,,,,,,,,,,,,,,,,,,,,,,,,,,,,,,,,,,,,,,,,,,,,,,,,,,,,,,,,,,,,,,,,,,,,,,,,,,,,,,,,,,,,,,,,,,,,,
1702629746,63,0,4147.179688,4290.641113,4243.333496,4099.871582,4184.358887,4311.410156,4228.333496,4126.538574,4187.94873,4150.641113,4361.153809,4321.794922,4354.102539,4779.743652,0,4,85,,,,0,4,4,4,4,4,4,4,4,4,4,4,4,4,2,83.333336,,,,,,,,,,,,,,,,,,,,,,,,,,,,,,,,,,,,,,,,,,,,,,,,,,,,,,,,,,,,,,,,,,,,,,,,,,,,,,,,,,,,,,,,,,,,,,,,,,,,,,,,,,,,,,,,,,,,,,,,,,,,,,,,,,,,,,
1702629746,64,0,4142.563965,4280.769043,4244.743652,4095.256348,4183.077148,4235.512695,4231.153809,4122.436035,4181.794922,4150.897461,4355.641113,4325.384766,4320.256348,4781.538574,5679,4,85,,,,0,4,4,4,4,4,4,4,4,4,4,4,4,4,2,83.333336,,,,,,,,,,,,,,,,,16,0,0.49926,-0.603394,-0.352295,-0.51239,0.955195,-0.22366,0.030277,-11.655315,-3.199033,83.473022,,,,,,,,,,,,,,,,,,,,,,,,,,,,,,,,,,,,,,,,,,,,,,,,,,,,,,,,,,,,,,,,,,,,,,,,,,,,,,,,,,,,,,,,,,,,,,,,,,,,,,,,,,
1702629746,65,0,4150.512695,4268.461426,4246.538574,4102.436035,4185.384766,4152.307617,4231.153809,4123.846191,4185.897461,4152.94873,4357.563965,4331.922852,4307.94873,4800.641113,5599,4,85,,,,0,4,4,4,4,4,4,4,4,4,4,4,4,4,2,83.333336,,,,,,,,,,,,,,,,,,,,,,,,,,,,,,,,,,,,,,,,,,,,,,,,,,,,,,,,,,,,,,,,,80.300117,9.000092,1.17113,0.354443,0.306876,46.856426,4.287668,1.052083,0.24302,0.20415,21.011463,4.669045,0.516942,0.163614,0.235617,15.167118,3.163037,0.486126,0.241321,0.276613,2.606466,1.009677,0.316503,0.197722,0.24112,756.602051,191.241379,16.389875,6.922963,1.551251,2.203563,1.211104,0.32691,0.121686,0.128064,3.463964,1.678908,0.441682,0.135765,0.12831,3.057716,1.313072,0.397025,0.153293,0.201807,3.802367,1.611791,0.385103,0.27356,0.18287,55.893635,8.571112,0.905704,0.367988,0.206073,23.44129,4.721565,0.794943,0.299884,0.278765,64.647705,9.953555,1.587259,0.446707,0.332591,147.797867,39.061821,9.076254,1.341214,0.090806
1702629746,66,0,4157.563965,4239.230957,4247.820313,4106.153809,4188.461426,4107.692383,4233.205078,4122.307617,4186.153809,4151.794922,4362.692383,4334.487305,4298.717773,4800.256348,5405,4,85,,,,0,4,4,4,4,4,4,4,4,4,4,4,4,4,2,83.333336,,,,,,,,,,,,,,,,,,,,,,,,,,,,,,,,,,,,,,,,,,,,,,,,,,,,,,,,,,,,,,,,,,,,,,,,,,,,,,,,,,,,,,,,,,,,,,,,,,,,,,,,,,,,,,,,,,,,,,,,,,,,,,,,,,,,,,
1702629746,67,0,4164.871582,4206.153809,4258.333496,4108.974121,4197.820313,4084.358887,4240.769043,4125.769043,4191.282227,4160,4380.128418,4349.615234,4302.563965,4801.025879,5379,4,85,,,,0,4,4,4,4,4,4,4,4,4,4,4,4,4,2,83.333336,,,,,,,,,,,,,,,,,,,,,,,,,,,,,,,,,,,,,,,,,,,,,,,,,,,,,,,,,,,,,,,,,,,,,,,,,,,,,,,,,,,,,,,,,,,,,,,,,,,,,,,,,,,,,,,,,,,,,,,,,,,,,,,,,,,,,,
1702629746,68,0,4177.05127,4174.743652,4266.282227,4112.563965,4207.05127,4048.974365,4240.256348,4130.128418,4199.487305,4170.128418,4395.641113,4362.436035,4315.769043,4815,5420,4,85,,,,0,4,4,4,4,4,4,4,4,4,4,4,4,4,2,83.333336,,,,,,,,,,,,,,,,,17,0,0.499891,-0.603516,-0.35199,-0.511841,0.956171,-0.231962,0.032719,-11.773117,-3.179129,83.40905,,,,,,,,,,,,,,,,,,,,,,,,,,,,,,,,,,,,,,,,,,,,,,,,,,,,,,,,,,,,,,,,,,,,,,,,,,,,,,,,,,,,,,,,,,,,,,,,,,,,,,,,,,
1702629746,69,0,4173.205078,4130.769043,4261.666504,4109.487305,4202.563965,4007.692383,4232.436035,4125.769043,4200.897461,4165.256348,4389.358887,4355,4302.179688,4809.743652,5375,4,85,,,,0,4,4,4,4,4,4,4,4,4,4,4,4,4,2,83.333336,,,,,,,,,,,,,,,,,,,,,,,,,,,,,,,,,,,,,,,,,,,,,,,,,,,,,,,,,,,,,,,,,,,,,,,,,,,,,,,,,,,,,,,,,,,,,,,,,,,,,,,,,,,,,,,,,,,,,,,,,,,,,,,,,,,,,,
1702629746,70,0,4155.128418,4083.846191,4257.563965,4103.717773,4197.05127,3995.897461,4231.410156,4127.05127,4198.846191,4162.307617,4382.692383,4348.717773,4271.153809,4792.692383,5125,4,85,,,,0,4,4,4,4,4,4,4,4,4,4,4,4,4,2,83.333336,,,,,,,,,,,,,,,,,,,,,,,,,,,,,,,,,,,,,,,,,,,,,,,,,,,,,,,,,,,,,,,,,,,,,,,,,,,,,,,,,,,,,,,,,,,,,,,,,,,,,,,,,,,,,,,,,,,,,,,,,,,,,,,,,,,,,,
1702629746,71,0,4158.589844,4057.05127,4261.666504,4106.794922,4202.692383,4025.384521,4234.743652,4137.05127,4200.256348,4171.922852,4395.384766,4359.230957,4259.487305,4800.384766,5355,4,85,,,,0,4,4,4,4,4,4,4,4,4,4,4,4,4,2,83.333336,,,,,,,,,,,,,,,,,,,,,,,,,,,,,,,,,,,,,,,,,,,,,,,,,,,,,,,,,,,,,,,,,,,,,,,,,,,,,,,,,,,,,,,,,,,,,,,,,,,,,,,,,,,,,,,,,,,,,,,,,,,,,,,,,,,,,,
1702629746,72,0,4171.666504,4051.281982,4263.589844,4110.256348,4216.794922,4059.102539,4238.205078,4139.230957,4205.641113,4169.615234,4399.871582,4366.410156,4248.974121,4800.769043,5399,4,85,,,,0,4,4,4,4,4,4,4,4,4,4,4,4,4,2,83.333336,,,,,,,,,,,,,,,,,18,0,0.499885,-0.603271,-0.352417,-0.511841,0.972287,-0.248565,0.028324,-11.645805,-3.227883,83.418144,,,,,,,,,,,,,,,,,,,,,,,,,,,,,,,,,,,,,,,,,,,,,,,,,,,,,,,,,,,,,,,,,,,,,,,,,,,,,,,,,,,,,,,,,,,,,,,,,,,,,,,,,,
1702629746,73,0,4172.179688,4045.769287,4262.563965,4108.846191,4227.94873,4053.589844,4245.128418,4141.025879,4216.538574,4171.794922,4397.563965,4367.436035,4228.717773,4777.436035,5344,4,85,,,,0,4,4,4,4,4,4,4,4,4,4,4,4,4,2,83.333336,,,,,,,,,,,,,,,,,,,,,,,,,,,,,,,,,,,,,,,,,,,,,,,,,,,,,,,,,,,,,,,,,,,,,,,,,,,,,,,,,,,,,,,,,,,,,,,,,,,,,,,,,,,,,,,,,,,,,,,,,,,,,,,,,,,,,,
1702629746,74,0,4165.769043,4027.692383,4259.102539,4109.615234,4219.487305,4027.179443,4244.230957,4145.256348,4216.025879,4184.487305,4404.358887,4367.692383,4216.666504,4758.077148,6017,4,85,,,,0,4,4,4,4,4,4,4,4,4,4,4,4,4,4,100,,,,,,,,,,,,,,,,,,,,,,,,,,,,,,,,,,,,,,,,,,,,,,,,,,,,,,,,,,,,,,,,,,,,,,,,,,,,,,,,,,,,,,,,,,,,,,,,,,,,,,,,,,,,,,,,,,,,,,,,,,,,,,,,,,,,,,
1702629746,75,0,4155.641113,4010.128174,4247.436035,4105.897461,4198.974121,4027.307617,4231.666504,4137.436035,4200.128418,4169.102539,4397.94873,4358.589844,4206.922852,4741.922852,5207,4,85,,,,0,4,4,4,4,4,4,4,4,4,4,4,4,4,4,100,,,,,,,,,,,,,,,,,,,,,,,,,,,,,,,,,,,,,,,,,,,,,,,,,,,,,,,,,,,,,,,,,,,,,,,,,,,,,,,,,,,,,,,,,,,,,,,,,,,,,,,,,,,,,,,,,,,,,,,,,,,,,,,,,,,,,,
1702629746,76,0,4151.538574,4016.153809,4243.333496,4105.897461,4199.743652,4042.179443,4232.307617,4130.769043,4198.077148,4147.307617,4382.820313,4354.487305,4194.487305,4725.256348,6860,4,85,,,,0,4,4,4,4,4,4,4,4,4,4,4,4,4,4,100,,,,,,,,,,,,,,,,,19,0,0.499462,-0.602905,-0.352844,-0.51239,0.966427,-0.219265,0.028324,-11.681225,-3.238428,83.359665,,,,,,,,,,,,,,,,,,,,,,,,,,,,,,,,,,,,,,,,,,,,,,,,,,,,,,,,,,,,,,,,,,,,,,,,,,,,,,,,,,,,,,,,,,,,,,,,,,,,,,,,,,
1702629746,77,0,4156.282227,4035.897461,4251.410156,4109.102539,4213.717773,4036.666748,4239.871582,4137.820313,4202.05127,4153.974121,4384.358887,4360.256348,4190,4711.153809,7314,4,85,,,,0,4,4,4,4,4,4,4,4,4,4,4,4,4,4,100,,,,,,,,,,,,,,,,,,,,,,,,,,,,,,,,,,,,,,,,,,,,,,,,,,,,,,,,,,,,,,,,,,,,,,,,,,,,,,,,,,,,,,,,,,,,,,,,,,,,,,,,,,,,,,,,,,,,,,,,,,,,,,,,,,,,,,
1702629746,78,0,4150.128418,4040.512939,4247.692383,4099.487305,4203.205078,4038.333252,4236.282227,4139.102539,4190.128418,4157.436035,4380.512695,4355.769043,4179.230957,4696.410156,6017,4,85,,,,0,4,4,4,4,4,4,4,4,4,4,4,4,4,4,100,,,,,,,,,,,,,,,,,,,,,,,,,,,,,,,,,,,,,,,,,,,,,,,,,,,,,,,,,,,,,,,,,,,,,,,,,,,,,,,,,,,,,,,,,,,,,,,,,,,,,,,,,,,,,,,,,,,,,,,,,,,,,,,,,,,,,,
1702629746,79,0,4140,4052.05127,4237.05127,4092.820557,4189.615234,4083.333252,4235.769043,4134.615234,4188.461426,4150.641113,4367.179688,4351.666504,4167.94873,4693.077148,5207,4,85,,,,0,4,4,4,4,4,4,4,4,4,4,4,4,4,4,100,,,,,,,,,,,,,,,,,,,,,,,,,,,,,,,,,,,,,,,,,,,,,,,,,,,,,,,,,,,,,,,,,,,,,,,,,,,,,,,,,,,,,,,,,,,,,,,,,,,,,,,,,,,,,,,,,,,,,,,,,,,,,,,,,,,,,,
1702629746,80,0,4138.717773,4084.615479,4233.846191,4095.384521,4201.794922,4136.025879,4243.974121,4136.794922,4199.102539,4148.461426,4365.769043,4355,4172.05127,4688.974121,6860,4,85,,,,0,4,4,4,4,4,4,4,4,4,4,4,4,4,4,100,,,,,,,,,,,,,,,,,20,0,0.498786,-0.602783,-0.35321,-0.512939,0.96545,-0.234404,0.024417,-11.646436,-3.281252,83.490364,,,,,,,,,,,,,,,,,,,,,,,,,,,,,,,,,,,,,,,,,,,,,,,,,,,,,,,,,,,,,,,,,,,,,,,,,,,,,,,,,,,,,,,,,,,,,,,,,,,,,,,,,,
