Timestamp,EEG.Counter,EEG.Interpolated,EEG.AF3,EEG.F7,EEG.F3,EEG.FC5,EEG.T7,EEG.P7,EEG.O1,EEG.O2,EEG.P8,EEG.T8,EEG.FC6,EEG.F4,EEG.F8,EEG.AF4,EEG.RawCq,EEG.Battery,EEG.BatteryPercent,MarkerIndex,MarkerType,MarkerValueInt,EEG.MarkerHardware,CQ.AF3,CQ.F7,CQ.F3,CQ.FC5,CQ.T7,CQ.P7,CQ.O1,CQ.O2,CQ.P8,CQ.T8,CQ.FC6,CQ.F4,CQ.F8,CQ.AF4,CQ.Overall,EQ.SampleRateQuality,EQ.OVERALL,EQ.AF3,EQ.F7,EQ.F3,EQ.FC5,EQ.T7,EQ.P7,EQ.O1,EQ.O2,EQ.P8,EQ.T8,EQ.FC6,EQ.F4,EQ.F8,EQ.AF4,MOT.CounterMems,MOT.InterpolatedMems,MOT.Q0,MOT.Q1,MOT.Q2,MOT.Q3,MOT.AccX,MOT.AccY,MOT.AccZ,MOT.MagX,MOT.MagY,MOT.MagZ,PM.Attention.IsActive,PM.Attention.Scaled,PM.Attention.Raw,PM.Attention.Min,PM.Attention.Max,PM.Engagement.IsActive,PM.Engagement.Scaled,PM.Engagement.Raw,PM.Engagement.Min,PM.Engagement.Max,PM.Excitement.IsActive,PM.Excitement.Scaled,PM.Excitement.Raw,PM.Excitement.Min,PM.Excitement.Max,PM.LongTermExcitement,PM.Stress.IsActive,PM.Stress.Scaled,PM.Stress.Raw,PM.Stress.Min,PM.Stress.Max,PM.Relaxation.IsActive,PM.Relaxation.Scaled,PM.Relaxation.Raw,PM.Relaxation.Min,PM.Relaxation.Max,PM.Interest.IsActive,PM.Interest.Scaled,PM.Interest.Raw,PM.Interest.Min,PM.Interest.Max,PM.Focus.IsActive,PM.Focus.Scaled,PM.Focus.Raw,PM.Focus.Min,PM.Focus.Max,POW.AF3.Theta,POW.AF3.Alpha,POW.AF3.BetaL,POW.AF3.BetaH,POW.AF3.Gamma,POW.F7.Theta,POW.F7.Alpha,POW.F7.BetaL,POW.F7.BetaH,POW.F7.Gamma,POW.F3.Theta,POW.F3.Alpha,POW.F3.BetaL,POW.F3.BetaH,POW.F3.Gamma,POW.FC5.Theta,POW.FC5.Alpha,POW.FC5.BetaL,POW.FC5.BetaH,POW.FC5.Gamma,POW.T7.Theta,POW.T7.Alpha,POW.T7.BetaL,POW.T7.BetaH,POW.T7.Gamma,POW.P7.Theta,POW.P7.Alpha,POW.P7.BetaL,POW.P7.BetaH,POW.P7.Gamma,POW.O1.Theta,POW.O1.Alpha,POW.O1.BetaL,POW.O1.BetaH,POW.O1.Gamma,POW.O2.Theta,POW.O2.Alpha,POW.O2.BetaL,POW.O2.BetaH,POW.O2.Gamma,POW.P8.Theta,POW.P8.Alpha,POW.P8.BetaL,POW.P8.BetaH,POW.P8.Gamma,POW.T8.Theta,POW.T8.Alpha,POW.T8.BetaL,POW.T8.BetaH,POW.T8.Gamma,POW.FC6.Theta,POW.FC6.Alpha,POW.FC6.BetaL,POW.FC6.BetaH,POW.FC6.Gamma,POW.F4.Theta,POW.F4.Alpha,POW.F4.BetaL,POW.F4.BetaH,POW.F4.Gamma,POW.F8.Theta,POW.F8.Alpha,POW.F8.BetaL,POW.F8.BetaH,POW.F8.Gamma,POW.AF4.Theta,POW.AF4.Alpha,POW.AF4.BetaL,POW.AF4.BetaH,POW.AF4.Gamma
,,,,,,,,,,,,,,,,,,,,,,,,,,,,,,,,,,,,,,,,,,,,,,,,,,,,,,,,,,,,,,,,,,,,,,,,,,,,,,,,,,,,,,,,,,,,,,,,,,,,,,,,,,,,,,,,,,,,,,,,,,,,,,,,,,,,,,,,,,,,,,,,,,,,,,,,,,,,,,,,,,,,,,,,,,,,
1702629659,39,0,4263.461426,3051.410156,4296.025879,4219.615234,4442.820313,4158.333496,4256.538574,4292.94873,4321.922852,4269.615234,4432.179688,4466.794922,4243.333496,4393.846191,0,4,85,,,,0,4,4,4,4,4,4,4,4,4,4,4,4,4,4,100,,,,,,,,,,,,,,,,,,,,,,,,,,,,,,,,,,,,,,,,,,,,,,,,,,,,,,,,,,,,,,,,,,,,,,,,,,,,,,,,,,,,,,,,,,,,,,,,,,,,,,,,,,,,,,,,,,,,,,,,,,,,,,,,,,,,,,
1702629659,40,0,4261.025879,2560.128174,4286.153809,4206.538574,4482.820313,4174.102539,4246.794922,4286.025879,4320.128418,4262.820313,4432.05127,4461.410156,4235,4390.512695,0,4,85,,,,0,4,4,4,4,4,4,4,4,4,4,4,4,4,4,100,,,,,,,,,,,,,,,,,10,0,0.489325,-0.633972,-0.335999,-0.495728,0.949823,-0.296911,-0.045904,-14.620791,-5.755488,83.974808,,,,,,,,,,,,,,,,,,,,,,,,,,,,,,,,,,,,,,,,,,,,,,,,,,,,,,,,,,,,,,,,,,,,,,,,,,,,,,,,,,,,,,,,,,,,,,,,,,,,,,,,,,
1702629659,41,0,4275.641113,2101.538574,4291.025879,4207.05127,4515.512695,4201.794922,4251.025879,4288.846191,4323.589844,4265.769043,4440.897461,4465.769043,4234.102539,4397.820313,0,4,85,,,,0,4,4,4,4,4,4,4,4,4,4,4,4,4,4,100,,,,,,,,,,,,,,,,,,,,,,,,,,,,,,,,,,,,,,,,,,,,,,,,,,,,,,,,,,,,,,,,,,,,,,,,,,,,,,,,,,,,,,,,,,,,,,,,,,,,,,,,,,,,,,,,,,,,,,,,,,,,,,,,,,,,,,
1702629659,42,0,4275.128418,1858.461548,4295.769043,4199.743652,4522.179688,4227.05127,4257.179688,4290.384766,4323.717773,4267.820313,4450.512695,4467.94873,4236.794922,4400.769043,0,4,85,,,,0,4,4,4,4,4,4,4,4,4,4,4,4,4,4,100,,,,,,,,,,,,,,,,,,,,,,,,,,,,,,,,,,,,,,,,,,,,,,,,,,,,,,,,,,,,,,,,,,,,,,,,,,,,,,,,,,,,,,,,,,,,,,,,,,,,,,,,,,,,,,,,,,,,,,,,,,,,,,,,,,,,,,
1702629659,43,0,4261.025879,1727.94873,4282.94873,4176.794922,4509.230957,4241.153809,4251.282227,4284.358887,4318.205078,4263.205078,4443.461426,4458.974121,4231.410156,4392.307617,0,4,85,,,,0,4,4,4,4,4,4,4,4,4,4,4,4,4,4,100,,,,,,,,,,,,,,,,,,,,,,,,,,,,,,,,,,,,,,,,,,,,,,,,,,,,,,,,,,,,,,,,,,,,,,,,,,,,,,,,,,,,,,,,,,,,,,,,,,,,,,,,,,,,,,,,,,,,,,,,,,,,,,,,,,,,,,
1702629659,44,0,4265,1620,4273.846191,4163.974121,4508.077148,4267.820313,4253.846191,4285.897461,4323.461426,4262.94873,4438.717773,4457.179688,4227.436035,4392.05127,0,4,85,,,,0,4,4,4,4,4,4,4,4,4,4,4,4,4,4,100,,,,,,,,,,,,,,,,,11,0,0.489505,-0.632874,-0.336365,-0.496704,0.940056,-0.293493,-0.022952,-14.575378,-5.813273,83.977325,,,,,,,,,,,,,,,,,,,,,,,,,,,,,,,,,,,,,,,,,,,,,,,,,,,,,,,,,,,,,,,,,,,,,,,,,,,,,,,,,,,,,,,,,,,,,,,,,,,,,,,,,,
1702629659,45,0,4273.077148,1565.128174,4279.615234,4163.333496,4517.436035,4292.563965,4266.025879,4296.282227,4333.846191,4271.153809,4450.769043,4466.282227,4232.307617,4400.384766,0,4,85,,,,0,4,4,4,4,4,4,4,4,4,4,4,4,4,4,100,,,,,,,,,,,,,,,,,,,,,,,,,,,,,,,,,,,,,,,,,,,,,,,,,,,,,,,,,,,,,,,,,,,,,,,,,,,,,,,,,,,,,,,,,,,,,,,,,,,,,,,,,,,,,,,,,,,,,,,,,,,,,,,,,,,,,,
1702629659,46,0,4269.743652,1532.307739,4280.512695,4157.179688,4507.820313,4289.230957,4265.128418,4294.230957,4331.282227,4271.410156,4456.410156,4466.794922,4234.615234,4400.769043,0,4,85,,,,0,4,4,4,4,4,4,4,4,4,4,4,4,4,4,100,,,,,,,,,,,,,,,,,,,,,,,,,,,,,,,,,,,,,,,,,,,,,,,,,,,,,,,,,,,,,,,,,,,,,,,,,,,,,,,,,,,,,,,,,,,,,,,,,,,,,,,,,,,,,,,,,,,,,,,,,,,,,,,,,,,,,,
1702629659,47,0,4263.717773,1492.820557,4268.589844,4142.820313,4489.102539,4274.358887,4251.410156,4282.436035,4323.205078,4263.077148,4446.282227,4453.077148,4230,4393.333496,0,4,85,,,,0,4,4,4,4,4,4,4,4,4,4,4,4,4,4,100,,,,,,,,,,,,,,,,,,,,,,,,,,,,,,,,,,,,,,,,,,,,,,,,,,,,,,,,,,,,,,,,,,,,,,,,,,,,,,,,,,,,,,,,,,,,,,,,,,,,,,,,,,,,,,,,,,,,,,,,,,,,,,,,,,,,,,
1702629659,48,0,4252.94873,1463.974365,4259.358887,4125.512695,4488.205078,4262.820313,4248.333496,4283.205078,4324.230957,4260,4438.205078,4440.769043,4218.717773,4383.589844,0,4,85,,,,0,4,4,4,4,4,4,4,4,4,4,4,4,4,4,100,,,,,,,,,,,,,,,,,12,0,0.489511,-0.632324,-0.336487,-0.497314,0.929801,-0.283238,-0.028812,-14.617841,-5.615279,84.11293,,,,,,,,,,,,,,,,,,,,,,,,,,,,,,,,,,,,,,,,,,,,,,,,,,,,,,,,,,,,,,,,,,,,,,,,,,,,,,,,,,,,,,,,,,,,,,,,,,,,,,,,,,
1702629659,49,0,4249.102539,1453.333374,4261.794922,4120.384766,4494.487305,4244.743652,4256.153809,4288.589844,4329.102539,4263.333496,4446.410156,4445.512695,4212.94873,4385.897461,0,4,85,,,,0,4,4,4,4,4,4,4,4,4,4,4,4,4,4,100,,,,,,,,,,,,,,,,,,,,,,,,,,,,,,,,,,,,,,,,,,,,,,,,,,,,,,,,,,,,,,,,,19.006485,1.834608,0.36708,0.393458,0.638361,2205.157471,399.348358,136.967422,29.168779,4.703596,9.886823,0.947106,0.428498,0.405631,0.631072,13.449359,1.163737,0.279536,0.562521,0.662947,31.965878,5.288118,2.41738,0.44703,0.854542,248.859055,26.782133,10.575615,4.17249,1.071137,1.540205,0.586711,0.196039,0.323341,0.406814,2.858125,0.491156,0.576125,0.336254,0.489233,5.498974,0.860341,0.492247,0.404054,0.521306,3.132241,0.387192,0.375171,0.356315,0.677886,12.279687,0.676645,0.495429,0.612095,0.805599,9.724848,0.857667,0.673135,0.631859,0.943448,28.536442,0.859205,0.712174,0.806618,0.874522,24.333427,1.705907,0.558065,0.636497,0.756044
1702629659,50,0,4261.666504,1452.94873,4267.05127,4126.538574,4482.563965,4228.974121,4259.871582,4283.333496,4329.102539,4265.256348,4460,4453.461426,4226.538574,4399.102539,0,4,85,,,,0,4,4,4,4,4,4,4,4,4,4,4,4,4,4,100,,,,,,,,,,,,,,,,,,,,,,,,,,,,,,,,,,,,,,,,,,,,,,,,,,,,,,,,,,,,,,,,,,,,,,,,,,,,,,,,,,,,,,,,,,,,,,,,,,,,,,,,,,,,,,,,,,,,,,,,,,,,,,,,,,,,,,
1702629659,51,0,4266.282227,1448.717896,4263.846191,4123.333496,4470.897461,4238.461426,4256.794922,4277.563965,4325.512695,4263.974121,4460.769043,4448.205078,4238.205078,4400.384766,0,4,85,,,,0,4,4,4,4,4,4,4,4,4,4,4,4,4,4,100,,,,,,,,,,,,,,,,,,,,,,,,,,,,,,,,,,,,,,,,,,,,,,,,,,,,,,,,,,,,,,,,,,,,,,,,,,,,,,,,,,,,,,,,,,,,,,,,,,,,,,,,,,,,,,,,,,,,,,,,,,,,,,,,,,,,,,
1702629659,52,0,4258.717773,1452.307739,4261.153809,4116.282227,4474.102539,4263.205078,4250.769043,4280.897461,4323.077148,4259.358887,4454.871582,4443.974121,4231.666504,4396.922852,0,4,85,,,,0,4,4,4,4,4,4,4,4,4,4,4,4,4,4,100,,,,,,,,,,,,,,,,,13,0,0.489271,-0.630981,-0.337097,-0.49884,0.952265,-0.289586,-0.023929,-14.672724,-5.703751,84.051636,,,,,,,,,,,,,,,,,,,,,,,,,,,,,,,,,,,,,,,,,,,,,,,,,,,,,,,,,,,,,,,,,,,,,,,,,,,,,,,,,,,,,,,,,,,,,,,,,,,,,,,,,,
1702629659,53,0,4265.641113,1467.564087,4264.743652,4121.282227,4465.897461,4286.794922,4254.615234,4281.410156,4325.641113,4260,4457.436035,4454.102539,4230.641113,4408.461426,0,4,85,,,,0,4,4,4,4,4,4,4,4,4,4,4,4,4,4,100,,,,,,,,,,,,,,,,,,,,,,,,,,,,,,,,,,,,,,,,,,,,,,,,,,,,,,,,,,,,,,,,,,,,,,,,,,,,,,,,,,,,,,,,,,,,,,,,,,,,,,,,,,,,,,,,,,,,,,,,,,,,,,,,,,,,,,
1702629659,54,0,4277.05127,1490.512817,4265.384766,4125.641113,4450.128418,4308.717773,4261.538574,4281.153809,4326.025879,4266.922852,4466.153809,4461.922852,4240.897461,4417.436035,0,4,85,,,,0,4,4,4,4,4,4,4,4,4,4,4,4,4,4,100,,,,,,,,,,,,,,,,,,,,,,,,,,,,,,,,,,,,,,,,,,,,,,,,,,,,,,,,,,,,,,,,,,,,,,,,,,,,,,,,,,,,,,,,,,,,,,,,,,,,,,,,,,,,,,,,,,,,,,,,,,,,,,,,,,,,,,
1702629659,55,0,4271.666504,1526.153809,4262.820313,4122.820313,4448.717773,4329.743652,4255.384766,4285.256348,4324.102539,4267.94873,4464.871582,4456.153809,4241.410156,4413.333496,0,4,85,,,,0,4,4,4,4,4,4,4,4,4,4,4,4,4,4,100,,,,,,,,,,,,,,,,,,,,,,,,,,,,,,,,,,,,,,,,,,,,,,,,,,,,,,,,,,,,,,,,,,,,,,,,,,,,,,,,,,,,,,,,,,,,,,,,,,,,,,,,,,,,,,,,,,,,,,,,,,,,,,,,,,,,,,
1702629659,56,0,4261.410156,1563.717896,4260.769043,4118.333496,4446.410156,4355.769043,4247.820313,4283.974121,4327.05127,4265.769043,4458.717773,4447.692383,4231.794922,4409.871582,0,4,85,,,,0,4,4,4,4,4,4,4,4,4,4,4,4,4,4,100,,,,,,,,,,,,,,,,,14,0,0.488797,-0.629456,-0.338013,-0.50061,0.938103,-0.273959,-0.026859,-14.638784,-5.783376,84.113136,,,,,,,,,,,,,,,,,,,,,,,,,,,,,,,,,,,,,,,,,,,,,,,,,,,,,,,,,,,,,,,,,,,,,,,,,,,,,,,,,,,,,,,,,,,,,,,,,,,,,,,,,,
1702629659,57,0,4263.589844,1596.923096,4261.282227,4118.717773,4433.077148,4378.717773,4256.666504,4284.102539,4328.205078,4262.692383,4461.922852,4450,4231.153809,4412.692383,0,4,85,,,,0,4,4,4,4,4,4,4,4,4,4,4,4,4,4,100,,,,,,,,,,,,,,,,,,,,,,,,,,,,,,,,,,,,,,,,,,,,,,,,,,,,,,,,,,,,,,,,,,,,,,,,,,,,,,,,,,,,,,,,,,,,,,,,,,,,,,,,,,,,,,,,,,,,,,,,,,,,,,,,,,,,,,
1702629659,58,0,4277.179688,1637.94873,4264.487305,4125.384766,4422.692383,4368.461426,4265.769043,4293.205078,4330.128418,4264.487305,4474.871582,4462.436035,4241.538574,4421.922852,0,4,85,,,,0,4,4,4,4,4,4,4,4,4,4,4,4,4,4,100,,,,,,,,,,,,,,,,,,,,,,,,,,,,,,,,,,,,,,,,,,,,,,,,,,,,,,,,,,,,,,,,,,,,,,,,,,,,,,,,,,,,,,,,,,,,,,,,,,,,,,,,,,,,,,,,,,,,,,,,,,,,,,,,,,,,,,
1702629659,59,0,4282.05127,1682.435913,4266.538574,4125.641113,4417.692383,4327.94873,4261.922852,4299.743652,4337.820313,4272.692383,4481.153809,4466.025879,4241.794922,4427.820313,0,4,85,,,,0,4,4,4,4,4,4,4,4,4,4,4,4,4,4,100,,,,,,,,,,,,,,,,,,,,,,,,,,,,,,,,,,,,,,,,,,,,,,,,,,,,,,,,,,,,,,,,,,,,,,,,,,,,,,,,,,,,,,,,,,,,,,,,,,,,,,,,,,,,,,,,,,,,,,,,,,,,,,,,,,,,,,
1702629659,60,0,4277.94873,1728.717896,4269.358887,4121.025879,4413.846191,4314.615234,4263.461426,4297.820313,4343.205078,4277.94873,4481.410156,4460.769043,4232.563965,4425.641113,0,4,85,,,,0,4,4,4,4,4,4,4,4,4,4,4,4,4,4,100,,,,,,,,,,,,,,,,,15,0,0.48805,-0.627869,-0.339233,-0.502502,0.950311,-0.275424,-0.025394,-14.591573,-5.755038,84.185158,,,,,,,,,,,,,,,,,,,,,,,,,,,,,,,,,,,,,,,,,,,,,,,,,,,,,,,,,,,,,,,,,,,,,,,,,,,,,,,,,,,,,,,,,,,,,,,,,,,,,,,,,,
1702629659,61,0,4281.025879,1786.153809,4271.153809,4123.589844,4404.358887,4339.102539,4267.563965,4296.538574,4342.692383,4276.025879,4490.641113,4463.717773,4234.871582,4428.333496,0,4,85,,,,0,4,4,4,4,4,4,4,4,4,4,4,4,4,4,100,,,,,,,,,,,,,,,,,,,,,,,,,,,,,,,,,,,,,,,,,,,,,,,,,,,,,,,,,,,,,,,,,,,,,,,,,,,,,,,,,,,,,,,,,,,,,,,,,,,,,,,,,,,,,,,,,,,,,,,,,,,,,,,,,,,,,,
1702629659,62,0,4280.512695,1848.717896,4268.077148,4121.538574,4390.256348,4364.102539,4266.666504,4299.871582,4342.563965,4272.436035,4496.282227,4464.615234,4235.897461,4429.358887,0,4,85,,,,0,4,4,4,4,4,4,4,4,4,4,4,4,4,4,100,,,,,,,,,,,,,,,,,,,,,,,,,,,,,,,,,,,,,,,,,,,,,,,,,,,,,,,,,,,,,,,,,,,,,,,,,,,,,,,,,,,,,,,,,,,,,,,,,,,,,,,,,,,,,,,,,,,,,,,,,,,,,,,,,,,,,,
1702629659,63,0,4268.717773,1911.410278,4261.153809,4106.794922,4376.794922,4359.615234,4260.897461,4297.94873,4339.487305,4267.436035,4483.333496,4453.461426,4222.179688,4416.153809,0,4,85,,,,0,4,4,4,4,4,4,4,4,4,4,4,4,4,4,100,,,,,,,,,,,,,,,,,,,,,,,,,,,,,,,,,,,,,,,,,,,,,,,,,,,,,,,,,,,,,,,,,,,,,,,,,,,,,,,,,,,,,,,,,,,,,,,,,,,,,,,,,,,,,,,,,,,,,,,,,,,,,,,,,,,,,,
1702629659,64,0,4261.282227,1977.307739,4251.410156,4094.871826,4360.769043,4332.563965,4252.563965,4291.794922,4333.333496,4260.641113,4471.153809,4441.410156,4215,4403.846191,5689,4,85,,,,0,4,4,4,4,4,4,4,4,4,4,4,4,4,4,100,,,,,,,,,,,,,,,,,16,0,0.487488,-0.62616,-0.34021,-0.504517,0.942986,-0.257356,-0.010255,-14.565748,-5.796201,84.28331,,,,,,,,,,,,,,,,,,,,,,,,,,,,,,,,,,,,,,,,,,,,,,,,,,,,,,,,,,,,,,,,,,,,,,,,,,,,,,,,,,,,,,,,,,,,,,,,,,,,,,,,,,
1702629659,65,0,4259.871582,2041.410278,4247.563965,4091.281982,4344.743652,4322.179688,4254.230957,4291.410156,4338.077148,4262.820313,4473.205078,4436.794922,4223.077148,4405.384766,5621,4,85,,,,0,4,4,4,4,4,4,4,4,4,4,4,4,4,4,100,,,,,,,,,,,,,,,,,,,,,,,,,,,,,,,,,,,,,,,,,,,,,,,,,,,,,,,,,,,,,,,,,21.263515,1.468441,0.330861,0.432788,0.644575,2251.671875,377.537903,133.073898,28.170153,4.60692,11.232069,0.823565,0.427316,0.431827,0.612365,13.49484,0.903231,0.232635,0.613441,0.635744,34.650795,4.724213,2.298964,0.419628,0.757274,318.274567,38.514896,12.403099,4.784348,1.126188,1.473295,0.713457,0.237891,0.304418,0.386686,2.678229,0.457078,0.655383,0.332072,0.478027,5.34636,0.885342,0.541851,0.434787,0.492747,3.167608,0.444752,0.436407,0.349119,0.630415,13.03299,0.681182,0.549635,0.613595,0.789074,10.83828,0.842954,0.686302,0.632599,0.913112,33.299633,1.009361,0.778317,0.820614,0.902407,26.853806,1.566287,0.530736,0.633272,0.730221
1702629659,66,0,4251.282227,2105.512939,4246.025879,4081.410156,4336.794922,4324.487305,4257.94873,4289.743652,4340,4263.077148,4469.230957,4433.077148,4217.692383,4400.384766,5387,4,85,,,,0,4,4,4,4,4,4,4,4,4,4,4,4,4,4,100,,,,,,,,,,,,,,,,,,,,,,,,,,,,,,,,,,,,,,,,,,,,,,,,,,,,,,,,,,,,,,,,,,,,,,,,,,,,,,,,,,,,,,,,,,,,,,,,,,,,,,,,,,,,,,,,,,,,,,,,,,,,,,,,,,,,,,
1702629659,67,0,4241.794922,2173.461426,4237.179688,4066.538574,4328.846191,4318.846191,4251.538574,4278.077148,4326.666504,4249.871582,4453.077148,4421.538574,4200.384766,4386.538574,5606,4,85,,,,0,4,4,4,4,4,4,4,4,4,4,4,4,4,4,100,,,,,,,,,,,,,,,,,,,,,,,,,,,,,,,,,,,,,,,,,,,,,,,,,,,,,,,,,,,,,,,,,,,,,,,,,,,,,,,,,,,,,,,,,,,,,,,,,,,,,,,,,,,,,,,,,,,,,,,,,,,,,,,,,,,,,,
1702629659,68,0,4242.563965,2240.897461,4230.128418,4062.692383,4311.794922,4325.128418,4248.717773,4272.436035,4323.974121,4241.666504,4444.871582,4410.641113,4198.205078,4387.692383,5374,4,85,,,,0,4,4,4,4,4,4,4,4,4,4,4,4,4,4,100,,,,,,,,,,,,,,,,,17,0,0.48688,-0.62439,-0.341248,-0.506592,0.94787,-0.248565,-0.013674,-14.392508,-5.799914,84.188309,,,,,,,,,,,,,,,,,,,,,,,,,,,,,,,,,,,,,,,,,,,,,,,,,,,,,,,,,,,,,,,,,,,,,,,,,,,,,,,,,,,,,,,,,,,,,,,,,,,,,,,,,,
1702629659,69,0,4244.487305,2308.974365,4231.666504,4064.615479,4296.666504,4348.974121,4252.436035,4279.871582,4333.461426,4248.717773,4446.794922,4412.307617,4204.871582,4395.512695,5323,4,85,,,,0,4,4,4,4,4,4,4,4,4,4,4,4,4,4,100,,,,,,,,,,,,,,,,,,,,,,,,,,,,,,,,,,,,,,,,,,,,,,,,,,,,,,,,,,,,,,,,,,,,,,,,,,,,,,,,,,,,,,,,,,,,,,,,,,,,,,,,,,,,,,,,,,,,,,,,,,,,,,,,,,,,,,
1702629659,70,0,4239.871582,2381.794922,4229.230957,4057.692383,4295.384766,4365.256348,4247.94873,4281.794922,4331.666504,4251.666504,4449.358887,4412.563965,4202.563965,4391.794922,5108,4,85,,,,0,4,4,4,4,4,4,4,4,4,4,4,4,4,4,100,,,,,,,,,,,,,,,,,,,,,,,,,,,,,,,,,,,,,,,,,,,,,,,,,,,,,,,,,,,,,,,,,,,,,,,,,,,,,,,,,,,,,,,,,,,,,,,,,,,,,,,,,,,,,,,,,,,,,,,,,,,,,,,,,,,,,,
1702629659,71,0,4240.256348,2460.384521,4227.820313,4058.846191,4291.282227,4384.871582,4245.641113,4277.94873,4330.897461,4247.436035,4456.153809,4409.230957,4208.205078,4392.692383,5332,4,85,,,,0,4,4,4,4,4,4,4,4,4,4,4,4,4,4,100,,,,,,,,,,,,,,,,,,,,,,,,,,,,,,,,,,,,,,,,,,,,,,,,,,,,,,,,,,,,,,,,,,,,,,,,,,,,,,,,,,,,,,,,,,,,,,,,,,,,,,,,,,,,,,,,,,,,,,,,,,,,,,,,,,,,,,
1702629659,72,0,4249.358887,2545.128174,4235.897461,4075.128174,4281.538574,4428.846191,4252.179688,4280.256348,4341.922852,4256.410156,4463.974121,4420.512695,4223.974121,4408.077148,5374,4,85,,,,0,4,4,4,4,4,4,4,4,4,4,4,4,4,4,100,,,,,,,,,,,,,,,,,18,0,0.486313,-0.622559,-0.342041,-0.50885,0.973263,-0.257356,-0.013185,-14.253257,-5.703256,84.202812,,,,,,,,,,,,,,,,,,,,,,,,,,,,,,,,,,,,,,,,,,,,,,,,,,,,,,,,,,,,,,,,,,,,,,,,,,,,,,,,,,,,,,,,,,,,,,,,,,,,,,,,,,
1702629659,73,0,4251.538574,2625.384521,4236.538574,4078.718018,4279.743652,4441.538574,4251.153809,4281.922852,4343.077148,4267.94873,4457.563965,4427.563965,4224.487305,4414.615234,5335,4,85,,,,0,4,4,4,4,4,4,4,4,4,4,4,4,4,4,100,,,,,,,,,,,,,,,,,,,,,,,,,,,,,,,,,,,,,,,,,,,,,,,,,,,,,,,,,,,,,,,,,,,,,,,,,,,,,,,,,,,,,,,,,,,,,,,,,,,,,,,,,,,,,,,,,,,,,,,,,,,,,,,,,,,,,,
1702629659,74,0,4247.307617,2696.410156,4232.563965,4071.281982,4269.615234,4377.05127,4246.538574,4279.102539,4337.436035,4262.692383,4444.230957,4416.153809,4216.025879,4407.436035,6027,4,85,,,,0,4,4,4,4,4,4,4,4,4,4,4,4,4,4,100,,,,,,,,,,,,,,,,,,,,,,,,,,,,,,,,,,,,,,,,,,,,,,,,,,,,,,,,,,,,,,,,,,,,,,,,,,,,,,,,,,,,,,,,,,,,,,,,,,,,,,,,,,,,,,,,,,,,,,,,,,,,,,,,,,,,,,
1702629659,75,0,4255.384766,2771.538574,4239.358887,4078.461426,4251.025879,4295.641113,4248.589844,4278.461426,4341.922852,4251.794922,4445.769043,4415.384766,4222.820313,4410.128418,6250,4,85,,,,0,4,4,4,4,4,4,4,4,4,4,4,4,4,4,100,,,,,,,,,,,,,,,,,,,,,,,,,,,,,,,,,,,,,,,,,,,,,,,,,,,,,,,,,,,,,,,,,,,,,,,,,,,,,,,,,,,,,,,,,,,,,,,,,,,,,,,,,,,,,,,,,,,,,,,,,,,,,,,,,,,,,,
1702629659,76,0,4251.410156,2841.794922,4238.974121,4079.487061,4244.487305,4257.820313,4247.94873,4279.102539,4343.846191,4252.179688,4445,4420.128418,4221.153809,4408.717773,6848,4,85,,,,0,4,4,4,4,4,4,4,4,4,4,4,4,4,4,100,,,,,,,,,,,,,,,,,19,0,0.485678,-0.62085,-0.342773,-0.511047,0.960078,-0.234404,-0.013674,-13.961264,-5.449597,84.13253,,,,,,,,,,,,,,,,,,,,,,,,,,,,,,,,,,,,,,,,,,,,,,,,,,,,,,,,,,,,,,,,,,,,,,,,,,,,,,,,,,,,,,,,,,,,,,,,,,,,,,,,,,
1702629659,77,0,4233.461426,2902.435791,4227.820313,4065.128174,4235,4249.487305,4243.333496,4277.94873,4339.230957,4257.307617,4430,4412.307617,4203.461426,4394.615234,7302,4,85,,,,0,4,4,4,4,4,4,4,4,4,4,4,4,4,4,100,,,,,,,,,,,,,,,,,,,,,,,,,,,,,,,,,,,,,,,,,,,,,,,,,,,,,,,,,,,,,,,,,,,,,,,,,,,,,,,,,,,,,,,,,,,,,,,,,,,,,,,,,,,,,,,,,,,,,,,,,,,,,,,,,,,,,,
1702629659,78,0,4243.333496,2985.256348,4234.230957,4075.769287,4217.563965,4250.641113,4248.333496,4280.769043,4340.128418,4256.538574,4428.717773,4415.384766,4208.846191,4399.615234,6027,4,85,,,,0,4,4,4,4,4,4,4,4,4,4,4,4,4,4,100,,,,,,,,,,,,,,,,,,,,,,,,,,,,,,,,,,,,,,,,,,,,,,,,,,,,,,,,,,,,,,,,,,,,,,,,,,,,,,,,,,,,,,,,,,,,,,,,,,,,,,,,,,,,,,,,,,,,,,,,,,,,,,,,,,,,,,
1702629659,79,0,4258.717773,3085.256348,4244.230957,4095.769287,4218.461426,4257.179688,4248.333496,4277.436035,4337.179688,4244.102539,4429.615234,4417.436035,4213.333496,4410.769043,6250,4,85,,,,0,4,4,4,4,4,4,4,4,4,4,4,4,4,4,100,,,,,,,,,,,,,,,,,,,,,,,,,,,,,,,,,,,,,,,,,,,,,,,,,,,,,,,,,,,,,,,,,,,,,,,,,,,,,,,,,,,,,,,,,,,,,,,,,,,,,,,,,,,,,,,,,,,,,,,,,,,,,,,,,,,,,,
1702629659,80,0,4251.922852,3160.769287,4237.179688,4087.05127,4216.794922,4266.794922,4238.077148,4264.871582,4325.512695,4231.538574,4411.153809,4402.436035,4190.384766,4396.666504,6848,4,85,,,,0,4,4,4,4,4,4,4,4,4,4,4,4,4,4,100,,,,,,,,,,,,,,,,,20,0,0.485149,-0.620239,-0.343079,-0.512085,0.966427,-0.236357,-0.004395,-13.848471,-5.404637,84.119278,,,,,,,,,,,,,,,,,,,,,,,,,,,,,,,,,,,,,,,,,,,,,,,,,,,,,,,,,,,,,,,,,,,,,,,,,,,,,,,,,,,,,,,,,,,,,,,,,,,,,,,,,,
1702629659,81,0,4253.974121,3220.256348,4240,4083.461426,4195.512695,4288.974121,4238.333496,4264.743652,4325.512695,4238.974121,4409.871582,4407.05127,4193.333496,4397.436035,7302,4,85,,,,0,4,4,4,4,4,4,4,4,4,4,4,4,4,4,100,1,8.333333,4,0,3,1,1,0,4,3,3,4,1,3,1,4,,,,,,,,,,,,,,,,,,,,,,,,,,,,,,,,,,,,,,,,,,,,,,,,,20.64241,1.089581,0.291587,0.463226,0.617394,2179.968262,355.378601,122.529366,26.077801,4.26631,11.320159,0.764056,0.418224,0.45909,0.55995,13.062001,0.681853,0.198948,0.636155,0.589755,33.581451,4.179907,2.035895,0.380066,0.631844,383.741791,49.38797,14.26165,5.420232,1.170908,1.356184,0.820938,0.276354,0.28782,0.356184,2.354951,0.479374,0.695071,0.323173,0.437643,4.560112,0.868701,0.553959,0.449089,0.452348,3.065287,0.488284,0.472241,0.329698,0.56979,12.754767,0.697296,0.561081,0.58964,0.74112,10.804058,0.839627,0.666458,0.615097,0.824186,33.924599,1.19027,0.755969,0.770486,0.883875,25.39739,1.346588,0.480284,0.606665,0.670658
1702629659,82,0,4267.94873,3291.025635,4258.717773,4102.563965,4186.153809,4321.794922,4251.922852,4278.333496,4339.230957,4249.358887,4430.897461,4430.769043,4219.871582,4422.94873,6027,4,85,,,,0,4,4,4,4,4,4,4,4,4,4,4,4,4,4,100,,,,,,,,,,,,,,,,,,,,,,,,,,,,,,,,,,,,,,,,,,,,,,,,,,,,,,,,,,,,,,,,,,,,,,,,,,,,,,,,,,,,,,,,,,,,,,,,,,,,,,,,,,,,,,,,,,,,,,,,,,,,,,,,,,,,,,
1702629659,83,0,4270.256348,3357.435791,4267.436035,4111.282227,4187.820313,4350.256348,4260.384766,4283.205078,4342.436035,4248.846191,4430.512695,4438.205078,4216.153809,4427.05127,6250,4,85,,,,0,4,4,4,4,4,4,4,4,4,4,4,4,4,4,100,,,,,,,,,,,,,,,,,,,,,,,,,,,,,,,,,,,,,,,,,,,,,,,,,,,,,,,,,,,,,,,,,,,,,,,,,,,,,,,,,,,,,,,,,,,,,,,,,,,,,,,,,,,,,,,,,,,,,,,,,,,,,,,,,,,,,,
1702629659,84,0,4263.974121,3412.820557,4261.153809,4106.153809,4187.820313,4372.436035,4252.692383,4273.205078,4336.025879,4246.410156,4413.846191,4428.461426,4196.794922,4415.512695,6848,4,85,,,,0,4,4,4,4,4,4,4,4,4,4,4,4,4,4,100,,,,,,,,,,,,,,,,,21,0,0.48427,-0.619141,-0.343201,-0.51416,0.96252,-0.23538,-0.006348,-13.68029,-5.514174,84.140686,,,,,,,,,,,,,,,,,,,,,,,,,,,,,,,,,,,,,,,,,,,,,,,,,,,,,,,,,,,,,,,,,,,,,,,,,,,,,,,,,,,,,,,,,,,,,,,,,,,,,,,,,,
1702629659,85,0,4254.487305,3465.512939,4251.410156,4103.717773,4183.333496,4387.05127,4238.205078,4265,4335.256348,4241.794922,4405.512695,4418.205078,4191.794922,4408.717773,7302,4,85,,,,0,4,4,4,4,4,4,4,4,4,4,4,4,4,4,100,,,,,,,,,,,,,,,,,,,,,,,,,,,,,,,,,,,,,,,,,,,,,,,,,,,,,,,,,,,,,,,,,,,,,,,,,,,,,,,,,,,,,,,,,,,,,,,,,,,,,,,,,,,,,,,,,,,,,,,,,,,,,,,,,,,,,,
1702629659,86,0,4251.538574,3510.641113,4246.922852,4105.512695,4171.538574,4399.102539,4231.794922,4260.256348,4332.692383,4232.436035,4398.205078,4409.743652,4185,4404.102539,6027,4,85,,,,0,4,4,4,4,4,4,4,4,4,4,4,4,4,4,100,,,,,,,,,,,,,,,,,,,,,,,,,,,,,,,,,,,,,,,,,,,,,,,,,,,,,,,,,,,,,,,,,,,,,,,,,,,,,,,,,,,,,,,,,,,,,,,,,,,,,,,,,,,,,,,,,,,,,,,,,,,,,,,,,,,,,,
1702629659,87,0,4265.256348,3552.820557,4250.769043,4115.256348,4164.230957,4411.410156,4234.102539,4252.820313,4325.256348,4232.692383,4395.128418,4405.641113,4180.128418,4408.077148,6250,4,85,,,,0,4,4,4,4,4,4,4,4,4,4,4,4,4,4,100,,,,,,,,,,,,,,,,,,,,,,,,,,,,,,,,,,,,,,,,,,,,,,,,,,,,,,,,,,,,,,,,,,,,,,,,,,,,,,,,,,,,,,,,,,,,,,,,,,,,,,,,,,,,,,,,,,,,,,,,,,,,,,,,,,,,,,
1702629659,88,0,4263.077148,3592.564209,4248.205078,4122.307617,4167.05127,4411.794922,4230.897461,4245.769043,4319.871582,4235.769043,4391.666504,4395.897461,4176.153809,4406.794922,6848,4,85,,,,0,4,4,4,4,4,4,4,4,4,4,4,4,4,4,100,,,,,,,,,,,,,,,,,22,0,0.483435,-0.618286,-0.342896,-0.516174,0.953241,-0.231474,0.001465,-13.445595,-5.579423,84.15995,,,,,,,,,,,,,,,,,,,,,,,,,,,,,,,,,,,,,,,,,,,,,,,,,,,,,,,,,,,,,,,,,,,,,,,,,,,,,,,,,,,,,,,,,,,,,,,,,,,,,,,,,,
1702629659,89,0,4245.897461,3623.333252,4241.025879,4121.410156,4160.769043,4406.025879,4227.436035,4241.410156,4318.205078,4228.589844,4379.743652,4384.615234,4162.692383,4395.897461,7302,4,85,,,,0,4,4,4,4,4,4,4,4,4,4,4,4,4,4,100,,,,,,,,,,,,,,,,,,,,,,,,,,,,,,,,,,,,,,,,,,,,,,,,,,,,,,,,,,,,,,,,,,,,,,,,,,,,,,,,,,,,,,,,,,,,,,,,,,,,,,,,,,,,,,,,,,,,,,,,,,,,,,,,,,,,,,
1702629659,90,0,4245.641113,3648.333252,4238.717773,4122.179688,4141.922852,4408.205078,4229.871582,4239.358887,4317.563965,4226.410156,4370.256348,4384.102539,4149.487305,4390.897461,6027,4,85,,,,0,4,4,4,4,4,4,4,4,4,4,4,4,4,4,100,,,,,,,,,,,,,,,,,,,,,,,,,,,,,,,,,,,,,,,,,,,,,,,,,,,,,,,,,,,,,,,,,,,,,,,,,,,,,,,,,,,,,,,,,,,,,,,,,,,,,,,,,,,,,,,,,,,,,,,,,,,,,,,,,,,,,,
1702629659,91,0,4252.307617,3679.743652,4237.820313,4122.820313,4142.563965,4410.512695,4228.589844,4241.538574,4318.717773,4232.307617,4371.153809,4385.128418,4140.384766,4391.666504,6250,4,85,,,,0,4,4,4,4,4,4,4,4,4,4,4,4,4,4,100,,,,,,,,,,,,,,,,,,,,,,,,,,,,,,,,,,,,,,,,,,,,,,,,,,,,,,,,,,,,,,,,,,,,,,,,,,,,,,,,,,,,,,,,,,,,,,,,,,,,,,,,,,,,,,,,,,,,,,,,,,,,,,,,,,,,,,
1702629659,92,0,4249.743652,3712.179443,4240.128418,4125.769043,4157.563965,4412.820313,4228.205078,4247.563965,4323.205078,4234.615234,4371.922852,4383.717773,4132.05127,4389.358887,6848,4,85,,,,0,4,4,4,4,4,4,4,4,4,4,4,4,4,4,100,,,,,,,,,,,,,,,,,23,0,0.482858,-0.617798,-0.342102,-0.517822,0.973752,-0.2178,0.002442,-13.284369,-5.554814,84.127289,,,,,,,,,,,,,,,,,,,,,,,,,,,,,,,,,,,,,,,,,,,,,,,,,,,,,,,,,,,,,,,,,,,,,,,,,,,,,,,,,,,,,,,,,,,,,,,,,,,,,,,,,,
1702629659,93,0,4247.05127,3728.461426,4243.461426,4135.128418,4149.358887,4431.794922,4230.641113,4247.563965,4326.153809,4231.282227,4369.743652,4381.153809,4126.666504,4389.102539,7302,4,85,,,,0,4,4,4,4,4,4,4,4,4,4,4,4,4,4,100,,,,,,,,,,,,,,,,,,,,,,,,,,,,,,,,,,,,,,,,,,,,,,,,,,,,,,,,,,,,,,,,,,,,,,,,,,,,,,,,,,,,,,,,,,,,,,,,,,,,,,,,,,,,,,,,,,,,,,,,,,,,,,,,,,,,,,
1702629659,94,0,4248.461426,3733.461426,4244.743652,4139.487305,4130.769043,4470.128418,4232.692383,4247.94873,4326.666504,4229.230957,4369.743652,4379.230957,4113.333496,4387.820313,6027,4,85,,,,0,4,4,4,4,4,4,4,4,4,4,4,4,4,4,100,,,,,,,,,,,,,,,,,,,,,,,,,,,,,,,,,,,,,,,,,,,,,,,,,,,,,,,,,,,,,,,,,,,,,,,,,,,,,,,,,,,,,,,,,,,,,,,,,,,,,,,,,,,,,,,,,,,,,,,,,,,,,,,,,,,,,,
1702629659,95,0,4247.179688,3750.641113,4240.512695,4136.410156,4136.410156,4510.641113,4234.102539,4253.589844,4327.179688,4231.666504,4364.230957,4378.717773,4092.820557,4381.153809,6250,4,85,,,,0,4,4,4,4,4,4,4,4,4,4,4,4,4,4,100,,,,,,,,,,,,,,,,,,,,,,,,,,,,,,,,,,,,,,,,,,,,,,,,,,,,,,,,,,,,,,,,,,,,,,,,,,,,,,,,,,,,,,,,,,,,,,,,,,,,,,,,,,,,,,,,,,,,,,,,,,,,,,,,,,,,,,
1702629659,96,0,4246.025879,3781.153809,4236.410156,4136.410156,4144.615234,4551.410156,4233.717773,4253.077148,4327.179688,4233.974121,4359.102539,4378.333496,4089.102539,4383.717773,6848,4,85,,,,0,4,4,4,4,4,4,4,4,4,4,4,4,4,4,100,,,,,,,,,,,,,,,,,24,0,0.482202,-0.617554,-0.341248,-0.519287,0.96545,-0.226102,0.013185,-13.139265,-5.566,84.06456,,,,,,,,,,,,,,,,,,,,,,,,,,,,,,,,,,,,,,,,,,,,,,,,,,,,,,,,,,,,,,,,,,,,,,,,,,,,,,,,,,,,,,,,,,,,,,,,,,,,,,,,,,
1702629659,97,0,4249.358887,3798.461426,4240.897461,4142.307617,4126.025879,4596.153809,4230.897461,4246.922852,4326.538574,4233.589844,4362.820313,4377.563965,4106.410156,4393.974121,7302,4,85,,,,0,4,4,4,4,4,4,4,4,4,4,4,4,4,4,100,,,,,,,,,,,,,,,,,,,,,,,,,,,,,,,,,,,,,,,,,,,,,,,,,,,,,,,,,,,,,,,,,17.336866,0.77892,0.268326,0.479594,0.566999,2070.301514,339.442169,108.254364,23.232683,3.756283,10.234633,0.777049,0.411556,0.482101,0.486496,12.282598,0.552447,0.184344,0.620952,0.532007,29.59911,3.789526,1.705951,0.336697,0.511279,423.406494,57.022488,15.633138,5.998285,1.208953,1.244013,0.878026,0.303156,0.273434,0.323252,2.046351,0.527959,0.687108,0.308872,0.380137,3.713788,0.806113,0.528222,0.440785,0.40972,2.899077,0.510413,0.477314,0.301555,0.50688,11.393081,0.718223,0.543032,0.545677,0.676744,9.729227,0.856322,0.629492,0.581718,0.700711,29.866425,1.369343,0.666101,0.674805,0.823942,20.723135,1.115819,0.432017,0.562829,0.596271
1702629659,98,0,4252.307617,3813.974365,4247.563965,4149.230957,4117.692383,4633.333496,4230.384766,4246.153809,4327.94873,4235.384766,4366.922852,4379.358887,4121.025879,4396.922852,6027,4,85,,,,0,4,4,4,4,4,4,4,4,4,4,4,4,4,4,100,,,,,,,,,,,,,,,,,,,,,,,,,,,,,,,,,,,,,,,,,,,,,,,,,,,,,,,,,,,,,,,,,,,,,,,,,,,,,,,,,,,,,,,,,,,,,,,,,,,,,,,,,,,,,,,,,,,,,,,,,,,,,,,,,,,,,,
1702629659,99,0,4257.436035,3841.025635,4253.589844,4156.282227,4129.230957,4650.512695,4231.922852,4250,4330,4240.512695,4368.077148,4384.358887,4122.05127,4397.05127,6250,4,85,,,,0,4,4,4,4,4,4,4,4,4,4,4,4,4,4,100,,,,,,,,,,,,,,,,,,,,,,,,,,,,,,,,,,,,,,,,,,,,,,,,,,,,,,,,,,,,,,,,,,,,,,,,,,,,,,,,,,,,,,,,,,,,,,,,,,,,,,,,,,,,,,,,,,,,,,,,,,,,,,,,,,,,,,
1702629660,100,0,4258.974121,3863.205078,4256.922852,4165.128418,4119.230957,4660.512695,4232.307617,4242.820313,4324.871582,4237.436035,4363.333496,4380.384766,4111.282227,4400.128418,6848,4,85,,,,0,4,4,4,4,4,4,4,4,4,4,4,4,4,4,100,,,,,,,,,,,,,,,,,25,0,0.481649,-0.617615,-0.340149,-0.520447,0.966915,-0.224637,0.012209,-13.042006,-5.542733,84.174767,,,,,,,,,,,,,,,,,,,,,,,,,,,,,,,,,,,,,,,,,,,,,,,,,,,,,,,,,,,,,,,,,,,,,,,,,,,,,,,,,,,,,,,,,,,,,,,,,,,,,,,,,,
1702629660,101,0,4251.538574,3886.538574,4254.230957,4170.384766,4105,4674.487305,4234.871582,4238.589844,4320.641113,4231.410156,4358.077148,4373.077148,4100.641113,4399.230957,7302,4,85,,,,0,4,4,4,4,4,4,4,4,4,4,4,4,4,4,100,,,,,,,,,,,,,,,,,,,,,,,,,,,,,,,,,,,,,,,,,,,,,,,,,,,,,,,,,,,,,,,,,,,,,,,,,,,,,,,,,,,,,,,,,,,,,,,,,,,,,,,,,,,,,,,,,,,,,,,,,,,,,,,,,,,,,,
1702629660,102,0,4249.871582,3914.743652,4248.205078,4168.461426,4111.538574,4661.153809,4233.205078,4245.512695,4326.538574,4237.179688,4362.820313,4373.333496,4102.563965,4400.256348,6027,4,85,,,,0,4,4,4,4,4,4,4,4,4,4,4,4,4,4,100,,,,,,,,,,,,,,,,,,,,,,,,,,,,,,,,,,,,,,,,,,,,,,,,,,,,,,,,,,,,,,,,,,,,,,,,,,,,,,,,,,,,,,,,,,,,,,,,,,,,,,,,,,,,,,,,,,,,,,,,,,,,,,,,,,,,,,
1702629660,103,0,4261.282227,4016.538574,4251.922852,4175.641113,4107.307617,4623.205078,4230.128418,4247.05127,4332.692383,4245,4376.410156,4379.487305,4104.871582,4412.179688,6250,4,85,,,,0,4,4,4,4,4,4,4,4,4,4,4,4,4,4,100,,,,,,,,,,,,,,,,,,,,,,,,,,,,,,,,,,,,,,,,,,,,,,,,,,,,,,,,,,,,,,,,,,,,,,,,,,,,,,,,,,,,,,,,,,,,,,,,,,,,,,,,,,,,,,,,,,,,,,,,,,,,,,,,,,,,,,
1702629660,104,0,4266.922852,4300.384766,4262.563965,4195.512695,4073.076904,4613.846191,4240,4249.230957,4335.256348,4246.153809,4388.461426,4387.436035,4096.922852,4417.692383,6848,4,85,,,,0,4,4,4,4,4,4,4,4,4,4,4,4,4,4,100,,,,,,,,,,,,,,,,,26,0,0.481432,-0.617737,-0.339111,-0.521179,0.949335,-0.220242,0.004395,-12.771138,-5.621793,84.157295,,,,,,,,,,,,,,,,,,,,,,,,,,,,,,,,,,,,,,,,,,,,,,,,,,,,,,,,,,,,,,,,,,,,,,,,,,,,,,,,,,,,,,,,,,,,,,,,,,,,,,,,,,
1702629660,105,0,4263.461426,4682.179688,4262.563965,4204.358887,4032.05127,4627.692383,4249.743652,4260.897461,4341.025879,4247.307617,4393.589844,4392.436035,4093.076904,4417.05127,7302,4,85,,,,0,4,4,4,4,4,4,4,4,4,4,4,4,4,4,100,,,,,,,,,,,,,,,,,,,,,,,,,,,,,,,,,,,,,,,,,,,,,,,,,,,,,,,,,,,,,,,,,,,,,,,,,,,,,,,,,,,,,,,,,,,,,,,,,,,,,,,,,,,,,,,,,,,,,,,,,,,,,,,,,,,,,,
1702629660,106,0,4263.333496,4967.05127,4251.666504,4200.769043,4008.718018,4610.897461,4244.615234,4263.717773,4344.230957,4247.94873,4390.769043,4390,4089.743652,4414.230957,6027,4,85,,,,0,4,4,4,4,4,4,4,4,4,4,4,4,4,4,100,,,,,,,,,,,,,,,,,,,,,,,,,,,,,,,,,,,,,,,,,,,,,,,,,,,,,,,,,,,,,,,,,,,,,,,,,,,,,,,,,,,,,,,,,,,,,,,,,,,,,,,,,,,,,,,,,,,,,,,,,,,,,,,,,,,,,,
1702629660,107,0,4258.846191,5140.897461,4244.487305,4204.871582,4001.923096,4566.922852,4242.563965,4258.077148,4340,4242.820313,4385.897461,4383.589844,4081.025635,4405.256348,6250,4,85,,,,0,4,4,4,4,4,4,4,4,4,4,4,4,4,4,100,,,,,,,,,,,,,,,,,,,,,,,,,,,,,,,,,,,,,,,,,,,,,,,,,,,,,,,,,,,,,,,,,,,,,,,,,,,,,,,,,,,,,,,,,,,,,,,,,,,,,,,,,,,,,,,,,,,,,,,,,,,,,,,,,,,,,,
1702629660,108,0,4251.794922,5283.333496,4251.153809,4217.820313,4006.794922,4541.153809,4252.436035,4262.94873,4340.128418,4237.179688,4389.230957,4384.615234,4077.435791,4399.230957,6848,4,85,,,,0,4,4,4,4,4,4,4,4,4,4,4,4,4,4,100,,,,,,,,,,,,,,,,,27,0,0.481851,-0.617737,-0.337952,-0.521545,0.967892,-0.221707,0.013674,-12.677358,-5.542947,84.09156,,,,,,,,,,,,,,,,,,,,,,,,,,,,,,,,,,,,,,,,,,,,,,,,,,,,,,,,,,,,,,,,,,,,,,,,,,,,,,,,,,,,,,,,,,,,,,,,,,,,,,,,,,
1702629660,109,0,4250,5370.769043,4246.025879,4218.077148,4000.512939,4527.05127,4253.846191,4263.717773,4337.563965,4233.333496,4389.871582,4379.615234,4077.564209,4397.05127,7302,4,85,,,,0,4,4,4,4,4,4,4,4,4,4,4,4,4,4,100,,,,,,,,,,,,,,,,,,,,,,,,,,,,,,,,,,,,,,,,,,,,,,,,,,,,,,,,,,,,,,,,,,,,,,,,,,,,,,,,,,,,,,,,,,,,,,,,,,,,,,,,,,,,,,,,,,,,,,,,,,,,,,,,,,,,,,
1702629660,110,0,4248.077148,5408.974121,4231.410156,4209.871582,3984.615479,4500.128418,4245.769043,4255.256348,4326.410156,4230.897461,4385,4367.94873,4074.358887,4393.974121,6027,4,85,,,,0,4,4,4,4,4,4,4,4,4,4,4,4,4,4,100,,,,,,,,,,,,,,,,,,,,,,,,,,,,,,,,,,,,,,,,,,,,,,,,,,,,,,,,,,,,,,,,,,,,,,,,,,,,,,,,,,,,,,,,,,,,,,,,,,,,,,,,,,,,,,,,,,,,,,,,,,,,,,,,,,,,,,
1702629660,111,0,4249.487305,5452.05127,4236.922852,4211.666504,3987.94873,4472.692383,4247.307617,4257.307617,4327.692383,4229.743652,4389.871582,4372.436035,4073.205078,4395.641113,6250,4,85,,,,0,4,4,4,4,4,4,4,4,4,4,4,4,4,4,100,,,,,,,,,,,,,,,,,,,,,,,,,,,,,,,,,,,,,,,,,,,,,,,,,,,,,,,,,,,,,,,,,,,,,,,,,,,,,,,,,,,,,,,,,,,,,,,,,,,,,,,,,,,,,,,,,,,,,,,,,,,,,,,,,,,,,,
1702629660,112,0,4253.974121,5486.153809,4247.94873,4218.589844,3998.974365,4451.666504,4252.307617,4264.358887,4337.563965,4230.384766,4397.692383,4384.230957,4074.871826,4399.743652,6848,4,85,,,,0,4,4,4,4,4,4,4,4,4,4,4,4,4,4,100,,,,,,,,,,,,,,,,,28,0,0.482127,-0.617737,-0.337463,-0.521606,0.958125,-0.237822,0.004395,-12.542955,-5.555319,84.199074,,,,,,,,,,,,,,,,,,,,,,,,,,,,,,,,,,,,,,,,,,,,,,,,,,,,,,,,,,,,,,,,,,,,,,,,,,,,,,,,,,,,,,,,,,,,,,,,,,,,,,,,,,
1702629660,113,0,4251.922852,5494.230957,4245.128418,4223.461426,3999.358887,4425.897461,4249.615234,4259.615234,4335.128418,4229.615234,4395.384766,4383.333496,4074.743652,4398.461426,7302,4,85,,,,0,4,4,4,4,4,4,4,4,4,4,4,4,4,4,100,,,,,,,,,,,,,,,,,,,,,,,,,,,,,,,,,,,,,,,,,,,,,,,,,,,,,,,,,,,,,,,,,12.62869,0.577277,0.273321,0.476313,0.509726,1959.415527,334.106659,96.358131,20.322451,3.217125,8.408694,0.835209,0.411322,0.490056,0.408543,12.00493,0.523009,0.187786,0.565235,0.473205,24.47995,3.618628,1.419691,0.299753,0.422459,423.590332,61.085804,16.274933,6.388525,1.240785,1.138422,0.871535,0.314296,0.258452,0.294609,1.757781,0.579907,0.637157,0.286594,0.320131,2.715444,0.725924,0.474458,0.408741,0.370484,2.713385,0.526421,0.457806,0.271732,0.448038,9.189179,0.755398,0.529886,0.491301,0.612497,8.082623,0.892067,0.596505,0.535481,0.57392,22.925838,1.517101,0.556399,0.566075,0.741543,14.492913,0.95332,0.410584,0.507169,0.526628
1702629660,114,0,4248.205078,5498.589844,4242.94873,4228.717773,4001.666748,4410.384766,4245.641113,4252.179688,4329.102539,4225.384766,4391.025879,4379.230957,4073.974365,4401.410156,6027,4,85,,,,0,4,4,4,4,4,4,4,4,4,4,4,4,4,4,100,,,,,,,,,,,,,,,,,,,,,,,,,,,,,,,,,,,,,,,,,,,,,,,,,,,,,,,,,,,,,,,,,,,,,,,,,,,,,,,,,,,,,,,,,,,,,,,,,,,,,,,,,,,,,,,,,,,,,,,,,,,,,,,,,,,,,,
1702629660,115,0,4254.102539,5508.205078,4253.846191,4229.487305,4013.846191,4423.333496,4248.974121,4257.94873,4335,4226.282227,4396.153809,4390.641113,4074.230713,4409.358887,6250,4,85,,,,0,4,4,4,4,4,4,4,4,4,4,4,4,4,4,100,,,,,,,,,,,,,,,,,,,,,,,,,,,,,,,,,,,,,,,,,,,,,,,,,,,,,,,,,,,,,,,,,,,,,,,,,,,,,,,,,,,,,,,,,,,,,,,,,,,,,,,,,,,,,,,,,,,,,,,,,,,,,,,,,,,,,,
1702629660,116,0,4259.743652,5507.692383,4264.230957,4233.589844,4018.589844,4435.384766,4252.307617,4265.128418,4343.717773,4234.743652,4401.153809,4401.794922,4074.358887,4410.384766,6848,4,85,,,,0,4,4,4,4,4,4,4,4,4,4,4,4,4,4,100,,,,,,,,,,,,,,,,,29,0,0.48276,-0.617554,-0.336609,-0.52179,0.960566,-0.22366,0.010255,-12.588659,-5.649787,84.212502,,,,,,,,,,,,,,,,,,,,,,,,,,,,,,,,,,,,,,,,,,,,,,,,,,,,,,,,,,,,,,,,,,,,,,,,,,,,,,,,,,,,,,,,,,,,,,,,,,,,,,,,,,
1702629660,117,0,4261.538574,5503.461426,4261.794922,4249.487305,4020.769287,4428.974121,4247.94873,4261.794922,4344.102539,4238.333496,4397.692383,4399.743652,4075.128174,4413.077148,7302,4,85,,,,0,4,4,4,4,4,4,4,4,4,4,4,4,4,4,100,,,,,,,,,,,,,,,,,,,,,,,,,,,,,,,,,,,,,,,,,,,,,,,,,,,,,,,,,,,,,,,,,,,,,,,,,,,,,,,,,,,,,,,,,,,,,,,,,,,,,,,,,,,,,,,,,,,,,,,,,,,,,,,,,,,,,,
1702629660,118,0,4272.692383,5506.922852,4261.922852,4261.666504,4035,4431.666504,4246.922852,4259.743652,4341.922852,4234.615234,4397.179688,4404.230957,4076.538574,4424.358887,6027,4,85,,,,0,4,4,4,4,4,4,4,4,4,4,4,4,4,4,100,,,,,,,,,,,,,,,,,,,,,,,,,,,,,,,,,,,,,,,,,,,,,,,,,,,,,,,,,,,,,,,,,,,,,,,,,,,,,,,,,,,,,,,,,,,,,,,,,,,,,,,,,,,,,,,,,,,,,,,,,,,,,,,,,,,,,,
1702629660,119,0,4285.641113,5505,4272.94873,4265.641113,4040.769287,4447.179688,4256.282227,4263.589844,4344.230957,4228.846191,4393.077148,4414.743652,4080.256348,4433.717773,6250,4,85,,,,0,4,4,4,4,4,4,4,4,4,4,4,4,4,4,100,,,,,,,,,,,,,,,,,,,,,,,,,,,,,,,,,,,,,,,,,,,,,,,,,,,,,,,,,,,,,,,,,,,,,,,,,,,,,,,,,,,,,,,,,,,,,,,,,,,,,,,,,,,,,,,,,,,,,,,,,,,,,,,,,,,,,,
1702629660,120,0,4291.794922,5501.410156,4281.410156,4274.358887,4044.743652,4464.102539,4266.794922,4267.436035,4353.717773,4233.077148,4388.589844,4421.282227,4087.820557,4441.538574,6848,4,85,,,,0,4,4,4,4,4,4,4,4,4,4,4,4,4,4,100,,,,,,,,,,,,,,,,,30,0,0.483721,-0.617371,-0.335754,-0.521667,0.964473,-0.222195,-0.003907,-12.629794,-5.484808,84.257919,,,,,,,,,,,,,,,,,,,,,,,,,,,,,,,,,,,,,,,,,,,,,,,,,,,,,,,,,,,,,,,,,,,,,,,,,,,,,,,,,,,,,,,,,,,,,,,,,,,,,,,,,,
1702629660,121,0,4294.871582,5503.205078,4279.230957,4278.461426,4059.230713,4476.282227,4265.512695,4268.077148,4355.512695,4242.94873,4392.436035,4426.282227,4092.179443,4446.794922,7302,4,85,,,,0,4,4,4,4,4,4,4,4,4,4,4,4,4,4,100,,,,,,,,,,,,,,,,,,,,,,,,,,,,,,,,,,,,,,,,,,,,,,,,,,,,,,,,,,,,,,,,,,,,,,,,,,,,,,,,,,,,,,,,,,,,,,,,,,,,,,,,,,,,,,,,,,,,,,,,,,,,,,,,,,,,,,
1702629660,122,0,4297.820313,5496.282227,4280.769043,4279.102539,4063.974365,4474.230957,4261.282227,4266.794922,4350.512695,4238.333496,4393.589844,4434.102539,4093.846191,4440.769043,6027,4,85,,,,0,4,4,4,4,4,4,4,4,4,4,4,4,4,4,100,,,,,,,,,,,,,,,,,,,,,,,,,,,,,,,,,,,,,,,,,,,,,,,,,,,,,,,,,,,,,,,,,,,,,,,,,,,,,,,,,,,,,,,,,,,,,,,,,,,,,,,,,,,,,,,,,,,,,,,,,,,,,,,,,,,,,,
1702629660,123,0,4299.615234,5481.538574,4284.230957,4289.102539,4064.102539,4478.717773,4267.563965,4266.153809,4353.205078,4234.743652,4388.205078,4436.282227,4102.179688,4439.871582,6250,4,85,,,,0,4,4,4,4,4,4,4,4,4,4,4,4,4,4,100,,,,,,,,,,,,,,,,,,,,,,,,,,,,,,,,,,,,,,,,,,,,,,,,,,,,,,,,,,,,,,,,,,,,,,,,,,,,,,,,,,,,,,,,,,,,,,,,,,,,,,,,,,,,,,,,,,,,,,,,,,,,,,,,,,,,,,
1702629660,124,0,4295.769043,5472.563965,4278.974121,4293.717773,4079.102539,4495.128418,4268.205078,4264.871582,4351.538574,4243.589844,4388.205078,4430.769043,4107.692383,4444.358887,6848,4,85,,,,0,4,4,4,4,4,4,4,4,4,4,4,4,4,4,100,,,,,,,,,,,,,,,,,31,0,0.484565,-0.617065,-0.334717,-0.521912,0.95666,-0.24124,0.014162,-12.533481,-5.652994,84.365456,,,,,,,,,,,,,,,,,,,,,,,,,,,,,,,,,,,,,,,,,,,,,,,,,,,,,,,,,,,,,,,,,,,,,,,,,,,,,,,,,,,,,,,,,,,,,,,,,,,,,,,,,,
1702629660,125,0,4285.897461,5460.512695,4277.05127,4284.487305,4090,4506.922852,4264.358887,4264.615234,4345,4242.436035,4395.256348,4428.589844,4105.641113,4437.820313,7302,4,85,,,,0,4,4,4,4,4,4,4,4,4,4,4,4,4,4,100,,,,,,,,,,,,,,,,,,,,,,,,,,,,,,,,,,,,,,,,,,,,,,,,,,,,,,,,,,,,,,,,,,,,,,,,,,,,,,,,,,,,,,,,,,,,,,,,,,,,,,,,,,,,,,,,,,,,,,,,,,,,,,,,,,,,,,
1702629660,126,0,4281.282227,5433.974121,4279.358887,4280.641113,4079.743652,4514.102539,4270.641113,4266.794922,4350,4232.94873,4397.563965,4431.794922,4109.358887,4432.820313,6027,4,85,,,,0,4,4,4,4,4,4,4,4,4,4,4,4,4,4,100,,,,,,,,,,,,,,,,,,,,,,,,,,,,,,,,,,,,,,,,,,,,,,,,,,,,,,,,,,,,,,,,,,,,,,,,,,,,,,,,,,,,,,,,,,,,,,,,,,,,,,,,,,,,,,,,,,,,,,,,,,,,,,,,,,,,,,
1702629660,127,0,4277.94873,5405.128418,4270.641113,4279.358887,4075.769287,4516.410156,4272.05127,4264.615234,4352.179688,4229.615234,4389.487305,4432.307617,4108.717773,4429.102539,85,4,85,,,,0,4,4,4,4,4,4,4,4,4,4,4,4,4,4,100,,,,,,,,,,,,,,,,,,,,,,,,,,,,,,,,,,,,,,,,,,,,,,,,,,,,,,,,,,,,,,,,,,,,,,,,,,,,,,,,,,,,,,,,,,,,,,,,,,,,,,,,,,,,,,,,,,,,,,,,,,,,,,,,,,,,,,
1702629660,0,0,4267.05127,5379.743652,4259.743652,4273.205078,4083.333252,4512.820313,4267.179688,4262.94873,4339.358887,4231.538574,4383.205078,4425.769043,4096.282227,4417.692383,5688,4,85,,,,0,4,4,4,4,4,4,4,4,4,4,4,4,4,4,100,,,,,,,,,,,,,,,,,0,0,0.485579,-0.616516,-0.333496,-0.5224,0.947381,-0.248077,0.013674,-12.496799,-5.771028,84.362244,,,,,,,,,,,,,,,,,,,,,,,,,,,,,,,,,,,,,,,,,,,,,,,,,,,,,,,,,,,,,,,,,,,,,,,,,,,,,,,,,,,,,,,,,,,,,,,,,,,,,,,,,,
1702629660,1,0,4262.436035,5350.641113,4262.307617,4273.333496,4080.128174,4522.94873,4277.820313,4272.692383,4342.436035,4239.743652,4391.282227,4426.666504,4097.436035,4413.717773,5597,4,85,,,,0,4,4,4,4,4,4,4,4,4,4,4,4,4,4,100,,,,,,,,,,,,,,,,,,,,,,,,,,,,,,,,,,,,,,,,,,,,,,,,,,,,,,,,,,,,,,,,,8.072717,0.49226,0.307728,0.452376,0.460078,2027.906982,342.357147,91.107773,18.274338,2.811297,6.550474,0.896788,0.416758,0.475445,0.339898,12.22086,0.575057,0.206782,0.478563,0.423134,19.987743,3.670124,1.268198,0.281178,0.375143,382.486359,63.824421,16.305857,6.447615,1.262205,1.049526,0.813793,0.310969,0.243528,0.272454,1.594589,0.634811,0.561132,0.257376,0.26808,1.943806,0.670411,0.411377,0.358845,0.334044,2.538588,0.557729,0.427828,0.249506,0.393965,6.792655,0.82671,0.552795,0.44056,0.556971,6.457328,0.942786,0.58566,0.484065,0.468476,15.02645,1.624113,0.476007,0.479835,0.658487,8.807961,0.919584,0.427715,0.446952,0.473232
1702629660,2,0,4267.436035,5325.769043,4266.153809,4275.769043,4082.435791,4539.743652,4293.461426,4284.615234,4362.05127,4247.563965,4400.897461,4438.461426,4107.05127,4418.205078,5390,4,85,,,,0,4,4,4,4,4,4,4,4,4,4,4,4,4,4,100,,,,,,,,,,,,,,,,,,,,,,,,,,,,,,,,,,,,,,,,,,,,,,,,,,,,,,,,,,,,,,,,,,,,,,,,,,,,,,,,,,,,,,,,,,,,,,,,,,,,,,,,,,,,,,,,,,,,,,,,,,,,,,,,,,,,,,
1702629660,3,0,4271.153809,5305.512695,4262.563965,4276.410156,4104.230957,4531.282227,4293.846191,4288.461426,4365.769043,4243.205078,4399.358887,4443.205078,4104.358887,4417.820313,5258,4,85,,,,0,4,4,4,4,4,4,4,4,4,4,4,4,4,4,100,,,,,,,,,,,,,,,,,,,,,,,,,,,,,,,,,,,,,,,,,,,,,,,,,,,,,,,,,,,,,,,,,,,,,,,,,,,,,,,,,,,,,,,,,,,,,,,,,,,,,,,,,,,,,,,,,,,,,,,,,,,,,,,,,,,,,,
1702629660,4,0,4276.794922,5277.05127,4271.282227,4286.410156,4121.666504,4514.615234,4293.974121,4296.538574,4368.717773,4244.871582,4406.794922,4447.563965,4110.128418,4424.230957,5407,4,85,,,,0,4,4,4,4,4,4,4,4,4,4,4,4,4,4,100,,,,,,,,,,,,,,,,,1,0,0.487227,-0.615295,-0.332581,-0.522888,0.950311,-0.233915,0.020999,-12.54712,-5.760592,84.392685,,,,,,,,,,,,,,,,,,,,,,,,,,,,,,,,,,,,,,,,,,,,,,,,,,,,,,,,,,,,,,,,,,,,,,,,,,,,,,,,,,,,,,,,,,,,,,,,,,,,,,,,,,
1702629660,5,0,4282.692383,5237.692383,4281.282227,4298.077148,4122.820313,4493.205078,4299.102539,4304.743652,4376.025879,4255.641113,4417.563965,4456.153809,4122.436035,4432.692383,5352,4,85,,,,0,4,4,4,4,4,4,4,4,4,4,4,4,4,4,100,,,,,,,,,,,,,,,,,,,,,,,,,,,,,,,,,,,,,,,,,,,,,,,,,,,,,,,,,,,,,,,,,,,,,,,,,,,,,,,,,,,,,,,,,,,,,,,,,,,,,,,,,,,,,,,,,,,,,,,,,,,,,,,,,,,,,,
1702629660,6,0,4278.974121,5189.102539,4268.077148,4298.205078,4117.820313,4447.692383,4296.538574,4297.179688,4366.666504,4249.615234,4407.563965,4449.230957,4113.077148,4422.436035,5120,4,85,,,,0,4,4,4,4,4,4,4,4,4,4,4,4,4,4,100,,,,,,,,,,,,,,,,,,,,,,,,,,,,,,,,,,,,,,,,,,,,,,,,,,,,,,,,,,,,,,,,,,,,,,,,,,,,,,,,,,,,,,,,,,,,,,,,,,,,,,,,,,,,,,,,,,,,,,,,,,,,,,,,,,,,,,
1702629660,7,0,4282.436035,5149.102539,4263.717773,4305.769043,4124.615234,4413.077148,4294.358887,4293.846191,4359.615234,4244.230957,4401.282227,4441.410156,4109.743652,4417.820313,5333,4,85,,,,0,4,4,4,4,4,4,4,4,4,4,4,4,4,4,100,,,,,,,,,,,,,,,,,,,,,,,,,,,,,,,,,,,,,,,,,,,,,,,,,,,,,,,,,,,,,,,,,,,,,,,,,,,,,,,,,,,,,,,,,,,,,,,,,,,,,,,,,,,,,,,,,,,,,,,,,,,,,,,,,,,,,,
1702629660,8,0,4297.563965,5122.94873,4284.102539,4326.794922,4143.205078,4404.743652,4295.897461,4306.666504,4370.769043,4258.846191,4414.487305,4452.05127,4132.436035,4430.512695,5370,4,85,,,,0,4,4,4,4,4,4,4,4,4,4,4,4,4,4,100,,,,,,,,,,,,,,,,,2,0,0.489608,-0.613708,-0.331726,-0.523071,0.94201,-0.229032,0.026859,-12.542408,-5.684533,84.436752,,,,,,,,,,,,,,,,,,,,,,,,,,,,,,,,,,,,,,,,,,,,,,,,,,,,,,,,,,,,,,,,,,,,,,,,,,,,,,,,,,,,,,,,,,,,,,,,,,,,,,,,,,
1702629660,9,0,4300.128418,5084.743652,4290.384766,4336.922852,4155.384766,4394.487305,4296.410156,4306.794922,4373.717773,4262.563965,4413.461426,4455.769043,4137.436035,4429.102539,5305,4,85,,,,0,4,4,4,4,4,4,4,4,4,4,4,4,4,4,100,,,,,,,,,,,,,,,,,,,,,,,,,,,,,,,,,,,,,,,,,,,,,,,,,,,,,,,,,,,,,,,,,,,,,,,,,,,,,,,,,,,,,,,,,,,,,,,,,,,,,,,,,,,,,,,,,,,,,,,,,,,,,,,,,,,,,,
1702629660,10,0,4293.717773,5026.282227,4279.871582,4334.871582,4157.05127,4368.333496,4294.358887,4293.589844,4363.974121,4248.974121,4397.436035,4443.461426,4126.794922,4413.974121,6017,4,85,,,,0,4,4,4,4,4,4,4,4,4,4,4,4,4,4,100,,,,,,,,,,,,,,,,,,,,,,,,,,,,,,,,,,,,,,,,,,,,,,,,,,,,,,,,,,,,,,,,,,,,,,,,,,,,,,,,,,,,,,,,,,,,,,,,,,,,,,,,,,,,,,,,,,,,,,,,,,,,,,,,,,,,,,
1702629660,11,0,4294.871582,4966.282227,4279.487305,4339.102539,4160.384766,4336.025879,4295.512695,4293.461426,4363.846191,4246.153809,4393.846191,4438.205078,4133.077148,4412.05127,6239,4,85,,,,0,4,4,4,4,4,4,4,4,4,4,4,4,4,4,100,,,,,,,,,,,,,,,,,,,,,,,,,,,,,,,,,,,,,,,,,,,,,,,,,,,,,,,,,,,,,,,,,,,,,,,,,,,,,,,,,,,,,,,,,,,,,,,,,,,,,,,,,,,,,,,,,,,,,,,,,,,,,,,,,,,,,,
1702629660,12,0,4296.025879,4911.666504,4280.384766,4347.563965,4168.717773,4305.897461,4297.307617,4296.282227,4361.410156,4250.256348,4387.307617,4434.230957,4139.487305,4412.820313,6828,4,85,,,,0,4,4,4,4,4,4,4,4,4,4,4,4,4,4,100,,,,,,,,,,,,,,,,,3,0,0.491899,-0.611755,-0.331848,-0.523132,0.969357,-0.238799,0.024905,-12.4215,-5.682746,84.543076,,,,,,,,,,,,,,,,,,,,,,,,,,,,,,,,,,,,,,,,,,,,,,,,,,,,,,,,,,,,,,,,,,,,,,,,,,,,,,,,,,,,,,,,,,,,,,,,,,,,,,,,,,
1702629660,13,0,4291.538574,4859.615234,4276.025879,4352.692383,4178.205078,4288.717773,4296.153809,4290.256348,4351.538574,4246.282227,4372.94873,4427.692383,4134.102539,4403.846191,7279,4,85,,,,0,4,4,4,4,4,4,4,4,4,4,4,4,4,4,100,,,,,,,,,,,,,,,,,,,,,,,,,,,,,,,,,,,,,,,,,,,,,,,,,,,,,,,,,,,,,,,,,,,,,,,,,,,,,,,,,,,,,,,,,,,,,,,,,,,,,,,,,,,,,,,,,,,,,,,,,,,,,,,,,,,,,,
1702629660,14,0,4298.461426,4814.230957,4284.487305,4361.538574,4184.871582,4280.641113,4300.256348,4290.897461,4350.256348,4247.94873,4376.410156,4436.153809,4139.358887,4407.563965,6017,4,85,,,,0,4,4,4,4,4,4,4,4,4,4,4,4,4,4,100,,,,,,,,,,,,,,,,,,,,,,,,,,,,,,,,,,,,,,,,,,,,,,,,,,,,,,,,,,,,,,,,,,,,,,,,,,,,,,,,,,,,,,,,,,,,,,,,,,,,,,,,,,,,,,,,,,,,,,,,,,,,,,,,,,,,,,
1702629660,15,0,4308.974121,4768.333496,4297.179688,4369.102539,4190.512695,4274.615234,4310.769043,4296.282227,4354.487305,4253.974121,4382.179688,4447.820313,4152.94873,4417.05127,6239,4,85,,,,0,4,4,4,4,4,4,4,4,4,4,4,4,4,4,100,,,,,,,,,,,,,,,,,,,,,,,,,,,,,,,,,,,,,,,,,,,,,,,,,,,,,,,,,,,,,,,,,,,,,,,,,,,,,,,,,,,,,,,,,,,,,,,,,,,,,,,,,,,,,,,,,,,,,,,,,,,,,,,,,,,,,,
1702629660,16,0,4300.512695,4717.179688,4293.974121,4365.769043,4196.410156,4280.256348,4314.871582,4294.871582,4352.179688,4249.871582,4369.743652,4444.487305,4153.333496,4406.025879,0,4,85,,,,0,4,4,4,4,4,4,4,4,4,4,4,4,4,4,100,,,,,,,,,,,,,,,,,4,0,0.492944,-0.610596,-0.332336,-0.523193,0.964962,-0.249542,0.036626,-12.296017,-5.781138,84.538773,,,,,,,,,,,,,,,,,,,,,,,,,,,,,,,,,,,,,,,,,,,,,,,,,,,,,,,,,,,,,,,,,,,,,,,,,,,,,,,,,,,,,,,,,,,,,,,,,,,,,,,,,,
1702629660,17,0,4289.615234,4678.846191,4283.974121,4364.230957,4204.230957,4287.05127,4302.179688,4290.897461,4343.333496,4247.179688,4360.769043,4437.436035,4150,4396.666504,0,4,85,,,,0,4,4,4,4,4,4,4,4,4,4,4,4,4,4,100,1,0,4,0,4,1,0,0,4,4,3,4,1,3,1,4,,,,,,,,,,,,,,,,,,,,,,,,,,,,,,,,,,,,,,,,,,,,,,,,,4.902462,0.511023,0.357095,0.41215,0.423633,2212.739014,369.310852,93.290665,17.933163,2.640694,5.219041,0.92783,0.425353,0.438601,0.288035,12.814497,0.703965,0.236439,0.379442,0.386769,17.801746,3.96136,1.250813,0.291614,0.363404,310.422577,66.673492,16.029526,6.141749,1.266298,0.975695,0.730194,0.294208,0.232078,0.255151,1.528705,0.700331,0.475156,0.225253,0.228149,1.36721,0.664055,0.355848,0.300655,0.297076,2.371804,0.615525,0.399601,0.239686,0.344278,4.737958,0.940302,0.621362,0.404511,0.509835,5.387381,1.010077,0.602033,0.436242,0.394949,8.959824,1.703451,0.45625,0.440012,0.590598,5.081908,1.027064,0.475322,0.3909,0.436238
1702629660,18,0,4301.922852,4649.615234,4289.615234,4375.512695,4208.717773,4288.077148,4296.666504,4291.538574,4341.666504,4252.307617,4367.692383,4438.589844,4154.487305,4410.897461,0,4,85,,,,0,4,4,4,4,4,4,4,4,4,4,4,4,4,4,100,,,,,,,,,,,,,,,,,,,,,,,,,,,,,,,,,,,,,,,,,,,,,,,,,,,,,,,,,,,,,,,,,,,,,,,,,,,,,,,,,,,,,,,,,,,,,,,,,,,,,,,,,,,,,,,,,,,,,,,,,,,,,,,,,,,,,,
1702629660,19,0,4313.333496,4610.897461,4298.077148,4389.743652,4215.897461,4295.384766,4310.384766,4293.974121,4346.794922,4249.487305,4366.410156,4441.410156,4151.282227,4418.333496,0,4,85,,,,0,4,4,4,4,4,4,4,4,4,4,4,4,4,4,100,,,,,,,,,,,,,,,,,,,,,,,,,,,,,,,,,,,,,,,,,,,,,,,,,,,,,,,,,,,,,,,,,,,,,,,,,,,,,,,,,,,,,,,,,,,,,,,,,,,,,,,,,,,,,,,,,,,,,,,,,,,,,,,,,,,,,,
1702629660,20,0,4298.846191,4564.102539,4285.384766,4390.256348,4229.487305,4287.05127,4305.641113,4278.717773,4331.025879,4227.436035,4341.410156,4426.666504,4130.512695,4398.333496,0,4,85,,,,0,4,4,4,4,4,4,4,4,4,4,4,4,4,4,100,,,,,,,,,,,,,,,,,5,0,0.495262,-0.608154,-0.333557,-0.523071,0.962031,-0.254426,0.035649,-12.249748,-5.686357,84.551559,,,,,,,,,,,,,,,,,,,,,,,,,,,,,,,,,,,,,,,,,,,,,,,,,,,,,,,,,,,,,,,,,,,,,,,,,,,,,,,,,,,,,,,,,,,,,,,,,,,,,,,,,,
1702629660,21,0,4297.179688,4522.692383,4280.256348,4389.615234,4231.153809,4272.179688,4290.128418,4262.692383,4308.461426,4216.410156,4331.282227,4415.897461,4128.717773,4391.538574,0,4,85,,,,0,4,4,4,4,4,4,4,4,4,4,4,4,4,4,100,,,,,,,,,,,,,,,,,,,,,,,,,,,,,,,,,,,,,,,,,,,,,,,,,,,,,,,,,,,,,,,,,,,,,,,,,,,,,,,,,,,,,,,,,,,,,,,,,,,,,,,,,,,,,,,,,,,,,,,,,,,,,,,,,,,,,,
1702629660,22,0,4317.820313,4491.922852,4296.666504,4399.615234,4230.897461,4292.94873,4300.256348,4271.666504,4313.205078,4232.692383,4351.538574,4430.256348,4153.589844,4410.256348,0,4,85,,,,0,4,4,4,4,4,4,4,4,4,4,4,4,4,4,100,,,,,,,,,,,,,,,,,,,,,,,,,,,,,,,,,,,,,,,,,,,,,,,,,,,,,,,,,,,,,,,,,,,,,,,,,,,,,,,,,,,,,,,,,,,,,,,,,,,,,,,,,,,,,,,,,,,,,,,,,,,,,,,,,,,,,,
1702629660,23,0,4316.153809,4467.563965,4298.461426,4398.589844,4240.384766,4337.94873,4306.025879,4275.256348,4318.846191,4232.563965,4353.974121,4436.025879,4155.256348,4408.077148,0,4,85,,,,0,4,4,4,4,4,4,4,4,4,4,4,4,4,4,100,,,,,,,,,,,,,,,,,,,,,,,,,,,,,,,,,,,,,,,,,,,,,,,,,,,,,,,,,,,,,,,,,,,,,,,,,,,,,,,,,,,,,,,,,,,,,,,,,,,,,,,,,,,,,,,,,,,,,,,,,,,,,,,,,,,,,,
1702629660,24,0,4303.333496,4456.153809,4286.538574,4392.307617,4241.666504,4370.512695,4292.94873,4261.153809,4304.615234,4216.538574,4339.102539,4423.974121,4143.974121,4393.205078,0,4,85,,,,0,4,4,4,4,4,4,4,4,4,4,4,4,4,4,100,,,,,,,,,,,,,,,,,6,0,0.49756,-0.605408,-0.33551,-0.522827,0.971798,-0.240752,0.061531,-12.158107,-5.484388,84.613068,,,,,,,,,,,,,,,,,,,,,,,,,,,,,,,,,,,,,,,,,,,,,,,,,,,,,,,,,,,,,,,,,,,,,,,,,,,,,,,,,,,,,,,,,,,,,,,,,,,,,,,,,,
1702629660,25,0,4313.589844,4454.871582,4294.487305,4409.743652,4231.922852,4385.256348,4303.205078,4264.743652,4307.563965,4226.794922,4354.230957,4431.922852,4160.256348,4404.871582,0,4,85,,,,0,4,4,4,4,4,4,4,4,4,4,4,4,4,4,100,,,,,,,,,,,,,,,,,,,,,,,,,,,,,,,,,,,,,,,,,,,,,,,,,,,,,,,,,,,,,,,,,,,,,,,,,,,,,,,,,,,,,,,,,,,,,,,,,,,,,,,,,,,,,,,,,,,,,,,,,,,,,,,,,,,,,,
1702629660,26,0,4319.102539,4452.05127,4301.922852,4420.128418,4233.333496,4363.974121,4312.820313,4272.563965,4313.589844,4239.871582,4372.563965,4443.077148,4174.230957,4411.538574,0,4,85,,,,0,4,4,4,4,4,4,4,4,4,4,4,4,4,4,100,,,,,,,,,,,,,,,,,,,,,,,,,,,,,,,,,,,,,,,,,,,,,,,,,,,,,,,,,,,,,,,,,,,,,,,,,,,,,,,,,,,,,,,,,,,,,,,,,,,,,,,,,,,,,,,,,,,,,,,,,,,,,,,,,,,,,,
1702629660,27,0,4304.615234,4456.666504,4292.820313,4406.025879,4248.589844,4331.410156,4295.256348,4261.025879,4296.282227,4226.153809,4363.846191,4427.692383,4163.589844,4393.846191,0,4,85,,,,0,4,4,4,4,4,4,4,4,4,4,4,4,4,4,100,,,,,,,,,,,,,,,,,,,,,,,,,,,,,,,,,,,,,,,,,,,,,,,,,,,,,,,,,,,,,,,,,,,,,,,,,,,,,,,,,,,,,,,,,,,,,,,,,,,,,,,,,,,,,,,,,,,,,,,,,,,,,,,,,,,,,,
1702629660,28,0,4313.461426,4477.820313,4300.641113,4416.282227,4249.358887,4351.794922,4296.794922,4265.769043,4299.871582,4228.846191,4374.871582,4431.153809,4170,4399.102539,0,4,85,,,,0,4,4,4,4,4,4,4,4,4,4,4,4,4,4,100,,,,,,,,,,,,,,,,,7,0,0.500537,-0.602478,-0.337585,-0.522034,0.948358,-0.229032,0.038579,-12.158963,-5.33595,84.535095,,,,,,,,,,,,,,,,,,,,,,,,,,,,,,,,,,,,,,,,,,,,,,,,,,,,,,,,,,,,,,,,,,,,,,,,,,,,,,,,,,,,,,,,,,,,,,,,,,,,,,,,,,
1702629660,29,0,4330.769043,4496.025879,4318.589844,4434.871582,4240.512695,4396.025879,4314.358887,4287.05127,4324.615234,4252.94873,4404.230957,4455.641113,4191.025879,4420.384766,0,4,85,,,,0,4,4,4,4,4,4,4,4,4,4,4,4,4,4,100,,,,,,,,,,,,,,,,,,,,,,,,,,,,,,,,,,,,,,,,,,,,,,,,,,,,,,,,,,,,,,,,,,,,,,,,,,,,,,,,,,,,,,,,,,,,,,,,,,,,,,,,,,,,,,,,,,,,,,,,,,,,,,,,,,,,,,
1702629660,30,0,4318.974121,4507.692383,4311.794922,4422.307617,4233.974121,4424.358887,4309.230957,4279.615234,4314.358887,4244.871582,4400.512695,4446.025879,4186.410156,4409.358887,0,4,85,,,,0,4,4,4,4,4,4,4,4,4,4,4,4,4,4,100,,,,,,,,,,,,,,,,,,,,,,,,,,,,,,,,,,,,,,,,,,,,,,,,,,,,,,,,,,,,,,,,,,,,,,,,,,,,,,,,,,,,,,,,,,,,,,,,,,,,,,,,,,,,,,,,,,,,,,,,,,,,,,,,,,,,,,
1702629660,31,0,4305,4543.077148,4295.256348,4414.487305,4227.94873,4465.769043,4300.769043,4261.025879,4290,4223.077148,4384.615234,4421.922852,4175.769043,4388.461426,0,4,85,,,,0,4,4,4,4,4,4,4,4,4,4,4,4,4,4,100,,,,,,,,,,,,,,,,,,,,,,,,,,,,,,,,,,,,,,,,,,,,,,,,,,,,,,,,,,,,,,,,,,,,,,,,,,,,,,,,,,,,,,,,,,,,,,,,,,,,,,,,,,,,,,,,,,,,,,,,,,,,,,,,,,,,,,
1702629660,32,0,4310.128418,4601.794922,4293.974121,4423.077148,4220.512695,4508.589844,4304.358887,4267.179688,4296.282227,4234.358887,4395.512695,4424.358887,4181.922852,4389.358887,0,4,85,,,,0,4,4,4,4,4,4,4,4,4,4,4,4,4,4,100,,,,,,,,,,,,,,,,,8,0,0.50387,-0.599548,-0.339722,-0.520813,0.97131,-0.261751,0.052252,-12.059733,-5.219021,84.44825,,,,,,,,,,,,,,,,,,,,,,,,,,,,,,,,,,,,,,,,,,,,,,,,,,,,,,,,,,,,,,,,,,,,,,,,,,,,,,,,,,,,,,,,,,,,,,,,,,,,,,,,,,
1702629660,33,0,4311.538574,4659.871582,4295.897461,4415.641113,4207.820313,4517.436035,4303.461426,4278.846191,4313.077148,4248.461426,4413.461426,4430.512695,4192.94873,4394.871582,0,4,85,,,,0,4,4,4,4,4,4,4,4,4,4,4,4,4,4,100,,,,,,,,,,,,,,,,,,,,,,,,,,,,,,,,,,,,,,,,,,,,,,,,,,,,,,,,,,,,,,,,,3.541808,0.608774,0.407768,0.363568,0.397368,2469.681152,402.69281,100.111076,19.133516,2.654706,4.601088,0.902513,0.435422,0.387039,0.254984,13.016324,0.889748,0.271981,0.287392,0.363574,17.376093,4.296628,1.332664,0.33458,0.37525,233.816833,69.911461,15.605995,5.537244,1.242546,0.918591,0.650934,0.267694,0.225285,0.240009,1.551565,0.785969,0.394473,0.194929,0.199569,1.107088,0.715202,0.31941,0.245522,0.258958,2.179963,0.695954,0.379062,0.240656,0.300358,3.532641,1.080576,0.723424,0.38598,0.465801,4.932563,1.088272,0.64138,0.397817,0.350371,5.283843,1.772276,0.494976,0.447473,0.542668,3.679622,1.235054,0.537078,0.344163,0.408169
1702629660,34,0,4307.307617,4730,4297.692383,4413.717773,4205.128418,4516.025879,4300.769043,4275.897461,4310.256348,4235.769043,4415.128418,4426.025879,4197.94873,4393.974121,0,4,85,,,,0,4,4,4,4,4,4,4,4,4,4,4,4,4,4,100,,,,,,,,,,,,,,,,,,,,,,,,,,,,,,,,,,,,,,,,,,,,,,,,,,,,,,,,,,,,,,,,,,,,,,,,,,,,,,,,,,,,,,,,,,,,,,,,,,,,,,,,,,,,,,,,,,,,,,,,,,,,,,,,,,,,,,
1702629660,35,0,4313.333496,4806.922852,4303.589844,4427.692383,4206.538574,4514.871582,4301.410156,4272.307617,4299.743652,4226.794922,4413.846191,4429.230957,4193.974121,4390.512695,0,4,85,,,,0,4,4,4,4,4,4,4,4,4,4,4,4,4,4,100,,,,,,,,,,,,,,,,,,,,,,,,,,,,,,,,,,,,,,,,,,,,,,,,,,,,,,,,,,,,,,,,,,,,,,,,,,,,,,,,,,,,,,,,,,,,,,,,,,,,,,,,,,,,,,,,,,,,,,,,,,,,,,,,,,,,,,
1702629660,36,0,4310.769043,4852.94873,4299.487305,4417.820313,4190.512695,4490.256348,4296.410156,4270,4299.615234,4234.743652,4419.487305,4430,4185.897461,4383.717773,0,4,85,,,,0,4,4,4,4,4,4,4,4,4,4,4,4,4,4,100,,,,,,,,,,,,,,,,,9,0,0.506771,-0.596924,-0.341797,-0.519653,0.992797,-0.261262,0.066414,-11.837093,-5.163786,84.45343,,,,,,,,,,,,,,,,,,,,,,,,,,,,,,,,,,,,,,,,,,,,,,,,,,,,,,,,,,,,,,,,,,,,,,,,,,,,,,,,,,,,,,,,,,,,,,,,,,,,,,,,,,
1702629660,37,0,4294.871582,4886.922852,4291.153809,4398.846191,4177.307617,4470.128418,4292.563965,4262.692383,4300.641113,4233.333496,4423.333496,4421.410156,4187.05127,4377.563965,0,4,85,,,,0,4,4,4,4,4,4,4,4,4,4,4,4,4,4,100,,,,,,,,,,,,,,,,,,,,,,,,,,,,,,,,,,,,,,,,,,,,,,,,,,,,,,,,,,,,,,,,,,,,,,,,,,,,,,,,,,,,,,,,,,,,,,,,,,,,,,,,,,,,,,,,,,,,,,,,,,,,,,,,,,,,,,
1702629660,38,0,4297.307617,4947.307617,4298.333496,4408.589844,4186.282227,4476.025879,4304.615234,4267.820313,4302.179688,4232.563965,4431.922852,4431.538574,4197.94873,4384.487305,0,4,85,,,,0,4,4,4,4,4,4,4,4,4,4,4,4,4,4,100,,,,,,,,,,,,,,,,,,,,,,,,,,,,,,,,,,,,,,,,,,,,,,,,,,,,,,,,,,,,,,,,,,,,,,,,,,,,,,,,,,,,,,,,,,,,,,,,,,,,,,,,,,,,,,,,,,,,,,,,,,,,,,,,,,,,,,
1702629660,39,0,4307.05127,4997.307617,4303.717773,4413.846191,4186.153809,4467.179688,4312.05127,4278.974121,4307.820313,4240.256348,4445.128418,4443.589844,4201.666504,4393.589844,0,4,85,,,,0,4,4,4,4,4,4,4,4,4,4,4,4,4,4,100,,,,,,,,,,,,,,,,,,,,,,,,,,,,,,,,,,,,,,,,,,,,,,,,,,,,,,,,,,,,,,,,,,,,,,,,,,,,,,,,,,,,,,,,,,,,,,,,,,,,,,,,,,,,,,,,,,,,,,,,,,,,,,,,,,,,,,
1702629660,40,0,4301.922852,5019.743652,4297.563965,4398.077148,4168.205078,4439.743652,4302.307617,4273.205078,4302.94873,4236.922852,4448.205078,4433.333496,4200.384766,4390.897461,0,4,85,,,,0,4,4,4,4,4,4,4,4,4,4,4,4,4,4,100,,,,,,,,,,,,,,,,,10,0,0.50814,-0.594727,-0.344604,-0.518982,0.985472,-0.269076,0.061043,-11.82005,-4.947407,84.341415,,,,,,,,,,,,,,,,,,,,,,,,,,,,,,,,,,,,,,,,,,,,,,,,,,,,,,,,,,,,,,,,,,,,,,,,,,,,,,,,,,,,,,,,,,,,,,,,,,,,,,,,,,
1702629660,41,0,4295.512695,5045.897461,4296.794922,4391.922852,4166.153809,4428.974121,4296.922852,4264.102539,4290.769043,4229.487305,4445.641113,4430.897461,4201.538574,4385.384766,0,4,85,,,,0,4,4,4,4,4,4,4,4,4,4,4,4,4,4,100,,,,,,,,,,,,,,,,,,,,,,,,,,,,,,,,,,,,,,,,,,,,,,,,,,,,,,,,,,,,,,,,,,,,,,,,,,,,,,,,,,,,,,,,,,,,,,,,,,,,,,,,,,,,,,,,,,,,,,,,,,,,,,,,,,,,,,
1702629660,42,0,4295.256348,5068.846191,4298.717773,4396.410156,4169.743652,4420,4299.615234,4266.666504,4290.512695,4233.846191,4450.769043,4440.512695,4201.282227,4380.256348,0,4,85,,,,0,4,4,4,4,4,4,4,4,4,4,4,4,4,4,100,,,,,,,,,,,,,,,,,,,,,,,,,,,,,,,,,,,,,,,,,,,,,,,,,,,,,,,,,,,,,,,,,,,,,,,,,,,,,,,,,,,,,,,,,,,,,,,,,,,,,,,,,,,,,,,,,,,,,,,,,,,,,,,,,,,,,,
1702629660,43,0,4293.846191,5077.820313,4300.384766,4403.333496,4165.256348,4397.692383,4303.461426,4269.102539,4291.410156,4238.205078,4452.94873,4436.794922,4200.512695,4376.922852,0,4,85,,,,0,4,4,4,4,4,4,4,4,4,4,4,4,4,4,100,,,,,,,,,,,,,,,,,,,,,,,,,,,,,,,,,,,,,,,,,,,,,,,,,,,,,,,,,,,,,,,,,,,,,,,,,,,,,,,,,,,,,,,,,,,,,,,,,,,,,,,,,,,,,,,,,,,,,,,,,,,,,,,,,,,,,,
1702629660,44,0,4294.615234,5081.025879,4305.512695,4415.128418,4173.077148,4382.179688,4304.615234,4264.358887,4277.820313,4230.128418,4444.487305,4430.256348,4198.846191,4376.153809,0,4,85,,,,0,4,4,4,4,4,4,4,4,4,4,4,4,4,4,100,,,,,,,,,,,,,,,,,11,0,0.509,-0.593689,-0.346313,-0.518188,0.952265,-0.261262,0.069344,-11.654713,-4.852666,84.14061,,,,,,,,,,,,,,,,,,,,,,,,,,,,,,,,,,,,,,,,,,,,,,,,,,,,,,,,,,,,,,,,,,,,,,,,,,,,,,,,,,,,,,,,,,,,,,,,,,,,,,,,,,
1702629660,45,0,4296.025879,5063.077148,4308.717773,4416.666504,4178.589844,4381.282227,4303.717773,4262.179688,4273.461426,4227.436035,4442.94873,4434.871582,4198.974121,4379.102539,0,4,85,,,,0,4,4,4,4,4,4,4,4,4,4,4,4,4,4,100,,,,,,,,,,,,,,,,,,,,,,,,,,,,,,,,,,,,,,,,,,,,,,,,,,,,,,,,,,,,,,,,,,,,,,,,,,,,,,,,,,,,,,,,,,,,,,,,,,,,,,,,,,,,,,,,,,,,,,,,,,,,,,,,,,,,,,
1702629660,46,0,4293.846191,5027.05127,4306.538574,4411.282227,4168.205078,4389.102539,4305.128418,4264.102539,4278.717773,4233.333496,4446.410156,4432.563965,4196.538574,4378.717773,0,4,85,,,,0,4,4,4,4,4,4,4,4,4,4,4,4,4,4,100,,,,,,,,,,,,,,,,,,,,,,,,,,,,,,,,,,,,,,,,,,,,,,,,,,,,,,,,,,,,,,,,,,,,,,,,,,,,,,,,,,,,,,,,,,,,,,,,,,,,,,,,,,,,,,,,,,,,,,,,,,,,,,,,,,,,,,
1702629660,47,0,4295.384766,5008.717773,4304.358887,4417.94873,4176.410156,4400.384766,4309.358887,4262.436035,4275.512695,4235.897461,4446.666504,4422.563965,4191.666504,4376.153809,0,4,85,,,,0,4,4,4,4,4,4,4,4,4,4,4,4,4,4,100,,,,,,,,,,,,,,,,,,,,,,,,,,,,,,,,,,,,,,,,,,,,,,,,,,,,,,,,,,,,,,,,,,,,,,,,,,,,,,,,,,,,,,,,,,,,,,,,,,,,,,,,,,,,,,,,,,,,,,,,,,,,,,,,,,,,,,
1702629660,48,0,4293.589844,4996.922852,4297.563965,4418.846191,4191.666504,4397.820313,4301.538574,4252.692383,4263.974121,4228.333496,4440.128418,4410.384766,4187.307617,4372.436035,0,4,85,,,,0,4,4,4,4,4,4,4,4,4,4,4,4,4,4,100,,,,,,,,,,,,,,,,,12,0,0.509371,-0.593262,-0.347229,-0.5177,0.972775,-0.255891,0.071786,-11.472574,-4.6674,84.059883,,,,,,,,,,,,,,,,,,,,,,,,,,,,,,,,,,,,,,,,,,,,,,,,,,,,,,,,,,,,,,,,,,,,,,,,,,,,,,,,,,,,,,,,,,,,,,,,,,,,,,,,,,
1702629660,49,0,4288.077148,4969.615234,4291.538574,4409.487305,4175.384766,4395.384766,4289.743652,4243.205078,4251.410156,4216.666504,4431.538574,4398.974121,4184.743652,4365.897461,0,4,85,,,,0,4,4,4,4,4,4,4,4,4,4,4,4,4,4,100,,,,,,,,,,,,,,,,,,,,,,,,,,,,,,,,,,,,,,,,,,,,,,,,,,,,,,,,,,,,,,,,,3.594076,0.766394,0.445194,0.316861,0.375289,2631.236328,424.533264,106.372978,20.855129,2.702232,4.587267,0.828983,0.449309,0.335664,0.239885,12.856105,1.114672,0.303454,0.218602,0.349232,18.187801,4.424346,1.418213,0.404121,0.399583,179.787842,72.439621,15.077152,4.825729,1.182004,0.886096,0.604996,0.237926,0.222095,0.226205,1.678278,0.90139,0.332485,0.171321,0.180886,1.027014,0.816454,0.309235,0.20586,0.225042,2.004969,0.77834,0.368726,0.24815,0.265078,3.24285,1.210174,0.835325,0.381889,0.420646,4.90413,1.182185,0.697825,0.373019,0.324331,4.29156,1.822985,0.566106,0.485528,0.508683,3.91332,1.481207,0.594224,0.310431,0.382032
1702629660,50,0,4291.025879,4949.102539,4295.897461,4410.769043,4166.153809,4410.128418,4293.974121,4243.717773,4247.436035,4221.922852,4436.794922,4399.615234,4190.641113,4367.307617,0,4,85,,,,0,4,4,4,4,4,4,4,4,4,4,4,4,4,4,100,,,,,,,,,,,,,,,,,,,,,,,,,,,,,,,,,,,,,,,,,,,,,,,,,,,,,,,,,,,,,,,,,,,,,,,,,,,,,,,,,,,,,,,,,,,,,,,,,,,,,,,,,,,,,,,,,,,,,,,,,,,,,,,,,,,,,,
1702629660,51,0,4293.205078,4941.153809,4297.307617,4413.333496,4183.333496,4412.05127,4293.333496,4243.333496,4248.589844,4226.410156,4443.461426,4398.461426,4196.666504,4368.846191,0,4,85,,,,0,4,4,4,4,4,4,4,4,4,4,4,4,4,4,100,,,,,,,,,,,,,,,,,,,,,,,,,,,,,,,,,,,,,,,,,,,,,,,,,,,,,,,,,,,,,,,,,,,,,,,,,,,,,,,,,,,,,,,,,,,,,,,,,,,,,,,,,,,,,,,,,,,,,,,,,,,,,,,,,,,,,,
1702629660,52,0,4291.153809,4927.436035,4298.589844,4416.282227,4190.512695,4399.871582,4287.307617,4241.410156,4248.205078,4219.230957,4444.230957,4398.846191,4198.077148,4366.538574,0,4,85,,,,0,4,4,4,4,4,4,4,4,4,4,4,4,4,4,100,,,,,,,,,,,,,,,,,13,0,0.509361,-0.593323,-0.347412,-0.517517,0.959101,-0.246612,0.065926,-11.35865,-4.583993,84.020561,,,,,,,,,,,,,,,,,,,,,,,,,,,,,,,,,,,,,,,,,,,,,,,,,,,,,,,,,,,,,,,,,,,,,,,,,,,,,,,,,,,,,,,,,,,,,,,,,,,,,,,,,,
1702629660,53,0,4291.410156,4904.871582,4303.846191,4423.205078,4191.794922,4400.897461,4290.256348,4246.794922,4250.641113,4224.743652,4455.384766,4409.743652,4206.666504,4370,0,4,85,,,,0,4,4,4,4,4,4,4,4,4,4,4,4,4,4,100,,,,,,,,,,,,,,,,,,,,,,,,,,,,,,,,,,,,,,,,,,,,,,,,,,,,,,,,,,,,,,,,,,,,,,,,,,,,,,,,,,,,,,,,,,,,,,,,,,,,,,,,,,,,,,,,,,,,,,,,,,,,,,,,,,,,,,
1702629660,54,0,4289.871582,4882.820313,4299.871582,4420.641113,4201.410156,4397.94873,4287.436035,4249.743652,4252.307617,4233.205078,4461.282227,4406.666504,4216.666504,4369.230957,0,4,85,,,,0,4,4,4,4,4,4,4,4,4,4,4,4,4,4,100,,,,,,,,,,,,,,,,,,,,,,,,,,,,,,,,,,,,,,,,,,,,,,,,,,,,,,,,,,,,,,,,,,,,,,,,,,,,,,,,,,,,,,,,,,,,,,,,,,,,,,,,,,,,,,,,,,,,,,,,,,,,,,,,,,,,,,
1702629660,55,0,4289.358887,4854.743652,4292.436035,4421.153809,4207.05127,4397.94873,4285.512695,4245.897461,4248.589844,4227.94873,4452.94873,4396.282227,4215.256348,4360.769043,0,4,85,,,,0,4,4,4,4,4,4,4,4,4,4,4,4,4,4,100,,,,,,,,,,,,,,,,,,,,,,,,,,,,,,,,,,,,,,,,,,,,,,,,,,,,,,,,,,,,,,,,,,,,,,,,,,,,,,,,,,,,,,,,,,,,,,,,,,,,,,,,,,,,,,,,,,,,,,,,,,,,,,,,,,,,,,
1702629660,56,0,4292.563965,4815.256348,4298.205078,4437.820313,4212.436035,4423.846191,4297.436035,4249.230957,4248.589844,4228.461426,4455.256348,4405.897461,4216.153809,4362.692383,0,4,85,,,,0,4,4,4,4,4,4,4,4,4,4,4,4,4,4,100,,,,,,,,,,,,,,,,,14,0,0.508712,-0.593628,-0.348206,-0.517273,0.946405,-0.22952,0.056648,-11.289452,-4.392261,83.868507,,,,,,,,,,,,,,,,,,,,,,,,,,,,,,,,,,,,,,,,,,,,,,,,,,,,,,,,,,,,,,,,,,,,,,,,,,,,,,,,,,,,,,,,,,,,,,,,,,,,,,,,,,
1702629660,57,0,4286.153809,4764.615234,4295.512695,4434.230957,4212.692383,4395.897461,4294.358887,4250.769043,4246.153809,4229.358887,4453.077148,4406.153809,4215.641113,4361.282227,0,4,85,,,,0,4,4,4,4,4,4,4,4,4,4,4,4,4,4,100,,,,,,,,,,,,,,,,,,,,,,,,,,,,,,,,,,,,,,,,,,,,,,,,,,,,,,,,,,,,,,,,,,,,,,,,,,,,,,,,,,,,,,,,,,,,,,,,,,,,,,,,,,,,,,,,,,,,,,,,,,,,,,,,,,,,,,
1702629660,58,0,4274.102539,4710.512695,4279.487305,4419.615234,4198.974121,4280.769043,4275.256348,4238.461426,4234.358887,4212.94873,4431.666504,4388.589844,4205,4344.871582,0,4,85,,,,0,4,4,4,4,4,4,4,4,4,4,4,4,4,4,100,,,,,,,,,,,,,,,,,,,,,,,,,,,,,,,,,,,,,,,,,,,,,,,,,,,,,,,,,,,,,,,,,,,,,,,,,,,,,,,,,,,,,,,,,,,,,,,,,,,,,,,,,,,,,,,,,,,,,,,,,,,,,,,,,,,,,,
1702629660,59,0,4272.436035,4668.077148,4276.282227,4434.230957,4206.410156,4188.205078,4274.358887,4230,4230.769043,4209.102539,4423.333496,4388.974121,4203.974121,4340.897461,0,4,85,,,,0,4,4,4,4,4,4,4,4,4,4,4,4,4,4,100,,,,,,,,,,,,,,,,,,,,,,,,,,,,,,,,,,,,,,,,,,,,,,,,,,,,,,,,,,,,,,,,,,,,,,,,,,,,,,,,,,,,,,,,,,,,,,,,,,,,,,,,,,,,,,,,,,,,,,,,,,,,,,,,,,,,,,
1702629660,60,0,4274.615234,4627.307617,4281.922852,4447.05127,4226.794922,4157.307617,4281.922852,4237.820313,4234.487305,4217.05127,4431.922852,4396.025879,4212.820313,4346.282227,0,4,85,,,,0,4,4,4,4,4,4,4,4,4,4,4,4,4,4,100,,,,,,,,,,,,,,,,,15,0,0.508152,-0.593567,-0.349487,-0.517029,0.963985,-0.227078,0.047369,-11.210506,-4.269701,83.86499,,,,,,,,,,,,,,,,,,,,,,,,,,,,,,,,,,,,,,,,,,,,,,,,,,,,,,,,,,,,,,,,,,,,,,,,,,,,,,,,,,,,,,,,,,,,,,,,,,,,,,,,,,
1702629660,61,0,4279.615234,4574.871582,4286.666504,4444.487305,4220.256348,4140.512695,4279.871582,4246.410156,4234.358887,4215.512695,4438.846191,4401.153809,4221.153809,4349.487305,0,4,85,,,,0,4,4,4,4,4,4,4,4,4,4,4,4,4,4,100,,,,,,,,,,,,,,,,,,,,,,,,,,,,,,,,,,,,,,,,,,,,,,,,,,,,,,,,,,,,,,,,,,,,,,,,,,,,,,,,,,,,,,,,,,,,,,,,,,,,,,,,,,,,,,,,,,,,,,,,,,,,,,,,,,,,,,
1702629660,62,0,4289.615234,4527.05127,4293.077148,4454.871582,4222.820313,4126.153809,4279.102539,4248.333496,4238.205078,4219.358887,4445.384766,4420.512695,4232.179688,4362.692383,0,4,85,,,,0,4,4,4,4,4,4,4,4,4,4,4,4,4,4,100,,,,,,,,,,,,,,,,,,,,,,,,,,,,,,,,,,,,,,,,,,,,,,,,,,,,,,,,,,,,,,,,,,,,,,,,,,,,,,,,,,,,,,,,,,,,,,,,,,,,,,,,,,,,,,,,,,,,,,,,,,,,,,,,,,,,,,
1702629660,63,0,4293.333496,4489.743652,4296.025879,4465.128418,4244.743652,4120.384766,4280.256348,4252.179688,4249.871582,4232.692383,4450.256348,4430.769043,4237.692383,4371.025879,0,4,85,,,,0,4,4,4,4,4,4,4,4,4,4,4,4,4,4,100,,,,,,,,,,,,,,,,,,,,,,,,,,,,,,,,,,,,,,,,,,,,,,,,,,,,,,,,,,,,,,,,,,,,,,,,,,,,,,,,,,,,,,,,,,,,,,,,,,,,,,,,,,,,,,,,,,,,,,,,,,,,,,,,,,,,,,
1702629660,64,0,4288.077148,4441.794922,4293.461426,4461.922852,4242.307617,4113.589844,4275.769043,4252.820313,4248.589844,4232.436035,4444.743652,4419.743652,4234.871582,4359.615234,5666,4,85,,,,0,4,4,4,4,4,4,4,4,4,4,4,4,4,4,100,,,,,,,,,,,,,,,,,16,0,0.507807,-0.593079,-0.351624,-0.516479,0.95373,-0.23245,0.048834,-11.272789,-4.209398,83.828491,,,,,,,,,,,,,,,,,,,,,,,,,,,,,,,,,,,,,,,,,,,,,,,,,,,,,,,,,,,,,,,,,,,,,,,,,,,,,,,,,,,,,,,,,,,,,,,,,,,,,,,,,,
1702629660,65,0,4283.205078,4394.487305,4292.307617,4461.282227,4233.974121,4120,4268.846191,4247.05127,4236.922852,4223.974121,4432.179688,4413.077148,4234.487305,4353.077148,5551,4,85,,,,0,4,4,4,4,4,4,4,4,4,4,4,4,4,4,100,,,,,,,,,,,,,,,,,,,,,,,,,,,,,,,,,,,,,,,,,,,,,,,,,,,,,,,,,,,,,,,,,4.229315,0.956091,0.451963,0.279526,0.35365,2589.851318,419.898773,107.047447,21.897314,2.639364,4.76918,0.732897,0.460847,0.299509,0.240249,11.981349,1.336928,0.318696,0.179173,0.339473,18.978155,4.179503,1.43401,0.484868,0.426413,161.645493,72.367584,14.286044,4.233835,1.086212,0.873493,0.602394,0.21077,0.219335,0.216437,1.871801,1.031979,0.295264,0.157598,0.1736,1.188451,0.933481,0.320579,0.188943,0.205954,1.82659,0.835971,0.36594,0.256102,0.244882,3.685098,1.298094,0.923981,0.385399,0.378934,4.860021,1.290403,0.753287,0.361824,0.308616,4.518991,1.839515,0.626954,0.528491,0.479245,4.645144,1.695038,0.622571,0.291198,0.357335
1702629660,66,0,4281.025879,4371.282227,4292.307617,4462.05127,4250.128418,4134.615234,4265.384766,4244.743652,4238.077148,4221.538574,4424.102539,4413.974121,4234.487305,4355.256348,5374,4,85,,,,0,4,4,4,4,4,4,4,4,4,4,4,4,4,4,100,,,,,,,,,,,,,,,,,,,,,,,,,,,,,,,,,,,,,,,,,,,,,,,,,,,,,,,,,,,,,,,,,,,,,,,,,,,,,,,,,,,,,,,,,,,,,,,,,,,,,,,,,,,,,,,,,,,,,,,,,,,,,,,,,,,,,,
1702629660,67,0,4281.025879,4339.743652,4289.871582,4460.384766,4253.717773,4140.897461,4267.307617,4247.692383,4249.358887,4220.128418,4425.641113,4413.205078,4232.820313,4355.897461,5320,4,85,,,,0,4,4,4,4,4,4,4,4,4,4,4,4,4,4,100,,,,,,,,,,,,,,,,,,,,,,,,,,,,,,,,,,,,,,,,,,,,,,,,,,,,,,,,,,,,,,,,,,,,,,,,,,,,,,,,,,,,,,,,,,,,,,,,,,,,,,,,,,,,,,,,,,,,,,,,,,,,,,,,,,,,,,
1702629660,68,0,4279.871582,4286.025879,4290.897461,4463.846191,4246.538574,4150.897461,4267.307617,4250,4251.794922,4223.077148,4423.333496,4415.256348,4233.077148,4357.436035,5364,4,85,,,,0,4,4,4,4,4,4,4,4,4,4,4,4,4,4,100,,,,,,,,,,,,,,,,,17,0,0.507604,-0.592529,-0.353821,-0.515808,0.961543,-0.22659,0.050787,-11.162177,-4.105124,83.67897,,,,,,,,,,,,,,,,,,,,,,,,,,,,,,,,,,,,,,,,,,,,,,,,,,,,,,,,,,,,,,,,,,,,,,,,,,,,,,,,,,,,,,,,,,,,,,,,,,,,,,,,,,
1702629660,69,0,4277.692383,4245.256348,4290.384766,4460,4263.333496,4163.589844,4263.077148,4249.487305,4248.077148,4226.794922,4415.769043,4417.307617,4230,4359.743652,5344,4,85,,,,0,4,4,4,4,4,4,4,4,4,4,4,4,4,4,100,,,,,,,,,,,,,,,,,,,,,,,,,,,,,,,,,,,,,,,,,,,,,,,,,,,,,,,,,,,,,,,,,,,,,,,,,,,,,,,,,,,,,,,,,,,,,,,,,,,,,,,,,,,,,,,,,,,,,,,,,,,,,,,,,,,,,,
1702629660,70,0,4278.077148,4216.153809,4282.179688,4445.384766,4268.717773,4175.897461,4259.487305,4247.94873,4246.538574,4220.769043,4418.205078,4411.794922,4229.102539,4360.128418,5120,4,85,,,,0,4,4,4,4,4,4,4,4,4,4,4,4,4,4,100,,,,,,,,,,,,,,,,,,,,,,,,,,,,,,,,,,,,,,,,,,,,,,,,,,,,,,,,,,,,,,,,,,,,,,,,,,,,,,,,,,,,,,,,,,,,,,,,,,,,,,,,,,,,,,,,,,,,,,,,,,,,,,,,,,,,,,
1702629660,71,0,4280.384766,4192.94873,4281.410156,4442.94873,4261.794922,4213.333496,4265.769043,4253.461426,4248.974121,4219.358887,4426.410156,4413.717773,4239.230957,4368.077148,5330,4,85,,,,0,4,4,4,4,4,4,4,4,4,4,4,4,4,4,100,,,,,,,,,,,,,,,,,,,,,,,,,,,,,,,,,,,,,,,,,,,,,,,,,,,,,,,,,,,,,,,,,,,,,,,,,,,,,,,,,,,,,,,,,,,,,,,,,,,,,,,,,,,,,,,,,,,,,,,,,,,,,,,,,,,,,,
1702629660,72,0,4281.153809,4190.384766,4291.538574,4447.563965,4271.025879,4267.307617,4276.025879,4265.384766,4256.794922,4232.179688,4432.05127,4428.333496,4250.897461,4381.153809,5379,4,85,,,,0,4,4,4,4,4,4,4,4,4,4,4,4,4,4,100,,,,,,,,,,,,,,,,,18,0,0.507179,-0.591736,-0.356018,-0.515625,0.949823,-0.21194,0.047857,-11.062626,-3.844612,83.611076,,,,,,,,,,,,,,,,,,,,,,,,,,,,,,,,,,,,,,,,,,,,,,,,,,,,,,,,,,,,,,,,,,,,,,,,,,,,,,,,,,,,,,,,,,,,,,,,,,,,,,,,,,
1702629660,73,0,4281.153809,4196.922852,4290.384766,4434.743652,4273.589844,4292.563965,4273.077148,4265.769043,4255.512695,4233.461426,4430,4434.230957,4251.666504,4382.179688,5300,4,85,,,,0,4,4,4,4,4,4,4,4,4,4,4,4,4,4,100,,,,,,,,,,,,,,,,,,,,,,,,,,,,,,,,,,,,,,,,,,,,,,,,,,,,,,,,,,,,,,,,,,,,,,,,,,,,,,,,,,,,,,,,,,,,,,,,,,,,,,,,,,,,,,,,,,,,,,,,,,,,,,,,,,,,,,
1702629660,74,0,4279.358887,4201.025879,4279.102539,4413.846191,4262.692383,4302.563965,4263.589844,4258.461426,4245,4217.94873,4418.333496,4427.94873,4245.897461,4373.589844,6012,4,85,,,,0,4,4,4,4,4,4,4,4,4,4,4,4,4,4,100,,,,,,,,,,,,,,,,,,,,,,,,,,,,,,,,,,,,,,,,,,,,,,,,,,,,,,,,,,,,,,,,,,,,,,,,,,,,,,,,,,,,,,,,,,,,,,,,,,,,,,,,,,,,,,,,,,,,,,,,,,,,,,,,,,,,,,
1702629660,75,0,4271.794922,4218.717773,4277.307617,4403.333496,4255,4345.128418,4264.230957,4260.641113,4247.436035,4216.410156,4411.153809,4425.769043,4246.538574,4370.384766,6245,4,85,,,,0,4,4,4,4,4,4,4,4,4,4,4,4,4,4,100,,,,,,,,,,,,,,,,,,,,,,,,,,,,,,,,,,,,,,,,,,,,,,,,,,,,,,,,,,,,,,,,,,,,,,,,,,,,,,,,,,,,,,,,,,,,,,,,,,,,,,,,,,,,,,,,,,,,,,,,,,,,,,,,,,,,,,
1702629660,76,0,4266.025879,4247.563965,4279.230957,4397.94873,4255.384766,4399.358887,4266.282227,4263.333496,4249.743652,4219.487305,4407.820313,4423.974121,4246.410156,4370,6831,4,85,,,,0,4,4,4,4,4,4,4,4,4,4,4,4,4,4,100,,,,,,,,,,,,,,,,,19,0,0.507112,-0.590942,-0.357605,-0.515503,0.95373,-0.22659,0.038579,-11.006364,-3.776818,83.599968,,,,,,,,,,,,,,,,,,,,,,,,,,,,,,,,,,,,,,,,,,,,,,,,,,,,,,,,,,,,,,,,,,,,,,,,,,,,,,,,,,,,,,,,,,,,,,,,,,,,,,,,,,
1702629660,77,0,4260.641113,4264.230957,4275.384766,4385,4256.794922,4410.641113,4263.717773,4260.384766,4242.94873,4211.282227,4393.333496,4416.538574,4231.794922,4357.820313,7284,4,85,,,,0,4,4,4,4,4,4,4,4,4,4,4,4,4,4,100,,,,,,,,,,,,,,,,,,,,,,,,,,,,,,,,,,,,,,,,,,,,,,,,,,,,,,,,,,,,,,,,,,,,,,,,,,,,,,,,,,,,,,,,,,,,,,,,,,,,,,,,,,,,,,,,,,,,,,,,,,,,,,,,,,,,,,
1702629660,78,0,4253.589844,4271.410156,4276.153809,4368.846191,4250.256348,4384.358887,4264.487305,4263.077148,4245.641113,4211.282227,4384.743652,4421.153809,4225.641113,4349.871582,6012,4,85,,,,0,4,4,4,4,4,4,4,4,4,4,4,4,4,4,100,,,,,,,,,,,,,,,,,,,,,,,,,,,,,,,,,,,,,,,,,,,,,,,,,,,,,,,,,,,,,,,,,,,,,,,,,,,,,,,,,,,,,,,,,,,,,,,,,,,,,,,,,,,,,,,,,,,,,,,,,,,,,,,,,,,,,,
1702629660,79,0,4253.846191,4280.897461,4275.769043,4357.94873,4242.563965,4370.256348,4260,4264.615234,4249.871582,4222.436035,4397.05127,4429.615234,4245.512695,4361.922852,6245,4,85,,,,0,4,4,4,4,4,4,4,4,4,4,4,4,4,4,100,,,,,,,,,,,,,,,,,,,,,,,,,,,,,,,,,,,,,,,,,,,,,,,,,,,,,,,,,,,,,,,,,,,,,,,,,,,,,,,,,,,,,,,,,,,,,,,,,,,,,,,,,,,,,,,,,,,,,,,,,,,,,,,,,,,,,,
1702629660,80,0,4269.230957,4306.153809,4279.871582,4363.846191,4254.102539,4384.487305,4258.333496,4265.128418,4251.410156,4226.794922,4411.922852,4437.692383,4271.666504,4381.025879,6831,4,85,,,,0,4,4,4,4,4,4,4,4,4,4,4,4,4,4,100,,,,,,,,,,,,,,,,,20,0,0.507498,-0.590454,-0.358215,-0.515259,0.9508,-0.230985,0.035649,-11.089061,-3.682469,83.423302,,,,,,,,,,,,,,,,,,,,,,,,,,,,,,,,,,,,,,,,,,,,,,,,,,,,,,,,,,,,,,,,,,,,,,,,,,,,,,,,,,,,,,,,,,,,,,,,,,,,,,,,,,
1702629660,81,0,4280.512695,4329.358887,4292.563965,4369.487305,4264.230957,4389.487305,4266.538574,4278.974121,4266.794922,4234.615234,4425.512695,4456.538574,4286.794922,4398.846191,7284,4,85,,,,0,4,4,4,4,4,4,4,4,4,4,4,4,4,4,100,1,8.333333,4,0,4,1,1,0,4,4,3,4,4,4,1,4,,,,,,,,,,,,,,,,,,,,,,,,,,,,,,,,,,,,,,,,,,,,,,,,,4.791166,1.161486,0.421366,0.256674,0.333793,2356.883301,386.138977,100.622444,21.566261,2.427733,4.808819,0.645089,0.460675,0.287046,0.253478,10.445996,1.506283,0.316701,0.163847,0.333079,19.194912,3.580068,1.354583,0.554731,0.447827,173.903351,67.978981,13.077,3.97277,0.968634,0.863742,0.630769,0.189387,0.21325,0.214994,2.194885,1.152073,0.275749,0.155766,0.180767,1.401591,1.032099,0.337208,0.193483,0.213056,1.747138,0.854795,0.361691,0.259012,0.248515,4.672139,1.341446,0.961167,0.389714,0.353084,4.53466,1.402071,0.783954,0.360694,0.302504,4.850274,1.809913,0.64946,0.556047,0.449785,5.066844,1.847391,0.608433,0.288258,0.339831
1702629660,82,0,4266.538574,4322.94873,4287.692383,4342.692383,4241.794922,4354.743652,4255.384766,4280.256348,4266.153809,4240.128418,4422.307617,4455.512695,4280.897461,4395.769043,6012,4,85,,,,0,4,4,4,4,4,4,4,4,4,4,4,4,4,4,100,,,,,,,,,,,,,,,,,,,,,,,,,,,,,,,,,,,,,,,,,,,,,,,,,,,,,,,,,,,,,,,,,,,,,,,,,,,,,,,,,,,,,,,,,,,,,,,,,,,,,,,,,,,,,,,,,,,,,,,,,,,,,,,,,,,,,,
1702629660,83,0,4262.692383,4327.692383,4277.820313,4327.179688,4233.974121,4339.487305,4243.205078,4265.384766,4250.512695,4233.717773,4407.820313,4442.179688,4269.358887,4384.230957,6245,4,85,,,,0,4,4,4,4,4,4,4,4,4,4,4,4,4,4,100,,,,,,,,,,,,,,,,,,,,,,,,,,,,,,,,,,,,,,,,,,,,,,,,,,,,,,,,,,,,,,,,,,,,,,,,,,,,,,,,,,,,,,,,,,,,,,,,,,,,,,,,,,,,,,,,,,,,,,,,,,,,,,,,,,,,,,
1702629660,84,0,4275.641113,4348.846191,4280.641113,4342.692383,4251.538574,4364.871582,4250.897461,4262.307617,4251.538574,4234.102539,4409.743652,4442.692383,4273.589844,4384.871582,6831,4,85,,,,0,4,4,4,4,4,4,4,4,4,4,4,4,4,4,100,,,,,,,,,,,,,,,,,21,0,0.507615,-0.59021,-0.358276,-0.515381,0.975705,-0.228055,0.039556,-11.096821,-3.614222,83.480972,,,,,,,,,,,,,,,,,,,,,,,,,,,,,,,,,,,,,,,,,,,,,,,,,,,,,,,,,,,,,,,,,,,,,,,,,,,,,,,,,,,,,,,,,,,,,,,,,,,,,,,,,,
1702629660,85,0,4269.102539,4346.922852,4275.641113,4333.589844,4252.05127,4383.333496,4253.717773,4260.128418,4248.846191,4239.871582,4413.846191,4440.897461,4282.94873,4384.487305,7284,4,85,,,,0,4,4,4,4,4,4,4,4,4,4,4,4,4,4,100,,,,,,,,,,,,,,,,,,,,,,,,,,,,,,,,,,,,,,,,,,,,,,,,,,,,,,,,,,,,,,,,,,,,,,,,,,,,,,,,,,,,,,,,,,,,,,,,,,,,,,,,,,,,,,,,,,,,,,,,,,,,,,,,,,,,,,
1702629660,86,0,4258.077148,4344.358887,4264.487305,4308.333496,4243.974121,4379.871582,4246.025879,4251.282227,4235.256348,4232.436035,4404.615234,4431.282227,4280.641113,4378.974121,6012,4,85,,,,0,4,4,4,4,4,4,4,4,4,4,4,4,4,4,100,,,,,,,,,,,,,,,,,,,,,,,,,,,,,,,,,,,,,,,,,,,,,,,,,,,,,,,,,,,,,,,,,,,,,,,,,,,,,,,,,,,,,,,,,,,,,,,,,,,,,,,,,,,,,,,,,,,,,,,,,,,,,,,,,,,,,,
1702629660,87,0,4259.358887,4363.333496,4261.794922,4307.307617,4245.256348,4367.179688,4242.692383,4246.922852,4227.692383,4219.102539,4389.230957,4425.641113,4269.102539,4376.282227,6245,4,85,,,,0,4,4,4,4,4,4,4,4,4,4,4,4,4,4,100,,,,,,,,,,,,,,,,,,,,,,,,,,,,,,,,,,,,,,,,,,,,,,,,,,,,,,,,,,,,,,,,,,,,,,,,,,,,,,,,,,,,,,,,,,,,,,,,,,,,,,,,,,,,,,,,,,,,,,,,,,,,,,,,,,,,,,
1702629660,88,0,4256.666504,4382.307617,4264.230957,4314.358887,4246.410156,4359.615234,4247.307617,4249.487305,4221.666504,4215.769043,4376.794922,4423.205078,4265,4376.666504,6831,4,85,,,,0,4,4,4,4,4,4,4,4,4,4,4,4,4,4,100,,,,,,,,,,,,,,,,,22,0,0.507618,-0.589966,-0.357971,-0.515869,0.977658,-0.233427,0.042974,-11.087139,-3.536133,83.399544,,,,,,,,,,,,,,,,,,,,,,,,,,,,,,,,,,,,,,,,,,,,,,,,,,,,,,,,,,,,,,,,,,,,,,,,,,,,,,,,,,,,,,,,,,,,,,,,,,,,,,,,,,
1702629660,89,0,4254.102539,4406.410156,4269.487305,4315.641113,4254.615234,4357.05127,4256.538574,4253.077148,4216.794922,4217.307617,4374.615234,4425.512695,4271.410156,4378.077148,7284,4,85,,,,0,4,4,4,4,4,4,4,4,4,4,4,4,4,4,100,,,,,,,,,,,,,,,,,,,,,,,,,,,,,,,,,,,,,,,,,,,,,,,,,,,,,,,,,,,,,,,,,,,,,,,,,,,,,,,,,,,,,,,,,,,,,,,,,,,,,,,,,,,,,,,,,,,,,,,,,,,,,,,,,,,,,,
1702629660,90,0,4260.384766,4442.307617,4275.897461,4317.179688,4267.692383,4347.692383,4262.820313,4255.769043,4217.307617,4221.282227,4379.615234,4436.410156,4280.128418,4385.256348,6012,4,85,,,,0,4,4,4,4,4,4,4,4,4,4,4,4,4,4,100,,,,,,,,,,,,,,,,,,,,,,,,,,,,,,,,,,,,,,,,,,,,,,,,,,,,,,,,,,,,,,,,,,,,,,,,,,,,,,,,,,,,,,,,,,,,,,,,,,,,,,,,,,,,,,,,,,,,,,,,,,,,,,,,,,,,,,
1702629660,91,0,4249.615234,4451.666504,4264.102539,4300.897461,4250.384766,4319.230957,4249.230957,4248.333496,4202.307617,4215.128418,4360.769043,4426.922852,4276.794922,4378.077148,6245,4,85,,,,0,4,4,4,4,4,4,4,4,4,4,4,4,4,4,100,,,,,,,,,,,,,,,,,,,,,,,,,,,,,,,,,,,,,,,,,,,,,,,,,,,,,,,,,,,,,,,,,,,,,,,,,,,,,,,,,,,,,,,,,,,,,,,,,,,,,,,,,,,,,,,,,,,,,,,,,,,,,,,,,,,,,,
1702629660,92,0,4236.538574,4452.692383,4253.077148,4285.128418,4226.025879,4313.846191,4236.794922,4236.025879,4180.641113,4201.538574,4332.179688,4409.487305,4270.641113,4363.461426,6831,4,85,,,,0,4,4,4,4,4,4,4,4,4,4,4,4,4,4,100,,,,,,,,,,,,,,,,,23,0,0.508072,-0.590027,-0.356873,-0.516113,0.949823,-0.22073,0.041021,-10.995091,-3.465853,83.442924,,,,,,,,,,,,,,,,,,,,,,,,,,,,,,,,,,,,,,,,,,,,,,,,,,,,,,,,,,,,,,,,,,,,,,,,,,,,,,,,,,,,,,,,,,,,,,,,,,,,,,,,,,
1702629660,93,0,4251.794922,4481.666504,4270.256348,4299.871582,4238.974121,4356.410156,4250.256348,4247.307617,4189.487305,4209.615234,4343.589844,4427.307617,4289.230957,4378.717773,7284,4,85,,,,0,4,4,4,4,4,4,4,4,4,4,4,4,4,4,100,,,,,,,,,,,,,,,,,,,,,,,,,,,,,,,,,,,,,,,,,,,,,,,,,,,,,,,,,,,,,,,,,,,,,,,,,,,,,,,,,,,,,,,,,,,,,,,,,,,,,,,,,,,,,,,,,,,,,,,,,,,,,,,,,,,,,,
1702629660,94,0,4263.333496,4493.461426,4282.05127,4305.128418,4252.179688,4372.179688,4256.922852,4259.358887,4200.256348,4220.512695,4361.153809,4443.717773,4312.179688,4397.436035,6012,4,85,,,,0,4,4,4,4,4,4,4,4,4,4,4,4,4,4,100,,,,,,,,,,,,,,,,,,,,,,,,,,,,,,,,,,,,,,,,,,,,,,,,,,,,,,,,,,,,,,,,,,,,,,,,,,,,,,,,,,,,,,,,,,,,,,,,,,,,,,,,,,,,,,,,,,,,,,,,,,,,,,,,,,,,,,
1702629660,95,0,4260.641113,4480.641113,4276.025879,4297.563965,4243.846191,4342.179688,4247.563965,4254.358887,4191.538574,4219.871582,4358.589844,4440.256348,4322.436035,4397.820313,6245,4,85,,,,0,4,4,4,4,4,4,4,4,4,4,4,4,4,4,100,,,,,,,,,,,,,,,,,,,,,,,,,,,,,,,,,,,,,,,,,,,,,,,,,,,,,,,,,,,,,,,,,,,,,,,,,,,,,,,,,,,,,,,,,,,,,,,,,,,,,,,,,,,,,,,,,,,,,,,,,,,,,,,,,,,,,,
1702629660,96,0,4264.230957,4476.922852,4278.077148,4307.820313,4242.820313,4322.94873,4247.692383,4254.358887,4186.666504,4221.794922,4359.358887,4445.512695,4324.230957,4400.641113,6831,4,85,,,,0,4,4,4,4,4,4,4,4,4,4,4,4,4,4,100,,,,,,,,,,,,,,,,,24,0,0.509095,-0.590149,-0.355652,-0.515808,0.982053,-0.216823,0.044439,-11.078916,-3.485935,83.448631,,,,,,,,,,,,,,,,,,,,,,,,,,,,,,,,,,,,,,,,,,,,,,,,,,,,,,,,,,,,,,,,,,,,,,,,,,,,,,,,,,,,,,,,,,,,,,,,,,,,,,,,,,
1702629660,97,0,4266.153809,4472.692383,4283.589844,4308.461426,4248.077148,4313.846191,4250.256348,4257.436035,4184.358887,4220.769043,4358.974121,4454.102539,4319.871582,4404.871582,7284,4,85,,,,0,4,4,4,4,4,4,4,4,4,4,4,4,4,4,100,,,,,,,,,,,,,,,,,,,,,,,,,,,,,,,,,,,,,,,,,,,,,,,,,,,,,,,,,,,,,,,,,5.07956,1.337873,0.368067,0.248554,0.31965,2037.560425,333.264648,88.453621,19.824316,2.099543,4.591526,0.579852,0.449612,0.295108,0.275148,8.649446,1.574659,0.309212,0.161071,0.332879,19.364231,2.826483,1.214362,0.593314,0.459888,199.141052,59.138142,11.632431,4.139427,0.860562,0.825483,0.669076,0.176902,0.202226,0.224905,2.515413,1.235742,0.266668,0.164463,0.201878,1.889198,1.086307,0.34674,0.211415,0.249456,1.685201,0.839157,0.356796,0.254284,0.279873,5.810231,1.362353,0.964219,0.389179,0.353214,3.998628,1.49096,0.793919,0.363871,0.308987,4.825491,1.713586,0.6408,0.557815,0.421426,5.105908,1.904134,0.571427,0.299726,0.335438
1702629660,98,0,4259.230957,4458.333496,4278.717773,4292.820313,4248.333496,4286.922852,4245.641113,4250.769043,4175,4214.615234,4350.769043,4448.461426,4315.384766,4396.282227,6012,4,85,,,,0,4,4,4,4,4,4,4,4,4,4,4,4,4,4,100,,,,,,,,,,,,,,,,,,,,,,,,,,,,,,,,,,,,,,,,,,,,,,,,,,,,,,,,,,,,,,,,,,,,,,,,,,,,,,,,,,,,,,,,,,,,,,,,,,,,,,,,,,,,,,,,,,,,,,,,,,,,,,,,,,,,,,
1702629660,99,0,4268.846191,4457.307617,4290.641113,4309.230957,4255.384766,4286.025879,4257.307617,4256.410156,4178.333496,4223.717773,4362.179688,4459.487305,4325.641113,4401.666504,6245,4,85,,,,0,4,4,4,4,4,4,4,4,4,4,4,4,4,4,100,,,,,,,,,,,,,,,,,,,,,,,,,,,,,,,,,,,,,,,,,,,,,,,,,,,,,,,,,,,,,,,,,,,,,,,,,,,,,,,,,,,,,,,,,,,,,,,,,,,,,,,,,,,,,,,,,,,,,,,,,,,,,,,,,,,,,,
1702629661,100,0,4286.922852,4455.384766,4315,4336.282227,4266.282227,4304.230957,4276.153809,4277.94873,4190.384766,4238.333496,4381.025879,4485.512695,4335.128418,4422.436035,6831,4,85,,,,0,4,4,4,4,4,4,4,4,4,4,4,4,4,4,100,,,,,,,,,,,,,,,,,25,0,0.510086,-0.590088,-0.355042,-0.51532,0.95959,-0.224637,0.054694,-11.137691,-3.354008,83.470436,,,,,,,,,,,,,,,,,,,,,,,,,,,,,,,,,,,,,,,,,,,,,,,,,,,,,,,,,,,,,,,,,,,,,,,,,,,,,,,,,,,,,,,,,,,,,,,,,,,,,,,,,,
1702629661,101,0,4271.410156,4418.717773,4300.897461,4312.94873,4262.692383,4270.512695,4261.410156,4270.641113,4175,4228.205078,4366.666504,4474.615234,4315,4412.436035,7284,4,85,,,,0,4,4,4,4,4,4,4,4,4,4,4,4,4,4,100,,,,,,,,,,,,,,,,,,,,,,,,,,,,,,,,,,,,,,,,,,,,,,,,,,,,,,,,,,,,,,,,,,,,,,,,,,,,,,,,,,,,,,,,,,,,,,,,,,,,,,,,,,,,,,,,,,,,,,,,,,,,,,,,,,,,,,
1702629661,102,0,4262.179688,4390.897461,4286.153809,4299.358887,4261.153809,4243.077148,4253.333496,4257.820313,4160.641113,4227.436035,4364.615234,4460.769043,4311.025879,4406.538574,6012,4,85,,,,0,4,4,4,4,4,4,4,4,4,4,4,4,4,4,100,,,,,,,,,,,,,,,,,,,,,,,,,,,,,,,,,,,,,,,,,,,,,,,,,,,,,,,,,,,,,,,,,,,,,,,,,,,,,,,,,,,,,,,,,,,,,,,,,,,,,,,,,,,,,,,,,,,,,,,,,,,,,,,,,,,,,,
1702629661,103,0,4280.769043,4384.230957,4304.871582,4327.94873,4268.077148,4257.179688,4269.615234,4268.589844,4171.282227,4243.461426,4389.615234,4477.307617,4333.717773,4427.692383,6245,4,85,,,,0,4,4,4,4,4,4,4,4,4,4,4,4,4,4,100,,,,,,,,,,,,,,,,,,,,,,,,,,,,,,,,,,,,,,,,,,,,,,,,,,,,,,,,,,,,,,,,,,,,,,,,,,,,,,,,,,,,,,,,,,,,,,,,,,,,,,,,,,,,,,,,,,,,,,,,,,,,,,,,,,,,,,
1702629661,104,0,4277.179688,4360.128418,4305.897461,4327.820313,4265.512695,4235.641113,4268.077148,4267.436035,4168.461426,4238.589844,4386.794922,4479.615234,4330.641113,4425.641113,6831,4,85,,,,0,4,4,4,4,4,4,4,4,4,4,4,4,4,4,100,,,,,,,,,,,,,,,,,26,0,0.511183,-0.590088,-0.354614,-0.514526,0.966427,-0.229032,0.044927,-10.990588,-3.385274,83.506721,,,,,,,,,,,,,,,,,,,,,,,,,,,,,,,,,,,,,,,,,,,,,,,,,,,,,,,,,,,,,,,,,,,,,,,,,,,,,,,,,,,,,,,,,,,,,,,,,,,,,,,,,,
1702629661,105,0,4265.897461,4339.487305,4292.436035,4315.769043,4266.666504,4193.589844,4265.256348,4266.410156,4161.922852,4235.897461,4380.384766,4471.410156,4321.538574,4416.538574,7284,4,85,,,,0,4,4,4,4,4,4,4,4,4,4,4,4,4,4,100,,,,,,,,,,,,,,,,,,,,,,,,,,,,,,,,,,,,,,,,,,,,,,,,,,,,,,,,,,,,,,,,,,,,,,,,,,,,,,,,,,,,,,,,,,,,,,,,,,,,,,,,,,,,,,,,,,,,,,,,,,,,,,,,,,,,,,
1702629661,106,0,4277.436035,4336.153809,4303.974121,4331.922852,4272.692383,4186.794922,4279.102539,4279.230957,4174.871582,4247.05127,4396.153809,4481.282227,4324.230957,4427.307617,6012,4,85,,,,0,4,4,4,4,4,4,4,4,4,4,4,4,4,4,100,,,,,,,,,,,,,,,,,,,,,,,,,,,,,,,,,,,,,,,,,,,,,,,,,,,,,,,,,,,,,,,,,,,,,,,,,,,,,,,,,,,,,,,,,,,,,,,,,,,,,,,,,,,,,,,,,,,,,,,,,,,,,,,,,,,,,,
1702629661,107,0,4283.333496,4329.102539,4316.922852,4337.05127,4275.769043,4178.589844,4282.563965,4281.538574,4185.256348,4250.769043,4400.769043,4490.256348,4317.820313,4429.487305,6245,4,85,,,,0,4,4,4,4,4,4,4,4,4,4,4,4,4,4,100,,,,,,,,,,,,,,,,,,,,,,,,,,,,,,,,,,,,,,,,,,,,,,,,,,,,,,,,,,,,,,,,,,,,,,,,,,,,,,,,,,,,,,,,,,,,,,,,,,,,,,,,,,,,,,,,,,,,,,,,,,,,,,,,,,,,,,
1702629661,108,0,4275.128418,4322.94873,4311.282227,4325.641113,4283.589844,4153.589844,4278.077148,4279.358887,4189.102539,4255.384766,4398.717773,4487.05127,4314.871582,4424.871582,6831,4,85,,,,0,4,4,4,4,4,4,4,4,4,4,4,4,4,4,100,,,,,,,,,,,,,,,,,27,0,0.512313,-0.590149,-0.353943,-0.513794,0.959101,-0.24124,0.060554,-11.008196,-3.313413,83.406052,,,,,,,,,,,,,,,,,,,,,,,,,,,,,,,,,,,,,,,,,,,,,,,,,,,,,,,,,,,,,,,,,,,,,,,,,,,,,,,,,,,,,,,,,,,,,,,,,,,,,,,,,,
1702629661,109,0,4270.512695,4324.743652,4304.615234,4324.487305,4282.436035,4150.512695,4281.282227,4281.025879,4188.846191,4252.307617,4398.846191,4479.102539,4315,4422.179688,7284,4,85,,,,0,4,4,4,4,4,4,4,4,4,4,4,4,4,4,100,,,,,,,,,,,,,,,,,,,,,,,,,,,,,,,,,,,,,,,,,,,,,,,,,,,,,,,,,,,,,,,,,,,,,,,,,,,,,,,,,,,,,,,,,,,,,,,,,,,,,,,,,,,,,,,,,,,,,,,,,,,,,,,,,,,,,,
1702629661,110,0,4265.897461,4315.769043,4299.358887,4321.153809,4268.077148,4143.461426,4277.563965,4269.102539,4174.615234,4233.846191,4386.794922,4464.743652,4299.358887,4410.769043,6012,4,85,,,,0,4,4,4,4,4,4,4,4,4,4,4,4,4,4,100,,,,,,,,,,,,,,,,,,,,,,,,,,,,,,,,,,,,,,,,,,,,,,,,,,,,,,,,,,,,,,,,,,,,,,,,,,,,,,,,,,,,,,,,,,,,,,,,,,,,,,,,,,,,,,,,,,,,,,,,,,,,,,,,,,,,,,
1702629661,111,0,4260,4301.025879,4292.179688,4312.692383,4259.743652,4105.641113,4268.589844,4258.846191,4166.666504,4231.153809,4376.153809,4454.358887,4289.615234,4403.077148,6245,4,85,,,,0,4,4,4,4,4,4,4,4,4,4,4,4,4,4,100,,,,,,,,,,,,,,,,,,,,,,,,,,,,,,,,,,,,,,,,,,,,,,,,,,,,,,,,,,,,,,,,,,,,,,,,,,,,,,,,,,,,,,,,,,,,,,,,,,,,,,,,,,,,,,,,,,,,,,,,,,,,,,,,,,,,,,
1702629661,112,0,4263.077148,4295.384766,4296.153809,4320.512695,4269.871582,4075.256348,4273.717773,4271.282227,4179.102539,4249.102539,4386.410156,4460.641113,4304.743652,4409.102539,6831,4,85,,,,0,4,4,4,4,4,4,4,4,4,4,4,4,4,4,100,,,,,,,,,,,,,,,,,28,0,0.513275,-0.59021,-0.353333,-0.513184,0.959101,-0.243194,0.051276,-11.09071,-3.298738,83.248779,,,,,,,,,,,,,,,,,,,,,,,,,,,,,,,,,,,,,,,,,,,,,,,,,,,,,,,,,,,,,,,,,,,,,,,,,,,,,,,,,,,,,,,,,,,,,,,,,,,,,,,,,,
1702629661,113,0,4274.871582,4286.794922,4303.717773,4334.871582,4286.922852,4068.461426,4280.128418,4279.487305,4181.410156,4247.820313,4398.717773,4467.820313,4318.333496,4417.179688,7284,4,85,,,,0,4,4,4,4,4,4,4,4,4,4,4,4,4,4,100,,,,,,,,,,,,,,,,,,,,,,,,,,,,,,,,,,,,,,,,,,,,,,,,,,,,,,,,,,,,,,,,,4.92846,1.410564,0.324269,0.250183,0.31389,1712.042603,271.729797,72.966537,16.958597,1.726767,4.10319,0.521153,0.442857,0.311502,0.298482,6.89852,1.492471,0.314848,0.159317,0.345619,18.972145,2.082088,1.062697,0.585818,0.46498,223.857529,47.68327,10.467801,4.716472,0.809216,0.770585,0.696058,0.179715,0.188426,0.246083,2.890982,1.252915,0.27528,0.180084,0.232048,2.469115,1.086399,0.353433,0.233612,0.306642,1.723151,0.802432,0.369715,0.243103,0.332962,6.989455,1.395409,0.991356,0.380928,0.379023,3.348393,1.507795,0.820584,0.366601,0.32917,4.36285,1.545477,0.653167,0.53441,0.398582,4.627657,1.839733,0.564868,0.320496,0.345648
1702629661,114,0,4276.538574,4266.538574,4299.102539,4331.794922,4295.384766,4064.743652,4276.153809,4271.410156,4167.436035,4230.384766,4390.512695,4461.025879,4314.230957,4417.563965,6012,4,85,,,,0,4,4,4,4,4,4,4,4,4,4,4,4,4,4,100,,,,,,,,,,,,,,,,,,,,,,,,,,,,,,,,,,,,,,,,,,,,,,,,,,,,,,,,,,,,,,,,,,,,,,,,,,,,,,,,,,,,,,,,,,,,,,,,,,,,,,,,,,,,,,,,,,,,,,,,,,,,,,,,,,,,,,
1702629661,115,0,4268.717773,4243.717773,4292.94873,4327.307617,4294.102539,4063.718018,4274.871582,4271.410156,4168.717773,4233.717773,4382.94873,4463.846191,4308.205078,4414.358887,6245,4,85,,,,0,4,4,4,4,4,4,4,4,4,4,4,4,4,4,100,,,,,,,,,,,,,,,,,,,,,,,,,,,,,,,,,,,,,,,,,,,,,,,,,,,,,,,,,,,,,,,,,,,,,,,,,,,,,,,,,,,,,,,,,,,,,,,,,,,,,,,,,,,,,,,,,,,,,,,,,,,,,,,,,,,,,,
1702629661,116,0,4270.512695,4228.333496,4298.333496,4335.512695,4289.871582,4073.333252,4280.641113,4281.922852,4174.358887,4248.333496,4392.94873,4475.512695,4311.666504,4417.563965,6831,4,85,,,,0,4,4,4,4,4,4,4,4,4,4,4,4,4,4,100,,,,,,,,,,,,,,,,,29,0,0.513555,-0.590271,-0.353088,-0.513,0.970822,-0.252961,0.047369,-11.281639,-3.335531,83.307236,,,,,,,,,,,,,,,,,,,,,,,,,,,,,,,,,,,,,,,,,,,,,,,,,,,,,,,,,,,,,,,,,,,,,,,,,,,,,,,,,,,,,,,,,,,,,,,,,,,,,,,,,,
1702629661,117,0,4272.692383,4221.153809,4301.922852,4336.538574,4290.128418,4090.128174,4282.05127,4281.666504,4165,4240.128418,4396.794922,4472.179688,4317.563965,4421.794922,7284,4,85,,,,0,4,4,4,4,4,4,4,4,4,4,4,4,4,4,100,,,,,,,,,,,,,,,,,,,,,,,,,,,,,,,,,,,,,,,,,,,,,,,,,,,,,,,,,,,,,,,,,,,,,,,,,,,,,,,,,,,,,,,,,,,,,,,,,,,,,,,,,,,,,,,,,,,,,,,,,,,,,,,,,,,,,,
1702629661,118,0,4258.974121,4216.538574,4291.666504,4324.743652,4281.153809,4107.94873,4277.820313,4271.025879,4152.692383,4222.692383,4384.230957,4461.282227,4308.589844,4412.436035,6012,4,85,,,,0,4,4,4,4,4,4,4,4,4,4,4,4,4,4,100,,,,,,,,,,,,,,,,,,,,,,,,,,,,,,,,,,,,,,,,,,,,,,,,,,,,,,,,,,,,,,,,,,,,,,,,,,,,,,,,,,,,,,,,,,,,,,,,,,,,,,,,,,,,,,,,,,,,,,,,,,,,,,,,,,,,,,
1702629661,119,0,4255.512695,4217.692383,4287.179688,4323.077148,4274.358887,4119.871582,4274.230957,4268.846191,4149.230957,4231.538574,4386.153809,4466.410156,4305.769043,4410.128418,6245,4,85,,,,0,4,4,4,4,4,4,4,4,4,4,4,4,4,4,100,,,,,,,,,,,,,,,,,,,,,,,,,,,,,,,,,,,,,,,,,,,,,,,,,,,,,,,,,,,,,,,,,,,,,,,,,,,,,,,,,,,,,,,,,,,,,,,,,,,,,,,,,,,,,,,,,,,,,,,,,,,,,,,,,,,,,,
1702629661,120,0,4277.436035,4236.922852,4305.897461,4339.102539,4289.871582,4141.538574,4283.333496,4282.179688,4160.128418,4252.307617,4410.512695,4486.794922,4326.538574,4433.461426,6831,4,85,,,,0,4,4,4,4,4,4,4,4,4,4,4,4,4,4,100,,,,,,,,,,,,,,,,,30,0,0.513512,-0.590759,-0.3526,-0.512817,0.967892,-0.2471,0.056648,-11.186809,-3.218645,83.309845,,,,,,,,,,,,,,,,,,,,,,,,,,,,,,,,,,,,,,,,,,,,,,,,,,,,,,,,,,,,,,,,,,,,,,,,,,,,,,,,,,,,,,,,,,,,,,,,,,,,,,,,,,
1702629661,121,0,4287.307617,4260.769043,4322.94873,4350.641113,4302.05127,4162.820313,4295.769043,4290.641113,4169.358887,4252.179688,4422.692383,4497.94873,4339.358887,4446.666504,7284,4,85,,,,0,4,4,4,4,4,4,4,4,4,4,4,4,4,4,100,,,,,,,,,,,,,,,,,,,,,,,,,,,,,,,,,,,,,,,,,,,,,,,,,,,,,,,,,,,,,,,,,,,,,,,,,,,,,,,,,,,,,,,,,,,,,,,,,,,,,,,,,,,,,,,,,,,,,,,,,,,,,,,,,,,,,,
1702629661,122,0,4269.615234,4260,4306.538574,4340.256348,4287.05127,4138.077148,4280.641113,4278.333496,4153.974121,4236.153809,4408.974121,4484.102539,4326.282227,4428.461426,6012,4,85,,,,0,4,4,4,4,4,4,4,4,4,4,4,4,4,4,100,,,,,,,,,,,,,,,,,,,,,,,,,,,,,,,,,,,,,,,,,,,,,,,,,,,,,,,,,,,,,,,,,,,,,,,,,,,,,,,,,,,,,,,,,,,,,,,,,,,,,,,,,,,,,,,,,,,,,,,,,,,,,,,,,,,,,,
1702629661,123,0,4261.153809,4250.897461,4285.512695,4328.205078,4273.717773,4119.743652,4265.512695,4266.794922,4133.461426,4230.384766,4396.794922,4468.333496,4318.077148,4415.128418,6245,4,85,,,,0,4,4,4,4,4,4,4,4,4,4,4,4,4,4,100,,,,,,,,,,,,,,,,,,,,,,,,,,,,,,,,,,,,,,,,,,,,,,,,,,,,,,,,,,,,,,,,,,,,,,,,,,,,,,,,,,,,,,,,,,,,,,,,,,,,,,,,,,,,,,,,,,,,,,,,,,,,,,,,,,,,,,
1702629661,124,0,4279.487305,4265.897461,4301.538574,4348.717773,4287.820313,4161.025879,4283.589844,4277.179688,4138.717773,4244.102539,4411.794922,4482.692383,4336.666504,4434.615234,6831,4,85,,,,0,4,4,4,4,4,4,4,4,4,4,4,4,4,4,100,,,,,,,,,,,,,,,,,31,0,0.513197,-0.591003,-0.352295,-0.513062,0.949823,-0.242217,0.062508,-11.184794,-3.280114,83.37886,,,,,,,,,,,,,,,,,,,,,,,,,,,,,,,,,,,,,,,,,,,,,,,,,,,,,,,,,,,,,,,,,,,,,,,,,,,,,,,,,,,,,,,,,,,,,,,,,,,,,,,,,,
1702629661,125,0,4287.563965,4285.256348,4313.589844,4365.384766,4298.589844,4180.384766,4292.307617,4282.179688,4142.94873,4248.333496,4422.94873,4491.410156,4350.256348,4446.025879,7284,4,85,,,,0,4,4,4,4,4,4,4,4,4,4,4,4,4,4,100,,,,,,,,,,,,,,,,,,,,,,,,,,,,,,,,,,,,,,,,,,,,,,,,,,,,,,,,,,,,,,,,,,,,,,,,,,,,,,,,,,,,,,,,,,,,,,,,,,,,,,,,,,,,,,,,,,,,,,,,,,,,,,,,,,,,,,
1702629661,126,0,4271.538574,4282.94873,4291.410156,4346.410156,4282.563965,4148.717773,4273.077148,4263.077148,4125,4229.102539,4404.102539,4467.179688,4339.871582,4425.769043,6012,4,85,,,,0,4,4,4,4,4,4,4,4,4,4,4,4,4,4,100,,,,,,,,,,,,,,,,,,,,,,,,,,,,,,,,,,,,,,,,,,,,,,,,,,,,,,,,,,,,,,,,,,,,,,,,,,,,,,,,,,,,,,,,,,,,,,,,,,,,,,,,,,,,,,,,,,,,,,,,,,,,,,,,,,,,,,
1702629661,127,0,4270.512695,4283.205078,4281.794922,4347.436035,4273.333496,4148.974121,4272.94873,4257.179688,4122.692383,4224.102539,4398.333496,4460.897461,4338.717773,4417.94873,85,4,85,,,,0,4,4,4,4,4,4,4,4,4,4,4,4,4,4,100,,,,,,,,,,,,,,,,,,,,,,,,,,,,,,,,,,,,,,,,,,,,,,,,,,,,,,,,,,,,,,,,,,,,,,,,,,,,,,,,,,,,,,,,,,,,,,,,,,,,,,,,,,,,,,,,,,,,,,,,,,,,,,,,,,,,,,
1702629661,0,0,4282.94873,4286.922852,4297.436035,4369.615234,4288.974121,4173.717773,4285.256348,4274.871582,4138.333496,4243.333496,4420.128418,4478.589844,4352.436035,4432.307617,5629,4,85,,,,0,4,4,4,4,4,4,4,4,4,4,4,4,4,4,100,,,,,,,,,,,,,,,,,0,0,0.512909,-0.591187,-0.352051,-0.513306,0.963008,-0.227078,0.052741,-11.232982,-3.218769,83.290977,,,,,,,,,,,,,,,,,,,,,,,,,,,,,,,,,,,,,,,,,,,,,,,,,,,,,,,,,,,,,,,,,,,,,,,,,,,,,,,,,,,,,,,,,,,,,,,,,,,,,,,,,,
1702629661,1,0,4283.205078,4262.307617,4301.025879,4366.794922,4293.077148,4179.615234,4281.153809,4280.128418,4138.846191,4250.769043,4427.05127,4481.922852,4348.077148,4434.102539,5517,4,85,,,,0,4,4,4,4,4,4,4,4,4,4,4,4,4,4,100,,,,,,,,,,,,,,,,,,,,,,,,,,,,,,,,,,,,,,,,,,,,,,,,,,,,,,,,,,,,,,,,,4.330611,1.357666,0.321765,0.255891,0.316134,1391.151855,208.798126,56.218426,13.370933,1.367741,3.416457,0.467347,0.45693,0.325167,0.316226,5.454273,1.267606,0.346638,0.155566,0.379025,17.631395,1.471711,0.937995,0.529998,0.471797,236.36496,36.128014,10.26658,5.519966,0.858245,0.701666,0.69339,0.200549,0.177616,0.274496,3.112204,1.18227,0.315666,0.200931,0.263096,2.952073,1.043909,0.3662,0.255341,0.368099,1.722764,0.772387,0.417306,0.22961,0.392484,7.73896,1.503846,1.106312,0.369881,0.421575,2.779966,1.454753,0.91065,0.370743,0.358792,3.741854,1.390021,0.756065,0.500264,0.386795,3.795527,1.701431,0.646169,0.348405,0.365531
1702629661,2,0,4275.128418,4215.128418,4284.743652,4358.333496,4277.94873,4180,4276.922852,4267.692383,4125.128418,4237.05127,4412.820313,4471.666504,4328.205078,4420.897461,5325,4,85,,,,0,4,4,4,4,4,4,4,4,4,4,4,4,4,4,100,,,,,,,,,,,,,,,,,,,,,,,,,,,,,,,,,,,,,,,,,,,,,,,,,,,,,,,,,,,,,,,,,,,,,,,,,,,,,,,,,,,,,,,,,,,,,,,,,,,,,,,,,,,,,,,,,,,,,,,,,,,,,,,,,,,,,,
1702629661,3,0,4273.333496,4175.897461,4278.717773,4365.769043,4281.282227,4175.769043,4276.153809,4264.487305,4125.128418,4229.358887,4412.179688,4468.717773,4324.615234,4418.846191,5322,4,85,,,,0,4,4,4,4,4,4,4,4,4,4,4,4,4,4,100,,,,,,,,,,,,,,,,,,,,,,,,,,,,,,,,,,,,,,,,,,,,,,,,,,,,,,,,,,,,,,,,,,,,,,,,,,,,,,,,,,,,,,,,,,,,,,,,,,,,,,,,,,,,,,,,,,,,,,,,,,,,,,,,,,,,,,
1702629661,4,0,4278.974121,4147.436035,4290.128418,4372.307617,4298.205078,4171.282227,4270,4276.025879,4135.512695,4238.205078,4425.897461,4472.692383,4326.538574,4427.563965,5342,4,85,,,,0,4,4,4,4,4,4,4,4,4,4,4,4,4,4,100,,,,,,,,,,,,,,,,,1,0,0.512311,-0.590576,-0.352966,-0.513977,0.960566,-0.255402,0.046881,-11.093017,-3.113559,83.295212,,,,,,,,,,,,,,,,,,,,,,,,,,,,,,,,,,,,,,,,,,,,,,,,,,,,,,,,,,,,,,,,,,,,,,,,,,,,,,,,,,,,,,,,,,,,,,,,,,,,,,,,,,
1702629661,5,0,4282.563965,4108.333496,4297.307617,4377.94873,4297.692383,4180.897461,4267.820313,4280.641113,4135.769043,4245.512695,4433.461426,4480.256348,4317.307617,4431.794922,5318,4,85,,,,0,4,4,4,4,4,4,4,4,4,4,4,4,4,4,100,,,,,,,,,,,,,,,,,,,,,,,,,,,,,,,,,,,,,,,,,,,,,,,,,,,,,,,,,,,,,,,,,,,,,,,,,,,,,,,,,,,,,,,,,,,,,,,,,,,,,,,,,,,,,,,,,,,,,,,,,,,,,,,,,,,,,,
1702629661,6,0,4284.487305,4057.307617,4296.922852,4390.128418,4298.077148,4193.974121,4274.615234,4281.025879,4137.563965,4245.256348,4440.128418,4490.897461,4309.871582,4432.692383,5073,4,85,,,,0,4,4,4,4,4,4,4,4,4,4,4,4,4,4,100,,,,,,,,,,,,,,,,,,,,,,,,,,,,,,,,,,,,,,,,,,,,,,,,,,,,,,,,,,,,,,,,,,,,,,,,,,,,,,,,,,,,,,,,,,,,,,,,,,,,,,,,,,,,,,,,,,,,,,,,,,,,,,,,,,,,,,
1702629661,7,0,4282.436035,4005.641113,4297.692383,4390.769043,4313.077148,4201.794922,4274.871582,4283.974121,4142.436035,4247.94873,4443.589844,4493.717773,4298.461426,4432.563965,5300,4,85,,,,0,4,4,4,4,4,4,4,4,4,4,4,4,4,4,100,,,,,,,,,,,,,,,,,,,,,,,,,,,,,,,,,,,,,,,,,,,,,,,,,,,,,,,,,,,,,,,,,,,,,,,,,,,,,,,,,,,,,,,,,,,,,,,,,,,,,,,,,,,,,,,,,,,,,,,,,,,,,,,,,,,,,,
1702629661,8,0,4276.794922,3961.538574,4293.717773,4380.512695,4320.384766,4214.615234,4271.538574,4279.615234,4137.820313,4246.666504,4436.153809,4489.615234,4278.461426,4427.692383,5362,4,85,,,,0,4,4,4,4,4,4,4,4,4,4,4,4,4,4,100,,,,,,,,,,,,,,,,,2,0,0.511558,-0.590332,-0.353577,-0.514587,0.943475,-0.252472,0.045904,-11.017049,-2.935536,83.165688,,,,,,,,,,,,,,,,,,,,,,,,,,,,,,,,,,,,,,,,,,,,,,,,,,,,,,,,,,,,,,,,,,,,,,,,,,,,,,,,,,,,,,,,,,,,,,,,,,,,,,,,,,
1702629661,9,0,4282.436035,3934.743652,4296.282227,4388.333496,4328.846191,4247.820313,4283.717773,4286.025879,4145.384766,4245.769043,4445.256348,4499.358887,4277.436035,4431.666504,5272,4,85,,,,0,4,4,4,4,4,4,4,4,4,4,4,4,4,4,100,,,,,,,,,,,,,,,,,,,,,,,,,,,,,,,,,,,,,,,,,,,,,,,,,,,,,,,,,,,,,,,,,,,,,,,,,,,,,,,,,,,,,,,,,,,,,,,,,,,,,,,,,,,,,,,,,,,,,,,,,,,,,,,,,,,,,,
1702629661,10,0,4289.102539,3913.846191,4307.94873,4398.846191,4339.615234,4276.538574,4291.282227,4297.94873,4158.077148,4251.922852,4460.769043,4514.358887,4284.871582,4439.230957,5943,4,85,,,,0,4,4,4,4,4,4,4,4,4,4,4,4,4,4,100,,,,,,,,,,,,,,,,,,,,,,,,,,,,,,,,,,,,,,,,,,,,,,,,,,,,,,,,,,,,,,,,,,,,,,,,,,,,,,,,,,,,,,,,,,,,,,,,,,,,,,,,,,,,,,,,,,,,,,,,,,,,,,,,,,,,,,
1702629661,11,0,4278.205078,3886.794922,4301.666504,4383.717773,4332.820313,4268.461426,4278.461426,4285.769043,4141.153809,4248.589844,4452.05127,4507.692383,4275,4428.846191,6179,4,85,,,,0,4,4,4,4,4,4,4,4,4,4,4,4,4,4,100,,,,,,,,,,,,,,,,,,,,,,,,,,,,,,,,,,,,,,,,,,,,,,,,,,,,,,,,,,,,,,,,,,,,,,,,,,,,,,,,,,,,,,,,,,,,,,,,,,,,,,,,,,,,,,,,,,,,,,,,,,,,,,,,,,,,,,
1702629661,12,0,4278.077148,3874.102539,4294.743652,4370,4321.410156,4257.94873,4274.358887,4278.205078,4133.846191,4247.820313,4449.358887,4502.179688,4272.692383,4429.230957,6780,4,85,,,,0,4,4,4,4,4,4,4,4,4,4,4,4,4,4,100,,,,,,,,,,,,,,,,,3,0,0.5109,-0.59021,-0.353577,-0.515381,0.94787,-0.23831,0.053717,-10.865343,-2.941983,83.099121,,,,,,,,,,,,,,,,,,,,,,,,,,,,,,,,,,,,,,,,,,,,,,,,,,,,,,,,,,,,,,,,,,,,,,,,,,,,,,,,,,,,,,,,,,,,,,,,,,,,,,,,,,
1702629661,13,0,4293.717773,3884.615479,4306.666504,4376.282227,4328.333496,4270,4283.974121,4291.666504,4153.717773,4257.94873,4465.897461,4514.358887,4282.94873,4445,7221,4,85,,,,0,4,4,4,4,4,4,4,4,4,4,4,4,4,4,100,,,,,,,,,,,,,,,,,,,,,,,,,,,,,,,,,,,,,,,,,,,,,,,,,,,,,,,,,,,,,,,,,,,,,,,,,,,,,,,,,,,,,,,,,,,,,,,,,,,,,,,,,,,,,,,,,,,,,,,,,,,,,,,,,,,,,,
1702629661,14,0,4287.820313,3893.205078,4304.230957,4369.102539,4337.307617,4268.461426,4277.820313,4287.692383,4148.077148,4253.461426,4463.205078,4509.102539,4274.615234,4436.153809,5943,4,85,,,,0,4,4,4,4,4,4,4,4,4,4,4,4,4,4,100,,,,,,,,,,,,,,,,,,,,,,,,,,,,,,,,,,,,,,,,,,,,,,,,,,,,,,,,,,,,,,,,,,,,,,,,,,,,,,,,,,,,,,,,,,,,,,,,,,,,,,,,,,,,,,,,,,,,,,,,,,,,,,,,,,,,,,
1702629661,15,0,4275.769043,3888.718018,4290.256348,4350.897461,4330.128418,4256.794922,4265.769043,4272.307617,4130.128418,4243.205078,4454.615234,4492.692383,4262.05127,4421.282227,6179,4,85,,,,0,4,4,4,4,4,4,4,4,4,4,4,4,4,4,100,,,,,,,,,,,,,,,,,,,,,,,,,,,,,,,,,,,,,,,,,,,,,,,,,,,,,,,,,,,,,,,,,,,,,,,,,,,,,,,,,,,,,,,,,,,,,,,,,,,,,,,,,,,,,,,,,,,,,,,,,,,,,,,,,,,,,,
1702629661,16,0,4287.436035,3892.564209,4300.769043,4355.256348,4325.512695,4271.794922,4272.820313,4277.94873,4142.820313,4248.333496,4467.436035,4499.230957,4265.641113,4430.512695,0,4,85,,,,0,4,4,4,4,4,4,4,4,4,4,4,4,4,4,100,,,,,,,,,,,,,,,,,4,0,0.511074,-0.590393,-0.352661,-0.515625,0.96545,-0.20315,0.041997,-10.945476,-2.947784,83.039207,,,,,,,,,,,,,,,,,,,,,,,,,,,,,,,,,,,,,,,,,,,,,,,,,,,,,,,,,,,,,,,,,,,,,,,,,,,,,,,,,,,,,,,,,,,,,,,,,,,,,,,,,,
1702629661,17,0,4297.179688,3902.692383,4315.128418,4365.128418,4326.153809,4292.179688,4282.820313,4286.666504,4157.692383,4254.615234,4477.179688,4511.410156,4268.077148,4436.794922,0,4,85,,,,0,4,4,4,4,4,4,4,4,4,4,4,4,4,4,100,1,8.333333,4,0,4,1,1,0,4,4,3,4,4,4,1,4,,,,,,,,,,,,,,,,,,,,,,,,,,,,,,,,,,,,,,,,,,,,,,,,,3.444476,1.207343,0.374825,0.262803,0.324733,1061.109619,148.568344,39.683731,9.529833,1.056632,2.685292,0.425072,0.495944,0.332222,0.327046,4.488888,0.959256,0.407148,0.155242,0.438656,14.865628,1.0364,0.853752,0.442384,0.489789,235.637894,26.492605,11.134642,6.27076,1.021438,0.641368,0.653482,0.236839,0.175408,0.305066,3.201776,1.02962,0.390382,0.226324,0.287825,3.338392,0.993451,0.387993,0.27551,0.417695,1.77045,0.767548,0.496619,0.218248,0.44264,8.06241,1.708587,1.322108,0.364508,0.47039,2.640728,1.356004,1.076341,0.381799,0.391537,3.260065,1.342185,0.984854,0.473395,0.390528,2.899993,1.55311,0.83637,0.382891,0.387575
1702629661,18,0,4289.871582,3908.718018,4309.743652,4359.358887,4325.256348,4294.102539,4278.974121,4285.641113,4154.871582,4253.077148,4472.179688,4503.077148,4261.282227,4426.025879,0,4,85,,,,0,4,4,4,4,4,4,4,4,4,4,4,4,4,4,100,,,,,,,,,,,,,,,,,,,,,,,,,,,,,,,,,,,,,,,,,,,,,,,,,,,,,,,,,,,,,,,,,,,,,,,,,,,,,,,,,,,,,,,,,,,,,,,,,,,,,,,,,,,,,,,,,,,,,,,,,,,,,,,,,,,,,,
1702629661,19,0,4291.922852,3919.871826,4309.615234,4353.589844,4331.153809,4300.512695,4277.307617,4291.153809,4154.743652,4261.025879,4475.641113,4495.128418,4263.717773,4428.205078,0,4,85,,,,0,4,4,4,4,4,4,4,4,4,4,4,4,4,4,100,,,,,,,,,,,,,,,,,,,,,,,,,,,,,,,,,,,,,,,,,,,,,,,,,,,,,,,,,,,,,,,,,,,,,,,,,,,,,,,,,,,,,,,,,,,,,,,,,,,,,,,,,,,,,,,,,,,,,,,,,,,,,,,,,,,,,,
1702629661,20,0,4294.102539,3928.718018,4315.897461,4350.769043,4330.256348,4308.717773,4282.307617,4294.871582,4156.922852,4265.128418,4483.461426,4498.461426,4266.410156,4431.666504,0,4,85,,,,0,4,4,4,4,4,4,4,4,4,4,4,4,4,4,100,,,,,,,,,,,,,,,,,5,0,0.511204,-0.590393,-0.352295,-0.515747,0.963008,-0.209498,0.055183,-10.984262,-2.886339,83.001953,,,,,,,,,,,,,,,,,,,,,,,,,,,,,,,,,,,,,,,,,,,,,,,,,,,,,,,,,,,,,,,,,,,,,,,,,,,,,,,,,,,,,,,,,,,,,,,,,,,,,,,,,,
1702629661,21,0,4281.538574,3930.897461,4310.128418,4341.025879,4320.384766,4301.282227,4279.487305,4285.641113,4155.256348,4250.897461,4478.974121,4491.794922,4253.846191,4418.333496,0,4,85,,,,0,4,4,4,4,4,4,4,4,4,4,4,4,4,4,100,,,,,,,,,,,,,,,,,,,,,,,,,,,,,,,,,,,,,,,,,,,,,,,,,,,,,,,,,,,,,,,,,,,,,,,,,,,,,,,,,,,,,,,,,,,,,,,,,,,,,,,,,,,,,,,,,,,,,,,,,,,,,,,,,,,,,,
1702629661,22,0,4279.743652,3934.871826,4305.897461,4335.641113,4314.230957,4295.897461,4276.410156,4278.589844,4155.641113,4245.769043,4475.897461,4483.589844,4246.153809,4412.692383,0,4,85,,,,0,4,4,4,4,4,4,4,4,4,4,4,4,4,4,100,,,,,,,,,,,,,,,,,,,,,,,,,,,,,,,,,,,,,,,,,,,,,,,,,,,,,,,,,,,,,,,,,,,,,,,,,,,,,,,,,,,,,,,,,,,,,,,,,,,,,,,,,,,,,,,,,,,,,,,,,,,,,,,,,,,,,,
1702629661,23,0,4297.307617,3944.487061,4317.563965,4349.102539,4321.282227,4301.282227,4283.461426,4289.743652,4163.333496,4259.102539,4489.358887,4498.077148,4261.794922,4429.102539,0,4,85,,,,0,4,4,4,4,4,4,4,4,4,4,4,4,4,4,100,,,,,,,,,,,,,,,,,,,,,,,,,,,,,,,,,,,,,,,,,,,,,,,,,,,,,,,,,,,,,,,,,,,,,,,,,,,,,,,,,,,,,,,,,,,,,,,,,,,,,,,,,,,,,,,,,,,,,,,,,,,,,,,,,,,,,,
1702629661,24,0,4302.05127,3950.256348,4322.05127,4356.794922,4334.615234,4286.794922,4281.410156,4300.897461,4170.897461,4268.205078,4496.410156,4510.512695,4268.205078,4435.641113,0,4,85,,,,0,4,4,4,4,4,4,4,4,4,4,4,4,4,4,100,,,,,,,,,,,,,,,,,6,0,0.511817,-0.590332,-0.351685,-0.515625,0.964473,-0.229032,0.045416,-11.085835,-2.931039,82.985092,,,,,,,,,,,,,,,,,,,,,,,,,,,,,,,,,,,,,,,,,,,,,,,,,,,,,,,,,,,,,,,,,,,,,,,,,,,,,,,,,,,,,,,,,,,,,,,,,,,,,,,,,,
1702629661,25,0,4291.410156,3947.05127,4315.384766,4348.974121,4331.025879,4254.230957,4273.717773,4292.436035,4168.846191,4262.563965,4486.666504,4499.743652,4248.333496,4421.025879,0,4,85,,,,0,4,4,4,4,4,4,4,4,4,4,4,4,4,4,100,,,,,,,,,,,,,,,,,,,,,,,,,,,,,,,,,,,,,,,,,,,,,,,,,,,,,,,,,,,,,,,,,,,,,,,,,,,,,,,,,,,,,,,,,,,,,,,,,,,,,,,,,,,,,,,,,,,,,,,,,,,,,,,,,,,,,,
1702629661,26,0,4301.922852,3955.128174,4327.05127,4356.153809,4322.436035,4232.179688,4288.717773,4290.769043,4167.692383,4259.743652,4491.922852,4506.922852,4249.871582,4425.641113,0,4,85,,,,0,4,4,4,4,4,4,4,4,4,4,4,4,4,4,100,,,,,,,,,,,,,,,,,,,,,,,,,,,,,,,,,,,,,,,,,,,,,,,,,,,,,,,,,,,,,,,,,,,,,,,,,,,,,,,,,,,,,,,,,,,,,,,,,,,,,,,,,,,,,,,,,,,,,,,,,,,,,,,,,,,,,,
1702629661,27,0,4313.846191,3973.076904,4340.641113,4367.563965,4325.897461,4190.128418,4298.461426,4299.615234,4170.512695,4264.871582,4506.153809,4526.153809,4264.743652,4441.922852,0,4,85,,,,0,4,4,4,4,4,4,4,4,4,4,4,4,4,4,100,,,,,,,,,,,,,,,,,,,,,,,,,,,,,,,,,,,,,,,,,,,,,,,,,,,,,,,,,,,,,,,,,,,,,,,,,,,,,,,,,,,,,,,,,,,,,,,,,,,,,,,,,,,,,,,,,,,,,,,,,,,,,,,,,,,,,,
1702629661,28,0,4300.769043,3984.230713,4329.487305,4357.179688,4322.436035,4124.487305,4282.179688,4300,4173.589844,4269.358887,4498.974121,4517.179688,4255.897461,4433.974121,0,4,85,,,,0,4,4,4,4,4,4,4,4,4,4,4,4,4,4,100,,,,,,,,,,,,,,,,,7,0,0.512051,-0.590149,-0.351563,-0.515686,0.957148,-0.239287,0.050299,-11.010585,-2.854601,83.053253,,,,,,,,,,,,,,,,,,,,,,,,,,,,,,,,,,,,,,,,,,,,,,,,,,,,,,,,,,,,,,,,,,,,,,,,,,,,,,,,,,,,,,,,,,,,,,,,,,,,,,,,,,
1702629661,29,0,4291.153809,3997.179443,4318.717773,4345,4306.153809,4079.102539,4280.641113,4296.922852,4180.384766,4266.410156,4488.333496,4506.794922,4249.871582,4422.563965,0,4,85,,,,0,4,4,4,4,4,4,4,4,4,4,4,4,4,4,100,,,,,,,,,,,,,,,,,,,,,,,,,,,,,,,,,,,,,,,,,,,,,,,,,,,,,,,,,,,,,,,,,,,,,,,,,,,,,,,,,,,,,,,,,,,,,,,,,,,,,,,,,,,,,,,,,,,,,,,,,,,,,,,,,,,,,,
1702629661,30,0,4299.487305,4037.564209,4329.871582,4356.922852,4307.05127,4051.025635,4296.282227,4299.743652,4186.794922,4262.563965,4499.230957,4518.077148,4265.641113,4437.692383,0,4,85,,,,0,4,4,4,4,4,4,4,4,4,4,4,4,4,4,100,,,,,,,,,,,,,,,,,,,,,,,,,,,,,,,,,,,,,,,,,,,,,,,,,,,,,,,,,,,,,,,,,,,,,,,,,,,,,,,,,,,,,,,,,,,,,,,,,,,,,,,,,,,,,,,,,,,,,,,,,,,,,,,,,,,,,,
1702629661,31,0,4299.615234,4076.538574,4329.871582,4358.846191,4314.230957,4015.384521,4289.102539,4298.205078,4186.282227,4272.820313,4505.384766,4517.179688,4267.820313,4444.358887,0,4,85,,,,0,4,4,4,4,4,4,4,4,4,4,4,4,4,4,100,,,,,,,,,,,,,,,,,,,,,,,,,,,,,,,,,,,,,,,,,,,,,,,,,,,,,,,,,,,,,,,,,,,,,,,,,,,,,,,,,,,,,,,,,,,,,,,,,,,,,,,,,,,,,,,,,,,,,,,,,,,,,,,,,,,,,,
1702629661,32,0,4291.410156,4095,4315.256348,4345.128418,4304.358887,4003.718018,4275.641113,4291.922852,4185.128418,4279.743652,4493.333496,4503.461426,4256.794922,4427.820313,0,4,85,,,,0,4,4,4,4,4,4,4,4,4,4,4,4,4,4,100,,,,,,,,,,,,,,,,,8,0,0.512504,-0.590027,-0.351196,-0.515625,0.951288,-0.245147,0.043951,-10.94286,-2.869141,83.031258,,,,,,,,,,,,,,,,,,,,,,,,,,,,,,,,,,,,,,,,,,,,,,,,,,,,,,,,,,,,,,,,,,,,,,,,,,,,,,,,,,,,,,,,,,,,,,,,,,,,,,,,,,
1702629661,33,0,4294.743652,4122.820313,4313.974121,4347.563965,4295.769043,4008.589844,4280.128418,4294.358887,4186.794922,4268.077148,4490.384766,4502.179688,4266.282227,4424.358887,0,4,85,,,,0,4,4,4,4,4,4,4,4,4,4,4,4,4,4,100,,,,,,,,,,,,,,,,,,,,,,,,,,,,,,,,,,,,,,,,,,,,,,,,,,,,,,,,,,,,,,,,,2.509012,1.009542,0.471739,0.270971,0.340309,718.415222,94.018723,24.628723,5.945493,0.809998,2.082249,0.399702,0.551569,0.335381,0.340122,4.010028,0.647166,0.483142,0.165104,0.524607,10.869158,0.750509,0.803207,0.357385,0.523305,223.543716,19.471035,12.585113,6.680141,1.273499,0.614847,0.585016,0.281116,0.183103,0.335075,3.110797,0.831278,0.487948,0.254981,0.305506,3.43891,0.970984,0.418548,0.296349,0.44859,1.823525,0.785678,0.589323,0.212057,0.477298,7.955579,1.962654,1.601874,0.370473,0.520555,3.010731,1.236007,1.286765,0.402969,0.425163,3.229372,1.443859,1.306,0.464923,0.412813,2.216396,1.429402,1.103597,0.420953,0.409007
1702629661,34,0,4292.820313,4154.230957,4313.846191,4348.333496,4288.205078,3954.102539,4280.128418,4292.307617,4182.179688,4255.256348,4490.512695,4494.871582,4273.974121,4423.717773,0,4,85,,,,0,4,4,4,4,4,4,4,4,4,4,4,4,4,4,100,,,,,,,,,,,,,,,,,,,,,,,,,,,,,,,,,,,,,,,,,,,,,,,,,,,,,,,,,,,,,,,,,,,,,,,,,,,,,,,,,,,,,,,,,,,,,,,,,,,,,,,,,,,,,,,,,,,,,,,,,,,,,,,,,,,,,,
1702629661,35,0,4290.897461,4182.94873,4310.512695,4343.077148,4288.589844,3861.794922,4279.230957,4287.307617,4185.641113,4260.769043,4487.563965,4490.512695,4277.692383,4421.794922,0,4,85,,,,0,4,4,4,4,4,4,4,4,4,4,4,4,4,4,100,,,,,,,,,,,,,,,,,,,,,,,,,,,,,,,,,,,,,,,,,,,,,,,,,,,,,,,,,,,,,,,,,,,,,,,,,,,,,,,,,,,,,,,,,,,,,,,,,,,,,,,,,,,,,,,,,,,,,,,,,,,,,,,,,,,,,,
1702629661,36,0,4293.205078,4210.769043,4307.05127,4340.641113,4291.410156,3790.769287,4281.410156,4287.820313,4195.384766,4269.230957,4488.974121,4493.589844,4287.94873,4423.717773,0,4,85,,,,0,4,4,4,4,4,4,4,4,4,4,4,4,4,4,100,,,,,,,,,,,,,,,,,9,0,0.512865,-0.590149,-0.350464,-0.515625,0.95666,-0.229032,0.063973,-11.031907,-2.732227,83.161469,,,,,,,,,,,,,,,,,,,,,,,,,,,,,,,,,,,,,,,,,,,,,,,,,,,,,,,,,,,,,,,,,,,,,,,,,,,,,,,,,,,,,,,,,,,,,,,,,,,,,,,,,,
1702629661,37,0,4283.205078,4225.384766,4297.05127,4333.077148,4280.256348,3732.94873,4272.307617,4280.769043,4189.871582,4263.717773,4490.256348,4481.410156,4292.692383,4418.205078,0,4,85,,,,0,4,4,4,4,4,4,4,4,4,4,4,4,4,4,100,,,,,,,,,,,,,,,,,,,,,,,,,,,,,,,,,,,,,,,,,,,,,,,,,,,,,,,,,,,,,,,,,,,,,,,,,,,,,,,,,,,,,,,,,,,,,,,,,,,,,,,,,,,,,,,,,,,,,,,,,,,,,,,,,,,,,,
1702629661,38,0,4276.153809,4228.846191,4293.077148,4321.666504,4269.102539,3680.256348,4265.897461,4274.102539,4186.538574,4259.615234,4489.871582,4475,4292.692383,4412.820313,0,4,85,,,,0,4,4,4,4,4,4,4,4,4,4,4,4,4,4,100,,,,,,,,,,,,,,,,,,,,,,,,,,,,,,,,,,,,,,,,,,,,,,,,,,,,,,,,,,,,,,,,,,,,,,,,,,,,,,,,,,,,,,,,,,,,,,,,,,,,,,,,,,,,,,,,,,,,,,,,,,,,,,,,,,,,,,
1702629661,39,0,4285.256348,4241.666504,4302.436035,4323.717773,4274.230957,3650.641113,4277.179688,4282.820313,4197.436035,4266.025879,4495.897461,4490,4296.922852,4420,0,4,85,,,,0,4,4,4,4,4,4,4,4,4,4,4,4,4,4,100,,,,,,,,,,,,,,,,,,,,,,,,,,,,,,,,,,,,,,,,,,,,,,,,,,,,,,,,,,,,,,,,,,,,,,,,,,,,,,,,,,,,,,,,,,,,,,,,,,,,,,,,,,,,,,,,,,,,,,,,,,,,,,,,,,,,,,
1702629661,40,0,4288.333496,4257.307617,4302.179688,4330.769043,4283.077148,3629.230713,4279.102539,4287.820313,4195.256348,4262.05127,4496.538574,4491.922852,4298.846191,4418.205078,0,4,85,,,,0,4,4,4,4,4,4,4,4,4,4,4,4,4,4,100,,,,,,,,,,,,,,,,,10,0,0.513003,-0.590088,-0.349915,-0.51593,0.963008,-0.2471,0.068856,-11.045383,-2.675671,83.211983,,,,,,,,,,,,,,,,,,,,,,,,,,,,,,,,,,,,,,,,,,,,,,,,,,,,,,,,,,,,,,,,,,,,,,,,,,,,,,,,,,,,,,,,,,,,,,,,,,,,,,,,,,
1702629661,41,0,4274.743652,4250.256348,4287.94873,4322.94873,4277.05127,3584.102539,4264.743652,4277.94873,4181.410156,4245,4484.871582,4473.333496,4291.282227,4402.820313,0,4,85,,,,0,4,4,4,4,4,4,4,4,4,4,4,4,4,4,100,,,,,,,,,,,,,,,,,,,,,,,,,,,,,,,,,,,,,,,,,,,,,,,,,,,,,,,,,,,,,,,,,,,,,,,,,,,,,,,,,,,,,,,,,,,,,,,,,,,,,,,,,,,,,,,,,,,,,,,,,,,,,,,,,,,,,,
1702629661,42,0,4276.282227,4236.666504,4292.820313,4322.820313,4268.717773,3549.871826,4268.333496,4284.871582,4192.179688,4251.410156,4491.153809,4480,4291.922852,4407.436035,0,4,85,,,,0,4,4,4,4,4,4,4,4,4,4,4,4,4,4,100,,,,,,,,,,,,,,,,,,,,,,,,,,,,,,,,,,,,,,,,,,,,,,,,,,,,,,,,,,,,,,,,,,,,,,,,,,,,,,,,,,,,,,,,,,,,,,,,,,,,,,,,,,,,,,,,,,,,,,,,,,,,,,,,,,,,,,
1702629661,43,0,4291.794922,4239.358887,4307.05127,4338.077148,4274.615234,3557.05127,4283.077148,4299.615234,4209.102539,4267.179688,4509.358887,4502.820313,4299.487305,4421.922852,0,4,85,,,,0,4,4,4,4,4,4,4,4,4,4,4,4,4,4,100,,,,,,,,,,,,,,,,,,,,,,,,,,,,,,,,,,,,,,,,,,,,,,,,,,,,,,,,,,,,,,,,,,,,,,,,,,,,,,,,,,,,,,,,,,,,,,,,,,,,,,,,,,,,,,,,,,,,,,,,,,,,,,,,,,,,,,
1702629661,44,0,4290.128418,4238.717773,4300.897461,4344.487305,4283.974121,3575,4277.179688,4290.641113,4200.769043,4258.205078,4506.282227,4495.897461,4295.897461,4416.666504,0,4,85,,,,0,4,4,4,4,4,4,4,4,4,4,4,4,4,4,100,,,,,,,,,,,,,,,,,11,0,0.51302,-0.590149,-0.349426,-0.516174,0.941521,-0.23538,0.059089,-11.057511,-2.708104,83.290787,,,,,,,,,,,,,,,,,,,,,,,,,,,,,,,,,,,,,,,,,,,,,,,,,,,,,,,,,,,,,,,,,,,,,,,,,,,,,,,,,,,,,,,,,,,,,,,,,,,,,,,,,,
1702629661,45,0,4276.282227,4210.384766,4285.256348,4334.230957,4281.794922,3576.538574,4260.897461,4276.538574,4191.794922,4245.897461,4490.769043,4475.769043,4285.641113,4400.769043,0,4,85,,,,0,4,4,4,4,4,4,4,4,4,4,4,4,4,4,100,,,,,,,,,,,,,,,,,,,,,,,,,,,,,,,,,,,,,,,,,,,,,,,,,,,,,,,,,,,,,,,,,,,,,,,,,,,,,,,,,,,,,,,,,,,,,,,,,,,,,,,,,,,,,,,,,,,,,,,,,,,,,,,,,,,,,,
1702629661,46,0,4271.922852,4178.077148,4285.512695,4330.384766,4274.487305,3587.692383,4257.94873,4273.205078,4194.743652,4243.461426,4486.410156,4474.871582,4280,4397.820313,0,4,85,,,,0,4,4,4,4,4,4,4,4,4,4,4,4,4,4,100,,,,,,,,,,,,,,,,,,,,,,,,,,,,,,,,,,,,,,,,,,,,,,,,,,,,,,,,,,,,,,,,,,,,,,,,,,,,,,,,,,,,,,,,,,,,,,,,,,,,,,,,,,,,,,,,,,,,,,,,,,,,,,,,,,,,,,
1702629661,47,0,4282.563965,4170.769043,4300.512695,4346.282227,4279.743652,3632.94873,4272.94873,4279.487305,4201.025879,4246.410156,4497.436035,4490.641113,4290.256348,4410.897461,0,4,85,,,,0,4,4,4,4,4,4,4,4,4,4,4,4,4,4,100,,,,,,,,,,,,,,,,,,,,,,,,,,,,,,,,,,,,,,,,,,,,,,,,,,,,,,,,,,,,,,,,,,,,,,,,,,,,,,,,,,,,,,,,,,,,,,,,,,,,,,,,,,,,,,,,,,,,,,,,,,,,,,,,,,,,,,
1702629661,48,0,4291.025879,4173.974121,4309.358887,4354.358887,4293.205078,3662.564209,4281.282227,4289.102539,4212.820313,4258.461426,4509.871582,4501.922852,4308.077148,4422.436035,0,4,85,,,,0,4,4,4,4,4,4,4,4,4,4,4,4,4,4,100,,,,,,,,,,,,,,,,,12,0,0.513045,-0.590149,-0.348938,-0.516479,0.961055,-0.244659,0.058601,-11.00176,-2.670627,83.311707,,,,,,,,,,,,,,,,,,,,,,,,,,,,,,,,,,,,,,,,,,,,,,,,,,,,,,,,,,,,,,,,,,,,,,,,,,,,,,,,,,,,,,,,,,,,,,,,,,,,,,,,,,
1702629661,49,0,4292.820313,4169.102539,4308.846191,4348.974121,4294.487305,3652.564209,4269.358887,4290.128418,4216.922852,4263.717773,4510.897461,4502.820313,4313.205078,4424.230957,0,4,85,,,,0,4,4,4,4,4,4,4,4,4,4,4,4,4,4,100,,,,,,,,,,,,,,,,,,,,,,,,,,,,,,,,,,,,,,,,,,,,,,,,,,,,,,,,,,,,,,,,,1.75892,0.815929,0.579444,0.281151,0.366282,403.505188,49.93256,12.645212,3.129041,0.641573,1.724962,0.388429,0.600248,0.339447,0.370473,4.030455,0.396958,0.55413,0.188299,0.628874,6.700396,0.581382,0.76943,0.310352,0.567853,203.409409,15.181704,13.942392,6.559796,1.557566,0.609239,0.505181,0.323515,0.196194,0.365126,2.852467,0.631705,0.580599,0.284301,0.322574,3.494575,0.98213,0.447887,0.321389,0.465493,1.898813,0.800978,0.663268,0.213581,0.501306,7.488745,2.154896,1.850397,0.385529,0.573793,3.7777,1.11004,1.472576,0.432052,0.462796,3.877416,1.665676,1.625397,0.473345,0.454318,1.893876,1.325706,1.368347,0.455501,0.434199
1702629661,50,0,4298.974121,4166.794922,4309.871582,4353.077148,4288.589844,3660.512939,4267.692383,4289.871582,4213.589844,4261.538574,4508.077148,4511.153809,4319.102539,4432.307617,0,4,85,,,,0,4,4,4,4,4,4,4,4,4,4,4,4,4,4,100,,,,,,,,,,,,,,,,,,,,,,,,,,,,,,,,,,,,,,,,,,,,,,,,,,,,,,,,,,,,,,,,,,,,,,,,,,,,,,,,,,,,,,,,,,,,,,,,,,,,,,,,,,,,,,,,,,,,,,,,,,,,,,,,,,,,,,
1702629661,51,0,4304.230957,4173.846191,4315.897461,4363.461426,4294.743652,3703.076904,4282.436035,4302.05127,4224.615234,4272.692383,4511.410156,4527.05127,4337.307617,4445.769043,0,4,85,,,,0,4,4,4,4,4,4,4,4,4,4,4,4,4,4,100,,,,,,,,,,,,,,,,,,,,,,,,,,,,,,,,,,,,,,,,,,,,,,,,,,,,,,,,,,,,,,,,,,,,,,,,,,,,,,,,,,,,,,,,,,,,,,,,,,,,,,,,,,,,,,,,,,,,,,,,,,,,,,,,,,,,,,
1702629661,52,0,4296.794922,4168.717773,4309.102539,4356.538574,4298.846191,3727.307617,4273.974121,4301.153809,4227.563965,4273.461426,4498.974121,4518.846191,4337.436035,4436.282227,0,4,85,,,,0,4,4,4,4,4,4,4,4,4,4,4,4,4,4,100,,,,,,,,,,,,,,,,,13,0,0.513155,-0.589966,-0.348816,-0.516663,0.97424,-0.248565,0.069833,-10.918251,-2.770231,83.330536,,,,,,,,,,,,,,,,,,,,,,,,,,,,,,,,,,,,,,,,,,,,,,,,,,,,,,,,,,,,,,,,,,,,,,,,,,,,,,,,,,,,,,,,,,,,,,,,,,,,,,,,,,
1702629661,53,0,4291.538574,4142.05127,4296.922852,4348.589844,4291.025879,3743.974365,4261.666504,4287.436035,4218.205078,4258.461426,4483.974121,4501.794922,4329.743652,4419.871582,0,4,85,,,,0,4,4,4,4,4,4,4,4,4,4,4,4,4,4,100,,,,,,,,,,,,,,,,,,,,,,,,,,,,,,,,,,,,,,,,,,,,,,,,,,,,,,,,,,,,,,,,,,,,,,,,,,,,,,,,,,,,,,,,,,,,,,,,,,,,,,,,,,,,,,,,,,,,,,,,,,,,,,,,,,,,,,
1702629661,54,0,4302.563965,4113.205078,4307.436035,4361.666504,4289.871582,3792.05127,4278.717773,4298.589844,4233.589844,4268.589844,4497.94873,4515.641113,4343.077148,4427.820313,0,4,85,,,,0,4,4,4,4,4,4,4,4,4,4,4,4,4,4,100,,,,,,,,,,,,,,,,,,,,,,,,,,,,,,,,,,,,,,,,,,,,,,,,,,,,,,,,,,,,,,,,,,,,,,,,,,,,,,,,,,,,,,,,,,,,,,,,,,,,,,,,,,,,,,,,,,,,,,,,,,,,,,,,,,,,,,
1702629661,55,0,4302.692383,4087.564209,4316.538574,4366.538574,4304.102539,3836.025635,4284.487305,4308.846191,4250.128418,4280.512695,4502.563965,4525.641113,4344.102539,4430.256348,0,4,85,,,,0,4,4,4,4,4,4,4,4,4,4,4,4,4,4,100,,,,,,,,,,,,,,,,,,,,,,,,,,,,,,,,,,,,,,,,,,,,,,,,,,,,,,,,,,,,,,,,,,,,,,,,,,,,,,,,,,,,,,,,,,,,,,,,,,,,,,,,,,,,,,,,,,,,,,,,,,,,,,,,,,,,,,
1702629661,56,0,4289.230957,4051.794922,4296.794922,4350.512695,4307.436035,3860.256348,4262.179688,4285.384766,4231.794922,4261.410156,4478.461426,4502.05127,4325.128418,4408.205078,0,4,85,,,,0,4,4,4,4,4,4,4,4,4,4,4,4,4,4,100,,,,,,,,,,,,,,,,,14,0,0.513172,-0.589844,-0.348816,-0.516785,0.956171,-0.229032,0.072274,-10.993093,-2.543208,83.397484,,,,,,,,,,,,,,,,,,,,,,,,,,,,,,,,,,,,,,,,,,,,,,,,,,,,,,,,,,,,,,,,,,,,,,,,,,,,,,,,,,,,,,,,,,,,,,,,,,,,,,,,,,
1702629661,57,0,4294.871582,4022.692383,4289.230957,4350.128418,4300.384766,3926.281982,4261.538574,4273.077148,4223.717773,4255.256348,4479.102539,4497.692383,4335.512695,4408.077148,0,4,85,,,,0,4,4,4,4,4,4,4,4,4,4,4,4,4,4,100,,,,,,,,,,,,,,,,,,,,,,,,,,,,,,,,,,,,,,,,,,,,,,,,,,,,,,,,,,,,,,,,,,,,,,,,,,,,,,,,,,,,,,,,,,,,,,,,,,,,,,,,,,,,,,,,,,,,,,,,,,,,,,,,,,,,,,
1702629661,58,0,4305.641113,4014.487061,4306.538574,4365.641113,4305,4026.538574,4279.743652,4283.717773,4238.974121,4263.974121,4495.384766,4509.358887,4348.333496,4417.820313,0,4,85,,,,0,4,4,4,4,4,4,4,4,4,4,4,4,4,4,100,,,,,,,,,,,,,,,,,,,,,,,,,,,,,,,,,,,,,,,,,,,,,,,,,,,,,,,,,,,,,,,,,,,,,,,,,,,,,,,,,,,,,,,,,,,,,,,,,,,,,,,,,,,,,,,,,,,,,,,,,,,,,,,,,,,,,,
1702629661,59,0,4296.922852,4005.512939,4302.563965,4362.307617,4314.358887,4081.025635,4269.871582,4277.436035,4234.743652,4256.025879,4483.974121,4496.025879,4329.102539,4401.025879,0,4,85,,,,0,4,4,4,4,4,4,4,4,4,4,4,4,4,4,100,,,,,,,,,,,,,,,,,,,,,,,,,,,,,,,,,,,,,,,,,,,,,,,,,,,,,,,,,,,,,,,,,,,,,,,,,,,,,,,,,,,,,,,,,,,,,,,,,,,,,,,,,,,,,,,,,,,,,,,,,,,,,,,,,,,,,,
1702629661,60,0,4282.94873,3985.384521,4278.846191,4345.256348,4309.743652,4097.307617,4247.820313,4260.128418,4222.05127,4247.563965,4467.94873,4472.820313,4312.05127,4385.256348,0,4,85,,,,0,4,4,4,4,4,4,4,4,4,4,4,4,4,4,100,,,,,,,,,,,,,,,,,15,0,0.513638,-0.589905,-0.348389,-0.516541,0.968868,-0.230985,0.066903,-10.993783,-2.57222,83.441071,,,,,,,,,,,,,,,,,,,,,,,,,,,,,,,,,,,,,,,,,,,,,,,,,,,,,,,,,,,,,,,,,,,,,,,,,,,,,,,,,,,,,,,,,,,,,,,,,,,,,,,,,,
1702629661,61,0,4281.794922,3966.666748,4273.333496,4345.256348,4300.512695,4133.974121,4250.641113,4259.871582,4226.282227,4245,4473.205078,4468.846191,4315.769043,4388.846191,0,4,85,,,,0,4,4,4,4,4,4,4,4,4,4,4,4,4,4,100,,,,,,,,,,,,,,,,,,,,,,,,,,,,,,,,,,,,,,,,,,,,,,,,,,,,,,,,,,,,,,,,,,,,,,,,,,,,,,,,,,,,,,,,,,,,,,,,,,,,,,,,,,,,,,,,,,,,,,,,,,,,,,,,,,,,,,
1702629661,62,0,4296.282227,3967.05127,4291.410156,4368.077148,4315.641113,4180.897461,4268.077148,4276.794922,4246.794922,4250.769043,4496.410156,4490.384766,4333.333496,4404.102539,0,4,85,,,,0,4,4,4,4,4,4,4,4,4,4,4,4,4,4,100,,,,,,,,,,,,,,,,,,,,,,,,,,,,,,,,,,,,,,,,,,,,,,,,,,,,,,,,,,,,,,,,,,,,,,,,,,,,,,,,,,,,,,,,,,,,,,,,,,,,,,,,,,,,,,,,,,,,,,,,,,,,,,,,,,,,,,
1702629661,63,0,4305.256348,3971.538574,4302.307617,4380.256348,4330.641113,4184.230957,4268.333496,4284.615234,4256.282227,4266.153809,4508.589844,4504.487305,4336.538574,4413.974121,0,4,85,,,,0,4,4,4,4,4,4,4,4,4,4,4,4,4,4,100,,,,,,,,,,,,,,,,,,,,,,,,,,,,,,,,,,,,,,,,,,,,,,,,,,,,,,,,,,,,,,,,,,,,,,,,,,,,,,,,,,,,,,,,,,,,,,,,,,,,,,,,,,,,,,,,,,,,,,,,,,,,,,,,,,,,,,
