Timestamp,OriginalTimestamp,EEG.Counter,EEG.Interpolated,EEG.AF3,EEG.F7,EEG.F3,EEG.FC5,EEG.T7,EEG.P7,EEG.O1,EEG.O2,EEG.P8,EEG.T8,EEG.FC6,EEG.F4,EEG.F8,EEG.AF4,EEG.RawCq,EEG.Battery,EEG.BatteryPercent,MarkerIndex,MarkerType,MarkerValueInt,EEG.MarkerHardware,CQ.AF3,CQ.F7,CQ.F3,CQ.FC5,CQ.T7,CQ.P7,CQ.O1,CQ.O2,CQ.P8,CQ.T8,CQ.FC6,CQ.F4,CQ.F8,CQ.AF4,CQ.Overall,EQ.SampleRateQuality,EQ.OVERALL,EQ.AF3,EQ.F7,EQ.F3,EQ.FC5,EQ.T7,EQ.P7,EQ.O1,EQ.O2,EQ.P8,EQ.T8,EQ.FC6,EQ.F4,EQ.F8,EQ.AF4,MOT.CounterMems,MOT.InterpolatedMems,MOT.Q0,MOT.Q1,MOT.Q2,MOT.Q3,MOT.AccX,MOT.AccY,MOT.AccZ,MOT.MagX,MOT.MagY,MOT.MagZ,PM.Attention.IsActive,PM.Attention.Scaled,PM.Attention.Raw,PM.Attention.Min,PM.Attention.Max,PM.Engagement.IsActive,PM.Engagement.Scaled,PM.Engagement.Raw,PM.Engagement.Min,PM.Engagement.Max,PM.Excitement.IsActive,PM.Excitement.Scaled,PM.Excitement.Raw,PM.Excitement.Min,PM.Excitement.Max,PM.LongTermExcitement,PM.Stress.IsActive,PM.Stress.Scaled,PM.Stress.Raw,PM.Stress.Min,PM.Stress.Max,PM.Relaxation.IsActive,PM.Relaxation.Scaled,PM.Relaxation.Raw,PM.Relaxation.Min,PM.Relaxation.Max,PM.Interest.IsActive,PM.Interest.Scaled,PM.Interest.Raw,PM.Interest.Min,PM.Interest.Max,PM.Focus.IsActive,PM.Focus.Scaled,PM.Focus.Raw,PM.Focus.Min,PM.Focus.Max,POW.AF3.Theta,POW.AF3.Alpha,POW.AF3.BetaL,POW.AF3.BetaH,POW.AF3.Gamma,POW.F7.Theta,POW.F7.Alpha,POW.F7.BetaL,POW.F7.BetaH,POW.F7.Gamma,POW.F3.Theta,POW.F3.Alpha,POW.F3.BetaL,POW.F3.BetaH,POW.F3.Gamma,POW.FC5.Theta,POW.FC5.Alpha,POW.FC5.BetaL,POW.FC5.BetaH,POW.FC5.Gamma,POW.T7.Theta,POW.T7.Alpha,POW.T7.BetaL,POW.T7.BetaH,POW.T7.Gamma,POW.P7.Theta,POW.P7.Alpha,POW.P7.BetaL,POW.P7.BetaH,POW.P7.Gamma,POW.O1.Theta,POW.O1.Alpha,POW.O1.BetaL,POW.O1.BetaH,POW.O1.Gamma,POW.O2.Theta,POW.O2.Alpha,POW.O2.BetaL,POW.O2.BetaH,POW.O2.Gamma,POW.P8.Theta,POW.P8.Alpha,POW.P8.BetaL,POW.P8.BetaH,POW.P8.Gamma,POW.T8.Theta,POW.T8.Alpha,POW.T8.BetaL,POW.T8.BetaH,POW.T8.Gamma,POW.FC6.Theta,POW.FC6.Alpha,POW.FC6.BetaL,POW.FC6.BetaH,POW.FC6.Gamma,POW.F4.Theta,POW.F4.Alpha,POW.F4.BetaL,POW.F4.BetaH,POW.F4.Gamma,POW.F8.Theta,POW.F8.Alpha,POW.F8.BetaL,POW.F8.BetaH,POW.F8.Gamma,POW.AF4.Theta,POW.AF4.Alpha,POW.AF4.BetaL,POW.AF4.BetaH,POW.AF4.Gamma
,,,,,,,,,,,,,,,,,,,,,,,,,,,,,,,,,,,,,,,,,,,,,,,,,,,,,,,,,,,,,,,,,,,,,,,,,,,,,,,,,,,,,,,,,,,,,,,,,,,,,,,,,,,,,,,,,,,,,,,,,,,,,,,,,,,,,,,,,,,,,,,,,,,,,,,,,,,,,,,,,,,,,,,,,,,,,
1702361822,1702361822,120,0,4315.256348,4311.153809,4275.256348,4306.153809,4300.128418,4294.102539,4283.846191,4293.974121,4280.897461,4272.05127,4444.230957,4478.589844,4127.94873,4492.94873,6476,3,55,,,,0,4,4,4,4,4,4,4,4,4,4,4,4,4,4,100,,,,,,,,,,,,,,,,,30,0,0.673605,-0.164551,-0.699951,0.171021,0.893175,-0.421926,-0.083995,-24.054853,-17.265999,94.893829,,,,,,,,,,,,,,,,,,,,,,,,,,,,,,,,,,,,,,,,,,,,,,,,,,,,,,,,,,,,,,,,,,,,,,,,,,,,,,,,,,,,,,,,,,,,,,,,,,,,,,,,,,
1702361822,1702361822,121,0,4312.05127,4307.94873,4276.153809,4307.436035,4301.666504,4293.846191,4285.897461,4293.589844,4279.615234,4282.563965,4446.153809,4479.615234,4128.077148,4488.461426,6681,3,55,,,,0,4,4,4,4,4,4,4,4,4,4,4,4,4,4,100,,,,,,,,,,,,,,,,,,,,,,,,,,,,,,,,,,,,,,,,,,,,,,,,,,,,,,,,,,,,,,,,,,,,,,,,,,,,,,,,,,,,,,,,,,,,,,,,,,,,,,,,,,,,,,,,,,,,,,,,,,,,,,,,,,,,,,
1702361823,1702361823,122,0,4310.769043,4305,4270.641113,4307.692383,4304.871582,4293.077148,4286.794922,4293.846191,4278.846191,4277.563965,4437.436035,4476.410156,4118.846191,4477.563965,6060,3,55,,,,0,4,4,4,4,4,4,4,4,4,4,4,4,4,4,100,,,,,,,,,,,,,,,,,,,,,,,,,,,,,,,,,,,,,,,,,,,,,,,,,,,,,,,,,,,,,,,,,,,,,,,,,,,,,,,,,,,,,,,,,,,,,,,,,,,,,,,,,,,,,,,,,,,,,,,,,,,,,,,,,,,,,,
1702361823,1702361823,123,0,4307.436035,4289.102539,4268.333496,4299.615234,4298.333496,4293.077148,4282.820313,4289.743652,4277.05127,4264.358887,4427.563965,4472.94873,4102.436035,4470,6115,3,55,,,,0,4,4,4,4,4,4,4,4,4,4,4,4,4,4,100,,,,,,,,,,,,,,,,,,,,,,,,,,,,,,,,,,,,,,,,,,,,,,,,,,,,,,,,,,,,,,,,,,,,,,,,,,,,,,,,,,,,,,,,,,,,,,,,,,,,,,,,,,,,,,,,,,,,,,,,,,,,,,,,,,,,,,
1702361823,1702361823,124,0,4303.333496,4280.897461,4274.358887,4299.102539,4281.538574,4291.922852,4279.743652,4286.025879,4273.461426,4263.461426,4423.589844,4471.794922,4087.94873,4473.077148,6476,3,55,,,,0,4,4,4,4,4,4,4,4,4,4,4,4,4,4,100,,,,,,,,,,,,,,,,,31,0,0.673543,-0.164551,-0.699951,0.171265,0.891222,-0.435112,-0.075204,-24.066034,-17.1394,94.754448,,,,,,,,,,,,,,,,,,,,,,,,,,,,,,,,,,,,,,,,,,,,,,,,,,,,,,,,,,,,,,,,,,,,,,,,,,,,,,,,,,,,,,,,,,,,,,,,,,,,,,,,,,
1702361823,1702361823,125,0,4313.717773,4295.512695,4279.743652,4314.230957,4286.153809,4288.846191,4280.769043,4288.461426,4273.589844,4263.205078,4435.128418,4480.384766,4107.820313,4488.974121,6681,3,55,,,,0,4,4,4,4,4,4,4,4,4,4,4,4,4,4,100,,,,,,,,,,,,,,,,,,,,,,,,,,,,,,,,,,,,,,,,,,,,,,,,,,,,,,,,,,,,,,,,,,,,,,,,,,,,,,,,,,,,,,,,,,,,,,,,,,,,,,,,,,,,,,,,,,,,,,,,,,,,,,,,,,,,,,
1702361823,1702361823,126,0,4329.102539,4298.846191,4280.256348,4321.922852,4307.94873,4290,4283.589844,4293.846191,4278.974121,4277.179688,4462.307617,4496.794922,4155.128418,4506.538574,6060,3,55,,,,0,4,4,4,4,4,4,4,4,4,4,4,4,4,4,100,,,,,,,,,,,,,,,,,,,,,,,,,,,,,,,,,,,,,,,,,,,,,,,,,,,,,,,,,,,,,,,,,,,,,,,,,,,,,,,,,,,,,,,,,,,,,,,,,,,,,,,,,,,,,,,,,,,,,,,,,,,,,,,,,,,,,,
1702361823,1702361823,127,0,4323.846191,4277.436035,4284.358887,4316.794922,4303.461426,4293.589844,4290.128418,4297.05127,4285.384766,4298.717773,4486.794922,4509.102539,4202.820313,4516.282227,55,3,55,,,,0,4,4,4,4,4,4,4,4,4,4,4,4,4,4,100,,,,,,,,,,,,,,,,,,,,,,,,,,,,,,,,,,,,,,,,,,,,,,,,,,,,,,,,,,,,,,,,,,,,,,,,,,,,,,,,,,,,,,,,,,,,,,,,,,,,,,,,,,,,,,,,,,,,,,,,,,,,,,,,,,,,,,
1702361823,1702361823,0,0,4313.333496,4270.128418,4291.025879,4318.974121,4289.615234,4293.974121,4293.846191,4297.05127,4286.153809,4291.922852,4496.794922,4510,4247.307617,4522.692383,5405,3,55,,,,0,4,4,4,4,4,4,4,4,4,4,4,4,4,4,100,,,,,,,,,,,,,,,,,0,0,0.673563,-0.164795,-0.699829,0.171448,0.88878,-0.427787,-0.070809,-24.042765,-17.12546,94.729004,,,,,,,,,,,,,,,,,,,,,,,,,,,,,,,,,,,,,,,,,,,,,,,,,,,,,,,,,,,,,,,,,,,,,,,,,,,,,,,,,,,,,,,,,,,,,,,,,,,,,,,,,,
1702361823,1702361823,1,0,4317.436035,4278.077148,4284.358887,4320.769043,4302.563965,4293.461426,4289.102539,4293.205078,4277.05127,4271.410156,4488.333496,4500.897461,4272.563965,4518.717773,5527,3,55,,,,0,4,4,4,4,4,4,4,4,4,4,4,4,4,4,100,,,,,,,,,,,,,,,,,,,,,,,,,,,,,,,,,,,,,,,,,,,,,,,,,,,,,,,,,,,,,,,,,,,,,,,,,,,,,,,,,,,,,,,,,,,,,,,,,,,,,,,,,,,,,,,,,,,,,,,,,,,,,,,,,,,,,,
1702361823,1702361823,2,0,4314.615234,4265.897461,4266.922852,4310.769043,4306.153809,4294.743652,4286.538574,4290.769043,4269.487305,4268.846191,4473.205078,4488.461426,4267.436035,4500.512695,5412,3,55,,,,0,4,4,4,4,4,4,4,4,4,4,4,4,4,4,100,,,,,,,,,,,,,,,,,,,,,,,,,,,,,,,,,,,,,,,,,,,,,,,,,,,,,,,,,,,,,,,,,,,,,,,,,,,,,,,,,,,,,,,,,,,,,,,,,,,,,,,,,,,,,,,,,,,,,,,,,,,,,,,,,,,,,,
1702361823,1702361823,3,0,4306.538574,4259.230957,4266.922852,4309.358887,4291.153809,4293.846191,4290.128418,4293.589844,4276.922852,4286.666504,4475.512695,4484.615234,4266.153809,4494.743652,5477,3,55,,,,0,4,4,4,4,4,4,4,4,4,4,4,4,4,4,100,,,,,,,,,,,,,,,,,,,,,,,,,,,,,,,,,,,,,,,,,,,,,,,,,,,,,,,,,,,,,,,,,,,,,,,,,,,,,,,,,,,,,,,,,,,,,,,,,,,,,,,,,,,,,,,,,,,,,,,,,,,,,,,,,,,,,,
1702361823,1702361823,4,0,4313.333496,4276.538574,4283.974121,4322.05127,4295.641113,4297.05127,4295.641113,4297.563965,4288.205078,4297.436035,4493.974121,4492.179688,4281.538574,4506.794922,5374,3,55,,,,0,4,4,4,4,4,4,4,4,4,4,4,4,4,4,100,,,,,,,,,,,,,,,,,1,0,0.673392,-0.165039,-0.699951,0.171387,0.886827,-0.427787,-0.080576,-24.02182,-17.22958,94.7061,,,,,,,,,,,,,,,,,,,,,,,,,,,,,,,,,,,,,,,,,,,,,,,,,,,,,,,,,,,,,,,,,,,,,,,,,,,,,,,,,,,,,,,,,,,,,,,,,,,,,,,,,,
1702361823,1702361823,5,0,4316.025879,4278.589844,4284.871582,4326.410156,4308.974121,4301.410156,4297.307617,4297.05127,4285,4286.153809,4493.846191,4491.282227,4270.769043,4508.846191,5449,3,55,,,,0,4,4,4,4,4,4,4,4,4,4,4,4,4,4,100,,,,,,,,,,,,,,,,,,,,,,,,,,,,,,,,,,,,,,,,,,,,,,,,,,,,,,,,,,,,,,,,,,,,,,,,,,,,,,,,,,,,,,,,,,,,,,,,,,,,,,,,,,,,,,,,,,,,,,,,,,,,,,,,,,,,,,
1702361823,1702361823,6,0,4306.538574,4267.179688,4271.282227,4320.769043,4305,4300.384766,4292.563965,4293.461426,4277.94873,4278.461426,4474.871582,4482.05127,4229.615234,4500.256348,5382,3,55,,,,0,4,4,4,4,4,4,4,4,4,4,4,4,4,4,100,,,,,,,,,,,,,,,,,,,,,,,,,,,,,,,,,,,,,,,,,,,,,,,,,,,,,,,,,,,,,,,,,,,,,,,,,,,,,,,,,,,,,,,,,,,,,,,,,,,,,,,,,,,,,,,,,,,,,,,,,,,,,,,,,,,,,,
1702361823,1702361823,7,0,4311.410156,4279.102539,4275.897461,4329.487305,4290.897461,4297.307617,4289.871582,4294.230957,4287.692383,4299.487305,4478.077148,4490.256348,4215.256348,4504.487305,3672,3,55,,,,0,4,4,4,4,4,4,4,4,4,4,4,4,4,4,100,,,,,,,,,,,,,,,,,,,,,,,,,,,,,,,,,,,,,,,,,,,,,,,,,,,,,,,,,,,,,,,,,2.499957,1.903954,1.692564,0.434607,0.371648,5.747719,2.421578,1.194982,0.443025,0.424395,2.255085,1.922336,1.854403,0.429636,0.253948,7.109824,1.807013,1.290935,0.389536,0.347487,0.580253,0.830628,1.225621,0.590855,0.633403,0.194229,0.127567,0.095309,0.05472,0.135968,0.659183,0.466954,0.647484,0.163436,0.156506,0.314679,0.212424,0.444243,0.10631,0.120062,0.740332,0.335705,0.629755,0.135843,0.195606,1.93964,0.984725,1.074929,0.25978,0.539307,6.122514,2.1693,1.642718,0.692882,0.28838,2.627846,1.985184,2.339113,0.422914,0.311946,127.281876,91.469086,53.610538,9.696393,1.250491,2.804929,1.85311,2.214703,0.512652,0.301967
1702361823,1702361823,8,0,4327.820313,4297.307617,4294.743652,4347.692383,4291.922852,4294.102539,4291.922852,4298.974121,4300.128418,4312.307617,4495.384766,4508.717773,4235.641113,4521.538574,4676,3,55,,,,0,4,4,4,4,4,4,4,4,4,4,4,4,4,4,100,,,,,,,,,,,,,,,,,2,0,0.673237,-0.165222,-0.700012,0.17157,0.877549,-0.419485,-0.0796,-24.069639,-17.306622,94.718826,,,,,,,,,,,,,,,,,,,,,,,,,,,,,,,,,,,,,,,,,,,,,,,,,,,,,,,,,,,,,,,,,,,,,,,,,,,,,,,,,,,,,,,,,,,,,,,,,,,,,,,,,,
1702361823,1702361823,9,0,4328.974121,4289.743652,4299.358887,4344.230957,4310.256348,4296.153809,4293.461426,4302.563965,4293.717773,4296.538574,4493.077148,4510,4249.871582,4524.358887,5500,3,55,,,,0,4,4,4,4,4,4,4,4,4,4,4,4,4,4,100,,,,,,,,,,,,,,,,,,,,,,,,,,,,,,,,,,,,,,,,,,,,,,,,,,,,,,,,,,,,,,,,,,,,,,,,,,,,,,,,,,,,,,,,,,,,,,,,,,,,,,,,,,,,,,,,,,,,,,,,,,,,,,,,,,,,,,
1702361823,1702361823,10,0,4324.743652,4275.128418,4292.05127,4329.102539,4317.94873,4302.563965,4294.102539,4306.025879,4286.794922,4292.692383,4493.846191,4505.128418,4272.563965,4520.641113,6043,3,55,,,,0,4,4,4,4,4,4,4,4,4,4,4,4,4,4,100,,,,,,,,,,,,,,,,,,,,,,,,,,,,,,,,,,,,,,,,,,,,,,,,,,,,,,,,,,,,,,,,,,,,,,,,,,,,,,,,,,,,,,,,,,,,,,,,,,,,,,,,,,,,,,,,,,,,,,,,,,,,,,,,,,,,,,
1702361823,1702361823,11,0,4329.743652,4278.077148,4292.563965,4331.538574,4304.358887,4306.025879,4296.922852,4311.410156,4295.641113,4308.077148,4509.487305,4511.922852,4316.922852,4523.077148,6112,3,55,,,,0,4,4,4,4,4,4,4,4,4,4,4,4,4,4,100,,,,,,,,,,,,,,,,,,,,,,,,,,,,,,,,,,,,,,,,,,,,,,,,,,,,,,,,,,,,,,,,,,,,,,,,,,,,,,,,,,,,,,,,,,,,,,,,,,,,,,,,,,,,,,,,,,,,,,,,,,,,,,,,,,,,,,
1702361823,1702361823,12,0,4327.820313,4287.179688,4294.615234,4339.871582,4301.666504,4304.230957,4299.230957,4308.846191,4297.179688,4304.358887,4506.282227,4512.179688,4338.077148,4517.820313,6476,3,55,,,,0,4,4,4,4,4,4,4,4,4,4,4,4,4,4,100,,,,,,,,,,,,,,,,,3,0,0.673286,-0.165283,-0.699951,0.17157,0.88878,-0.42388,-0.096203,-24.229342,-17.309294,94.663612,,,,,,,,,,,,,,,,,,,,,,,,,,,,,,,,,,,,,,,,,,,,,,,,,,,,,,,,,,,,,,,,,,,,,,,,,,,,,,,,,,,,,,,,,,,,,,,,,,,,,,,,,,
1702361823,1702361823,13,0,4315.641113,4284.230957,4286.538574,4332.05127,4314.487305,4300.897461,4297.436035,4297.179688,4284.871582,4280.897461,4490.769043,4500.128418,4331.794922,4506.153809,6681,3,55,,,,0,4,4,4,4,4,4,4,4,4,4,4,4,4,4,100,,,,,,,,,,,,,,,,,,,,,,,,,,,,,,,,,,,,,,,,,,,,,,,,,,,,,,,,,,,,,,,,,,,,,,,,,,,,,,,,,,,,,,,,,,,,,,,,,,,,,,,,,,,,,,,,,,,,,,,,,,,,,,,,,,,,,,
1702361823,1702361823,14,0,4307.05127,4275,4273.589844,4323.589844,4301.538574,4300.641113,4293.974121,4294.871582,4285.128418,4278.717773,4489.615234,4490.641113,4326.538574,4498.974121,6043,3,55,,,,0,4,4,4,4,4,4,4,4,4,4,4,4,4,4,100,,,,,,,,,,,,,,,,,,,,,,,,,,,,,,,,,,,,,,,,,,,,,,,,,,,,,,,,,,,,,,,,,,,,,,,,,,,,,,,,,,,,,,,,,,,,,,,,,,,,,,,,,,,,,,,,,,,,,,,,,,,,,,,,,,,,,,
1702361823,1702361823,15,0,4304.615234,4267.820313,4265.897461,4325.384766,4275.641113,4301.025879,4289.743652,4302.179688,4296.153809,4295.897461,4485.769043,4486.025879,4308.333496,4493.974121,6112,3,55,,,,0,4,4,4,4,4,4,4,4,4,4,4,4,4,4,100,,,,,,,,,,,,,,,,,,,,,,,,,,,,,,,,,,,,,,,,,,,,,,,,,,,,,,,,,,,,,,,,,,,,,,,,,,,,,,,,,,,,,,,,,,,,,,,,,,,,,,,,,,,,,,,,,,,,,,,,,,,,,,,,,,,,,,
1702361823,1702361823,16,0,4305.384766,4263.589844,4266.666504,4324.102539,4275.897461,4299.230957,4284.230957,4305.641113,4295.769043,4294.102539,4475.897461,4487.436035,4277.820313,4489.871582,0,3,55,,,,0,4,4,4,4,4,4,4,4,4,4,4,4,4,4,100,,,,,,,,,,,,,,,,,4,0,0.673352,-0.165466,-0.699829,0.171631,0.891222,-0.437553,-0.073739,-24.306408,-17.378365,94.630585,,,,,,,,,,,,,,,,,,,,,,,,,,,,,,,,,,,,,,,,,,,,,,,,,,,,,,,,,,,,,,,,,,,,,,,,,,,,,,,,,,,,,,,,,,,,,,,,,,,,,,,,,,
1702361823,1702361823,17,0,4311.025879,4269.358887,4273.205078,4322.820313,4296.282227,4296.538574,4281.153809,4303.077148,4290.641113,4288.205078,4479.743652,4492.436035,4261.538574,4494.487305,0,3,55,,,,0,4,4,4,4,4,4,4,4,4,4,4,4,4,4,100,,,,,,,,,,,,,,,,,,,,,,,,,,,,,,,,,,,,,,,,,,,,,,,,,,,,,,,,,,,,,,,,,,,,,,,,,,,,,,,,,,,,,,,,,,,,,,,,,,,,,,,,,,,,,,,,,,,,,,,,,,,,,,,,,,,,,,
1702361823,1702361823,18,0,4317.94873,4281.794922,4282.05127,4331.922852,4299.487305,4299.102539,4286.538574,4298.589844,4293.461426,4302.692383,4489.487305,4495.256348,4256.153809,4502.307617,0,3,55,,,,0,4,4,4,4,4,4,4,4,4,4,4,4,4,4,100,,,,,,,,,,,,,,,,,,,,,,,,,,,,,,,,,,,,,,,,,,,,,,,,,,,,,,,,,,,,,,,,,,,,,,,,,,,,,,,,,,,,,,,,,,,,,,,,,,,,,,,,,,,,,,,,,,,,,,,,,,,,,,,,,,,,,,
1702361823,1702361823,19,0,4321.025879,4283.589844,4288.974121,4337.692383,4282.05127,4299.358887,4289.102539,4297.94873,4294.615234,4303.077148,4489.615234,4499.743652,4262.563965,4505.641113,0,3,55,,,,0,4,4,4,4,4,4,4,4,4,4,4,4,4,4,100,,,,,,,,,,,,,,,,,,,,,,,,,,,,,,,,,,,,,,,,,,,,,,,,,,,,,,,,,,,,,,,,,,,,,,,,,,,,,,,,,,,,,,,,,,,,,,,,,,,,,,,,,,,,,,,,,,,,,,,,,,,,,,,,,,,,,,
1702361823,1702361823,20,0,4324.615234,4277.820313,4294.102539,4333.333496,4281.794922,4294.358887,4281.282227,4304.615234,4293.846191,4282.563965,4491.410156,4509.358887,4292.436035,4508.717773,0,3,55,,,,0,4,4,4,4,4,4,4,4,4,4,4,4,4,4,100,,,,,,,,,,,,,,,,,5,0,0.673421,-0.165833,-0.699646,0.171753,0.879014,-0.430228,-0.074228,-24.2591,-17.340528,94.700859,,,,,,,,,,,,,,,,,,,,,,,,,,,,,,,,,,,,,,,,,,,,,,,,,,,,,,,,,,,,,,,,,,,,,,,,,,,,,,,,,,,,,,,,,,,,,,,,,,,,,,,,,,
1702361823,1702361823,21,0,4323.974121,4281.538574,4294.230957,4335.384766,4297.436035,4295.256348,4283.589844,4309.743652,4295.897461,4287.05127,4503.205078,4512.436035,4323.974121,4512.436035,0,3,55,,,,0,4,4,4,4,4,4,4,4,4,4,4,4,4,4,100,,,,,,,,,,,,,,,,,,,,,,,,,,,,,,,,,,,,,,,,,,,,,,,,,,,,,,,,,,,,,,,,,,,,,,,,,,,,,,,,,,,,,,,,,,,,,,,,,,,,,,,,,,,,,,,,,,,,,,,,,,,,,,,,,,,,,,
1702361823,1702361823,22,0,4313.205078,4285.384766,4284.871582,4340.384766,4300.384766,4297.563965,4288.717773,4302.94873,4288.974121,4297.820313,4503.077148,4496.794922,4337.436035,4505.256348,0,3,55,,,,0,4,4,4,4,4,4,4,4,4,4,4,4,4,4,100,,,,,,,,,,,,,,,,,,,,,,,,,,,,,,,,,,,,,,,,,,,,,,,,,,,,,,,,,,,,,,,,,,,,,,,,,,,,,,,,,,,,,,,,,,,,,,,,,,,,,,,,,,,,,,,,,,,,,,,,,,,,,,,,,,,,,,
1702361823,1702361823,23,0,4309.358887,4279.615234,4273.333496,4334.615234,4287.179688,4293.974121,4281.025879,4293.974121,4277.563965,4283.717773,4490.384766,4479.102539,4357.563965,4493.846191,0,3,55,,,,0,4,4,4,4,4,4,4,4,4,4,4,4,4,4,100,,,,,,,,,,,,,,,,,,,,,,,,,,,,,,,,,,,,,,,,,,,,,,,,,,,,,,,,,,,,,,,,,2.519098,2.091684,1.761777,0.475502,0.376247,6.344433,2.612147,1.46756,0.473895,0.391793,2.37458,2.188734,1.791421,0.471162,0.27491,8.113009,1.849307,1.376074,0.399032,0.357501,0.610162,0.920621,1.115092,0.549072,0.604784,0.192675,0.100339,0.083414,0.055485,0.124472,0.7175,0.536491,0.584467,0.165733,0.157551,0.301366,0.232615,0.408433,0.121537,0.132114,0.709162,0.357907,0.447542,0.131431,0.200727,2.169703,1.229094,0.895728,0.2649,0.565001,6.322685,2.364675,1.430823,0.754638,0.285077,2.404136,2.274068,2.095574,0.422318,0.326947,165.625717,116.398964,75.512352,11.836441,1.374439,2.588812,2.073126,1.890722,0.584819,0.299153
1702361823,1702361823,24,0,4310.128418,4275.769043,4266.922852,4327.05127,4276.794922,4293.205078,4280.769043,4293.077148,4278.589844,4279.230957,4491.025879,4478.205078,4387.563965,4489.487305,0,3,55,,,,0,4,4,4,4,4,4,4,4,4,4,4,4,4,4,100,,,,,,,,,,,,,,,,,6,0,0.673488,-0.166077,-0.699524,0.171753,0.886339,-0.424368,-0.082041,-24.199856,-17.323141,94.514107,,,,,,,,,,,,,,,,,,,,,,,,,,,,,,,,,,,,,,,,,,,,,,,,,,,,,,,,,,,,,,,,,,,,,,,,,,,,,,,,,,,,,,,,,,,,,,,,,,,,,,,,,,
1702361823,1702361823,25,0,4298.846191,4276.025879,4264.358887,4325.384766,4277.563965,4296.282227,4289.102539,4295.384766,4281.922852,4284.358887,4492.179688,4476.153809,4391.794922,4481.538574,0,3,55,,,,0,4,4,4,4,4,4,4,4,4,4,4,4,4,4,100,,,,,,,,,,,,,,,,,,,,,,,,,,,,,,,,,,,,,,,,,,,,,,,,,,,,,,,,,,,,,,,,,,,,,,,,,,,,,,,,,,,,,,,,,,,,,,,,,,,,,,,,,,,,,,,,,,,,,,,,,,,,,,,,,,,,,,
1702361823,1702361823,26,0,4288.077148,4272.820313,4261.153809,4323.461426,4281.282227,4294.230957,4283.205078,4293.717773,4276.794922,4273.846191,4476.922852,4463.461426,4374.102539,4470.128418,0,3,55,,,,0,4,4,4,4,4,4,4,4,4,4,4,4,4,4,100,,,,,,,,,,,,,,,,,,,,,,,,,,,,,,,,,,,,,,,,,,,,,,,,,,,,,,,,,,,,,,,,,,,,,,,,,,,,,,,,,,,,,,,,,,,,,,,,,,,,,,,,,,,,,,,,,,,,,,,,,,,,,,,,,,,,,,
1702361823,1702361823,27,0,4293.717773,4273.589844,4262.307617,4325.384766,4279.743652,4292.692383,4275.897461,4291.922852,4280.384766,4281.666504,4476.538574,4464.615234,4372.692383,4471.410156,0,3,55,,,,0,4,4,4,4,4,4,4,4,4,4,4,4,4,4,100,,,,,,,,,,,,,,,,,,,,,,,,,,,,,,,,,,,,,,,,,,,,,,,,,,,,,,,,,,,,,,,,,,,,,,,,,,,,,,,,,,,,,,,,,,,,,,,,,,,,,,,,,,,,,,,,,,,,,,,,,,,,,,,,,,,,,,
1702361823,1702361823,28,0,4297.307617,4280.641113,4266.153809,4331.538574,4275,4294.871582,4280,4298.461426,4293.461426,4299.871582,4494.487305,4479.102539,4386.666504,4481.666504,0,3,55,,,,0,4,4,4,4,4,4,4,4,4,4,4,4,4,4,100,,,,,,,,,,,,,,,,,7,0,0.673477,-0.166565,-0.699463,0.17157,0.887315,-0.419485,-0.077646,-24.163204,-17.324162,94.562698,,,,,,,,,,,,,,,,,,,,,,,,,,,,,,,,,,,,,,,,,,,,,,,,,,,,,,,,,,,,,,,,,,,,,,,,,,,,,,,,,,,,,,,,,,,,,,,,,,,,,,,,,,
1702361823,1702361823,29,0,4295.128418,4280.897461,4265.897461,4328.589844,4278.589844,4290.897461,4277.436035,4302.94873,4292.179688,4287.307617,4498.333496,4481.538574,4394.615234,4487.179688,0,3,55,,,,0,4,4,4,4,4,4,4,4,4,4,4,4,4,4,100,,,,,,,,,,,,,,,,,,,,,,,,,,,,,,,,,,,,,,,,,,,,,,,,,,,,,,,,,,,,,,,,,,,,,,,,,,,,,,,,,,,,,,,,,,,,,,,,,,,,,,,,,,,,,,,,,,,,,,,,,,,,,,,,,,,,,,
1702361823,1702361823,30,0,4302.05127,4276.538574,4264.358887,4324.102539,4282.436035,4288.205078,4273.077148,4298.333496,4281.410156,4272.94873,4492.05127,4478.846191,4400.641113,4486.025879,0,3,55,,,,0,4,4,4,4,4,4,4,4,4,4,4,4,4,4,100,,,,,,,,,,,,,,,,,,,,,,,,,,,,,,,,,,,,,,,,,,,,,,,,,,,,,,,,,,,,,,,,,,,,,,,,,,,,,,,,,,,,,,,,,,,,,,,,,,,,,,,,,,,,,,,,,,,,,,,,,,,,,,,,,,,,,,
1702361823,1702361823,31,0,4306.025879,4276.282227,4261.666504,4329.230957,4278.461426,4293.717773,4276.282227,4293.461426,4278.461426,4276.025879,4492.563965,4485.128418,4408.846191,4481.025879,0,3,55,,,,0,4,4,4,4,4,4,4,4,4,4,4,4,4,4,100,,,,,,,,,,,,,,,,,,,,,,,,,,,,,,,,,,,,,,,,,,,,,,,,,,,,,,,,,,,,,,,,,,,,,,,,,,,,,,,,,,,,,,,,,,,,,,,,,,,,,,,,,,,,,,,,,,,,,,,,,,,,,,,,,,,,,,
1702361823,1702361823,32,0,4303.333496,4280.769043,4263.461426,4334.487305,4277.820313,4294.615234,4276.538574,4296.025879,4280.128418,4279.487305,4499.487305,4491.025879,4416.794922,4482.436035,0,3,55,,,,0,4,4,4,4,4,4,4,4,4,4,4,4,4,4,100,,,,,,,,,,,,,,,,,8,0,0.673481,-0.16687,-0.699402,0.171509,0.88878,-0.421926,-0.07667,-24.213551,-17.375078,94.556427,,,,,,,,,,,,,,,,,,,,,,,,,,,,,,,,,,,,,,,,,,,,,,,,,,,,,,,,,,,,,,,,,,,,,,,,,,,,,,,,,,,,,,,,,,,,,,,,,,,,,,,,,,
1702361823,1702361823,33,0,4312.179688,4291.666504,4275.128418,4342.692383,4290.384766,4292.436035,4283.077148,4299.358887,4281.538574,4288.974121,4509.487305,4493.717773,4429.358887,4491.410156,0,3,55,,,,0,4,4,4,4,4,4,4,4,4,4,4,4,4,4,100,,,,,,,,,,,,,,,,,,,,,,,,,,,,,,,,,,,,,,,,,,,,,,,,,,,,,,,,,,,,,,,,,,,,,,,,,,,,,,,,,,,,,,,,,,,,,,,,,,,,,,,,,,,,,,,,,,,,,,,,,,,,,,,,,,,,,,
1702361823,1702361823,34,0,4319.102539,4296.666504,4286.025879,4351.922852,4294.871582,4294.615234,4292.05127,4296.538574,4281.666504,4292.94873,4513.461426,4495.128418,4437.307617,4488.589844,0,3,55,,,,0,4,4,4,4,4,4,4,4,4,4,4,4,4,4,100,,,,,,,,,,,,,,,,,,,,,,,,,,,,,,,,,,,,,,,,,,,,,,,,,,,,,,,,,,,,,,,,,,,,,,,,,,,,,,,,,,,,,,,,,,,,,,,,,,,,,,,,,,,,,,,,,,,,,,,,,,,,,,,,,,,,,,
1702361823,1702361823,35,0,4310.897461,4292.179688,4283.461426,4346.794922,4278.333496,4295.512695,4287.692383,4292.94873,4277.820313,4277.05127,4505,4493.974121,4433.333496,4476.922852,0,3,55,,,,0,4,4,4,4,4,4,4,4,4,4,4,4,4,4,100,,,,,,,,,,,,,,,,,,,,,,,,,,,,,,,,,,,,,,,,,,,,,,,,,,,,,,,,,,,,,,,,,,,,,,,,,,,,,,,,,,,,,,,,,,,,,,,,,,,,,,,,,,,,,,,,,,,,,,,,,,,,,,,,,,,,,,
1702361823,1702361823,36,0,4305.256348,4291.282227,4271.282227,4327.94873,4276.794922,4295.128418,4280.384766,4294.358887,4272.436035,4263.717773,4489.102539,4483.974121,4428.974121,4468.717773,0,3,55,,,,0,4,4,4,4,4,4,4,4,4,4,4,4,4,4,100,,,,,,,,,,,,,,,,,9,0,0.673529,-0.166931,-0.699341,0.171509,0.888292,-0.427787,-0.078135,-24.358862,-17.454237,94.517448,,,,,,,,,,,,,,,,,,,,,,,,,,,,,,,,,,,,,,,,,,,,,,,,,,,,,,,,,,,,,,,,,,,,,,,,,,,,,,,,,,,,,,,,,,,,,,,,,,,,,,,,,,
1702361823,1702361823,37,0,4303.846191,4289.487305,4262.436035,4307.820313,4292.307617,4295.128418,4279.487305,4295.512695,4269.615234,4262.563965,4477.05127,4465.384766,4426.410156,4459.230957,0,3,55,,,,0,4,4,4,4,4,4,4,4,4,4,4,4,4,4,100,,,,,,,,,,,,,,,,,,,,,,,,,,,,,,,,,,,,,,,,,,,,,,,,,,,,,,,,,,,,,,,,,,,,,,,,,,,,,,,,,,,,,,,,,,,,,,,,,,,,,,,,,,,,,,,,,,,,,,,,,,,,,,,,,,,,,,
1702361823,1702361823,38,0,4293.077148,4282.05127,4259.615234,4291.922852,4288.846191,4292.307617,4275.897461,4289.871582,4265.128418,4259.358887,4472.94873,4455.256348,4414.102539,4446.410156,0,3,55,,,,0,4,4,4,4,4,4,4,4,4,4,4,4,4,4,100,,,,,,,,,,,,,,,,,,,,,,,,,,,,,,,,,,,,,,,,,,,,,,,,,,,,,,,,,,,,,,,,,,,,,,,,,,,,,,,,,,,,,,,,,,,,,,,,,,,,,,,,,,,,,,,,,,,,,,,,,,,,,,,,,,,,,,
1702361823,1702361823,39,0,4285.641113,4277.820313,4260.128418,4283.717773,4276.538574,4291.666504,4272.563965,4288.461426,4264.615234,4255.512695,4471.794922,4461.025879,4407.94873,4446.922852,0,3,55,,,,0,4,4,4,4,4,4,4,4,4,4,4,4,4,4,100,,,,,,,,,,,,,,,,,,,,,,,,,,,,,,,,,,,,,,,,,,,,,,,,,,,,,,,,,,,,,,,,,2.4941,2.161266,1.843195,0.539064,0.382452,6.713158,2.715724,1.777405,0.523356,0.359495,2.430238,2.316014,1.724493,0.496565,0.294251,8.98017,1.868769,1.516711,0.39949,0.355925,0.604889,0.982438,1.022883,0.540111,0.570625,0.209729,0.080728,0.078055,0.05926,0.112637,0.735772,0.643371,0.526776,0.171889,0.158406,0.29987,0.264053,0.348516,0.141764,0.136689,0.682462,0.379497,0.300399,0.146178,0.202719,2.294846,1.422494,0.764734,0.281582,0.614495,6.298409,2.427946,1.188715,0.831519,0.274159,2.254109,2.445056,1.87416,0.429553,0.340239,202.684708,131.982849,95.231697,13.251784,1.410907,2.284851,2.197764,1.657732,0.682549,0.302465
1702361823,1702361823,40,0,4290.769043,4277.563965,4263.077148,4282.820313,4281.410156,4293.205078,4277.179688,4293.717773,4273.589844,4259.358887,4476.282227,4472.179688,4427.563965,4458.589844,0,3,55,,,,0,4,4,4,4,4,4,4,4,4,4,4,4,4,4,100,,,,,,,,,,,,,,,,,10,0,0.673626,-0.167114,-0.699219,0.171448,0.889269,-0.422903,-0.073739,-24.456308,-17.42548,94.582375,,,,,,,,,,,,,,,,,,,,,,,,,,,,,,,,,,,,,,,,,,,,,,,,,,,,,,,,,,,,,,,,,,,,,,,,,,,,,,,,,,,,,,,,,,,,,,,,,,,,,,,,,,
1702361823,1702361823,41,0,4296.794922,4282.820313,4267.436035,4282.307617,4287.436035,4292.307617,4273.717773,4296.025879,4275.256348,4266.922852,4489.743652,4478.205078,4457.820313,4460.512695,0,3,55,,,,0,4,4,4,4,4,4,4,4,4,4,4,4,4,4,100,,,,,,,,,,,,,,,,,,,,,,,,,,,,,,,,,,,,,,,,,,,,,,,,,,,,,,,,,,,,,,,,,,,,,,,,,,,,,,,,,,,,,,,,,,,,,,,,,,,,,,,,,,,,,,,,,,,,,,,,,,,,,,,,,,,,,,
1702361823,1702361823,42,0,4294.871582,4286.794922,4266.282227,4279.615234,4278.333496,4290.769043,4266.538574,4290,4266.282227,4266.153809,4488.974121,4472.05127,4466.922852,4451.153809,0,3,55,,,,0,4,4,4,4,4,4,4,4,4,4,4,4,4,4,100,,,,,,,,,,,,,,,,,,,,,,,,,,,,,,,,,,,,,,,,,,,,,,,,,,,,,,,,,,,,,,,,,,,,,,,,,,,,,,,,,,,,,,,,,,,,,,,,,,,,,,,,,,,,,,,,,,,,,,,,,,,,,,,,,,,,,,
1702361823,1702361823,43,0,4293.333496,4282.692383,4262.820313,4277.94873,4277.179688,4291.538574,4271.794922,4282.307617,4260.897461,4256.410156,4471.410156,4464.358887,4457.436035,4441.794922,0,3,55,,,,0,4,4,4,4,4,4,4,4,4,4,4,4,4,4,100,,,,,,,,,,,,,,,,,,,,,,,,,,,,,,,,,,,,,,,,,,,,,,,,,,,,,,,,,,,,,,,,,,,,,,,,,,,,,,,,,,,,,,,,,,,,,,,,,,,,,,,,,,,,,,,,,,,,,,,,,,,,,,,,,,,,,,
1702361823,1702361823,44,0,4304.102539,4288.333496,4271.153809,4286.153809,4291.410156,4292.563965,4280.256348,4285.769043,4264.871582,4255.128418,4476.794922,4476.282227,4466.794922,4448.717773,0,3,55,,,,0,4,4,4,4,4,4,4,4,4,4,4,4,4,4,100,,,,,,,,,,,,,,,,,11,0,0.673751,-0.167114,-0.699158,0.171204,0.886339,-0.428275,-0.084971,-24.377344,-17.482931,94.674133,,,,,,,,,,,,,,,,,,,,,,,,,,,,,,,,,,,,,,,,,,,,,,,,,,,,,,,,,,,,,,,,,,,,,,,,,,,,,,,,,,,,,,,,,,,,,,,,,,,,,,,,,,
1702361823,1702361823,45,0,4310.384766,4297.820313,4283.205078,4294.871582,4289.358887,4296.282227,4286.153809,4295.512695,4269.871582,4265,4501.025879,4496.410156,4478.333496,4465.128418,0,3,55,,,,0,4,4,4,4,4,4,4,4,4,4,4,4,4,4,100,,,,,,,,,,,,,,,,,,,,,,,,,,,,,,,,,,,,,,,,,,,,,,,,,,,,,,,,,,,,,,,,,,,,,,,,,,,,,,,,,,,,,,,,,,,,,,,,,,,,,,,,,,,,,,,,,,,,,,,,,,,,,,,,,,,,,,
1702361823,1702361823,46,0,4298.589844,4284.102539,4280,4281.666504,4270.641113,4297.436035,4287.563965,4294.487305,4267.692383,4268.974121,4500.384766,4494.871582,4452.05127,4462.179688,0,3,55,,,,0,4,4,4,4,4,4,4,4,4,4,4,4,4,4,100,,,,,,,,,,,,,,,,,,,,,,,,,,,,,,,,,,,,,,,,,,,,,,,,,,,,,,,,,,,,,,,,,,,,,,,,,,,,,,,,,,,,,,,,,,,,,,,,,,,,,,,,,,,,,,,,,,,,,,,,,,,,,,,,,,,,,,
1702361823,1702361823,47,0,4289.871582,4269.871582,4267.307617,4261.666504,4279.102539,4287.05127,4279.743652,4288.461426,4262.820313,4261.282227,4485.769043,4478.846191,4411.538574,4445.384766,0,3,55,,,,0,4,4,4,4,4,4,4,4,4,4,4,4,4,4,100,,,,,,,,,,,,,,,,,,,,,,,,,,,,,,,,,,,,,,,,,,,,,,,,,,,,,,,,,,,,,,,,,,,,,,,,,,,,,,,,,,,,,,,,,,,,,,,,,,,,,,,,,,,,,,,,,,,,,,,,,,,,,,,,,,,,,,
1702361823,1702361823,48,0,4293.333496,4281.025879,4266.153809,4263.717773,4297.179688,4282.94873,4273.974121,4293.077148,4267.692383,4257.563965,4492.692383,4476.538574,4405.641113,4442.436035,0,3,55,,,,0,4,4,4,4,4,4,4,4,4,4,4,4,4,4,100,,,,,,,,,,,,,,,,,12,0,0.673813,-0.167053,-0.699158,0.171021,0.89171,-0.427298,-0.08546,-24.372944,-17.517973,94.706718,,,,,,,,,,,,,,,,,,,,,,,,,,,,,,,,,,,,,,,,,,,,,,,,,,,,,,,,,,,,,,,,,,,,,,,,,,,,,,,,,,,,,,,,,,,,,,,,,,,,,,,,,,
1702361823,1702361823,49,0,4296.666504,4287.05127,4273.461426,4274.487305,4277.563965,4291.025879,4277.563965,4298.717773,4278.461426,4267.563965,4506.666504,4483.717773,4433.077148,4447.94873,0,3,55,,,,0,4,4,4,4,4,4,4,4,4,4,4,4,4,4,100,,,,,,,,,,,,,,,,,,,,,,,,,,,,,,,,,,,,,,,,,,,,,,,,,,,,,,,,,,,,,,,,,,,,,,,,,,,,,,,,,,,,,,,,,,,,,,,,,,,,,,,,,,,,,,,,,,,,,,,,,,,,,,,,,,,,,,
1702361823,1702361823,50,0,4298.974121,4282.05127,4277.179688,4276.153809,4271.025879,4294.358887,4278.461426,4297.692383,4280.256348,4278.846191,4513.589844,4490,4471.794922,4445.256348,0,3,55,,,,0,4,4,4,4,4,4,4,4,4,4,4,4,4,4,100,,,,,,,,,,,,,,,,,,,,,,,,,,,,,,,,,,,,,,,,,,,,,,,,,,,,,,,,,,,,,,,,,,,,,,,,,,,,,,,,,,,,,,,,,,,,,,,,,,,,,,,,,,,,,,,,,,,,,,,,,,,,,,,,,,,,,,
1702361823,1702361823,51,0,4302.436035,4286.025879,4280.769043,4275.769043,4300.512695,4290.641113,4274.102539,4297.179688,4278.077148,4278.589844,4522.307617,4496.666504,4507.94873,4441.666504,0,3,55,,,,0,4,4,4,4,4,4,4,4,4,4,4,4,4,4,100,,,,,,,,,,,,,,,,,,,,,,,,,,,,,,,,,,,,,,,,,,,,,,,,,,,,,,,,,,,,,,,,,,,,,,,,,,,,,,,,,,,,,,,,,,,,,,,,,,,,,,,,,,,,,,,,,,,,,,,,,,,,,,,,,,,,,,
1702361823,1702361823,52,0,4298.333496,4292.820313,4283.333496,4276.922852,4306.410156,4291.410156,4274.743652,4296.666504,4280.384766,4275.384766,4522.436035,4500.769043,4526.025879,4444.358887,0,3,55,,,,0,4,4,4,4,4,4,4,4,4,4,4,4,4,4,100,,,,,,,,,,,,,,,,,13,0,0.673892,-0.167053,-0.699097,0.170959,0.892199,-0.420461,-0.076181,-24.168983,-17.532841,94.66938,,,,,,,,,,,,,,,,,,,,,,,,,,,,,,,,,,,,,,,,,,,,,,,,,,,,,,,,,,,,,,,,,,,,,,,,,,,,,,,,,,,,,,,,,,,,,,,,,,,,,,,,,,
1702361823,1702361823,53,0,4294.487305,4292.563965,4282.179688,4273.077148,4286.794922,4294.615234,4276.153809,4296.282227,4281.025879,4274.102539,4511.025879,4498.077148,4524.871582,4442.436035,0,3,55,,,,0,4,4,4,4,4,4,4,4,4,4,4,4,4,4,100,,,,,,,,,,,,,,,,,,,,,,,,,,,,,,,,,,,,,,,,,,,,,,,,,,,,,,,,,,,,,,,,,,,,,,,,,,,,,,,,,,,,,,,,,,,,,,,,,,,,,,,,,,,,,,,,,,,,,,,,,,,,,,,,,,,,,,
1702361823,1702361823,54,0,4292.307617,4288.461426,4279.743652,4268.333496,4276.538574,4292.307617,4277.179688,4296.794922,4277.05127,4266.794922,4504.615234,4491.922852,4509.358887,4432.563965,0,3,55,,,,0,4,4,4,4,4,4,4,4,4,4,4,4,4,4,100,,,,,,,,,,,,,,,,,,,,,,,,,,,,,,,,,,,,,,,,,,,,,,,,,,,,,,,,,,,,,,,,,,,,,,,,,,,,,,,,,,,,,,,,,,,,,,,,,,,,,,,,,,,,,,,,,,,,,,,,,,,,,,,,,,,,,,
1702361823,1702361823,55,0,4286.410156,4280,4274.615234,4264.230957,4276.666504,4289.743652,4278.461426,4296.922852,4276.922852,4263.717773,4509.102539,4490.384766,4495.256348,4427.307617,0,3,55,,,,0,4,4,4,4,4,4,4,4,4,4,4,4,4,4,100,1,75,4,4,4,4,4,4,4,4,4,4,4,4,1,4,,,,,,,,,,,,,,,,,,,,,,,,,,,,,,,,,,,,,,,,,,,,,,,,,2.321357,2.135442,1.914309,0.602006,0.38896,6.797646,2.722882,2.037585,0.574986,0.341852,2.33474,2.310686,1.666705,0.498094,0.308957,9.749016,1.878763,1.658695,0.388439,0.344828,0.556006,1.025292,0.953821,0.564171,0.54641,0.225761,0.073638,0.079764,0.064578,0.103613,0.707455,0.768306,0.471135,0.179651,0.159347,0.303626,0.305845,0.287171,0.16255,0.1334,0.654812,0.404604,0.213966,0.171185,0.204679,2.260415,1.490565,0.695913,0.307943,0.674725,6.112823,2.38595,0.995449,0.913923,0.263538,2.056314,2.503925,1.735754,0.439924,0.349026,230.555588,134.595749,108.57634,13.602719,1.372574,1.877874,2.244783,1.575058,0.781624,0.311132
1702361823,1702361823,56,0,4280,4269.487305,4267.179688,4255.256348,4278.589844,4286.666504,4276.025879,4294.871582,4277.94873,4267.692383,4511.025879,4488.077148,4487.05127,4425.256348,0,3,55,,,,0,4,4,4,4,4,4,4,4,4,4,4,4,4,4,100,,,,,,,,,,,,,,,,,14,0,0.673922,-0.166992,-0.699097,0.170898,0.882432,-0.421926,-0.084483,-24.218752,-17.646223,94.819107,,,,,,,,,,,,,,,,,,,,,,,,,,,,,,,,,,,,,,,,,,,,,,,,,,,,,,,,,,,,,,,,,,,,,,,,,,,,,,,,,,,,,,,,,,,,,,,,,,,,,,,,,,
1702361823,1702361823,57,0,4277.94873,4268.589844,4263.333496,4248.974121,4281.922852,4288.974121,4275.256348,4292.179688,4270.256348,4264.743652,4502.820313,4478.974121,4482.820313,4416.666504,0,3,55,,,,0,4,4,4,4,4,4,4,4,4,4,4,4,4,4,100,,,,,,,,,,,,,,,,,,,,,,,,,,,,,,,,,,,,,,,,,,,,,,,,,,,,,,,,,,,,,,,,,,,,,,,,,,,,,,,,,,,,,,,,,,,,,,,,,,,,,,,,,,,,,,,,,,,,,,,,,,,,,,,,,,,,,,
1702361823,1702361823,58,0,4279.102539,4272.436035,4262.820313,4249.102539,4280.641113,4293.077148,4277.820313,4291.025879,4264.871582,4261.538574,4495.512695,4472.94873,4501.025879,4410.641113,0,3,55,,,,0,4,4,4,4,4,4,4,4,4,4,4,4,4,4,100,,,,,,,,,,,,,,,,,,,,,,,,,,,,,,,,,,,,,,,,,,,,,,,,,,,,,,,,,,,,,,,,,,,,,,,,,,,,,,,,,,,,,,,,,,,,,,,,,,,,,,,,,,,,,,,,,,,,,,,,,,,,,,,,,,,,,,
1702361823,1702361823,59,0,4278.589844,4274.487305,4266.666504,4248.205078,4286.666504,4286.666504,4276.794922,4293.333496,4270.769043,4267.179688,4502.692383,4477.692383,4540.256348,4412.307617,0,3,55,,,,0,4,4,4,4,4,4,4,4,4,4,4,4,4,4,100,,,,,,,,,,,,,,,,,,,,,,,,,,,,,,,,,,,,,,,,,,,,,,,,,,,,,,,,,,,,,,,,,,,,,,,,,,,,,,,,,,,,,,,,,,,,,,,,,,,,,,,,,,,,,,,,,,,,,,,,,,,,,,,,,,,,,,
1702361823,1702361823,60,0,4284.743652,4276.922852,4277.563965,4254.358887,4294.487305,4284.102539,4279.102539,4299.743652,4282.563965,4281.025879,4517.94873,4489.615234,4572.179688,4417.820313,0,3,55,,,,0,4,4,4,4,4,4,4,4,4,4,4,4,4,4,100,,,,,,,,,,,,,,,,,15,0,0.673922,-0.166992,-0.699097,0.170898,0.879014,-0.430228,-0.071298,-24.013542,-17.781601,94.870529,,,,,,,,,,,,,,,,,,,,,,,,,,,,,,,,,,,,,,,,,,,,,,,,,,,,,,,,,,,,,,,,,,,,,,,,,,,,,,,,,,,,,,,,,,,,,,,,,,,,,,,,,,
1702361823,1702361823,61,0,4293.717773,4278.461426,4287.05127,4266.794922,4281.282227,4292.307617,4285.256348,4308.205078,4292.820313,4286.794922,4524.871582,4496.410156,4588.205078,4423.077148,0,3,55,,,,0,4,4,4,4,4,4,4,4,4,4,4,4,4,4,100,,,,,,,,,,,,,,,,,,,,,,,,,,,,,,,,,,,,,,,,,,,,,,,,,,,,,,,,,,,,,,,,,,,,,,,,,,,,,,,,,,,,,,,,,,,,,,,,,,,,,,,,,,,,,,,,,,,,,,,,,,,,,,,,,,,,,,
1702361823,1702361823,62,0,4292.820313,4278.077148,4290.256348,4266.025879,4275,4296.410156,4288.846191,4311.153809,4293.717773,4272.692383,4524.871582,4495.769043,4591.794922,4421.922852,0,3,55,,,,0,4,4,4,4,4,4,4,4,4,4,4,4,4,4,100,,,,,,,,,,,,,,,,,,,,,,,,,,,,,,,,,,,,,,,,,,,,,,,,,,,,,,,,,,,,,,,,,,,,,,,,,,,,,,,,,,,,,,,,,,,,,,,,,,,,,,,,,,,,,,,,,,,,,,,,,,,,,,,,,,,,,,
1702361823,1702361823,63,0,4290.128418,4279.615234,4294.487305,4260,4292.820313,4293.205078,4289.358887,4307.94873,4284.743652,4264.487305,4521.666504,4497.563965,4577.94873,4418.974121,0,3,55,,,,0,4,4,4,4,4,4,4,4,4,4,4,4,4,4,100,,,,,,,,,,,,,,,,,,,,,,,,,,,,,,,,,,,,,,,,,,,,,,,,,,,,,,,,,,,,,,,,,,,,,,,,,,,,,,,,,,,,,,,,,,,,,,,,,,,,,,,,,,,,,,,,,,,,,,,,,,,,,,,,,,,,,,
1702361823,1702361823,64,0,4293.589844,4287.94873,4300.641113,4267.307617,4296.794922,4294.230957,4291.410156,4306.538574,4279.487305,4275.256348,4517.563965,4502.94873,4560.769043,4423.205078,5405,3,55,,,,0,4,4,4,4,4,4,4,4,4,4,4,4,4,4,100,,,,,,,,,,,,,,,,,16,0,0.674019,-0.167236,-0.698975,0.170776,0.88292,-0.443413,-0.074228,-24.045523,-17.586775,94.833481,,,,,,,,,,,,,,,,,,,,,,,,,,,,,,,,,,,,,,,,,,,,,,,,,,,,,,,,,,,,,,,,,,,,,,,,,,,,,,,,,,,,,,,,,,,,,,,,,,,,,,,,,,
1702361823,1702361823,65,0,4303.589844,4295.512695,4306.922852,4275.128418,4291.410156,4298.461426,4292.820313,4304.871582,4281.410156,4279.102539,4520.769043,4507.692383,4546.153809,4433.589844,5527,3,55,,,,0,4,4,4,4,4,4,4,4,4,4,4,4,4,4,100,,,,,,,,,,,,,,,,,,,,,,,,,,,,,,,,,,,,,,,,,,,,,,,,,,,,,,,,,,,,,,,,,,,,,,,,,,,,,,,,,,,,,,,,,,,,,,,,,,,,,,,,,,,,,,,,,,,,,,,,,,,,,,,,,,,,,,
1702361823,1702361823,66,0,4312.179688,4298.717773,4311.282227,4275.512695,4305,4297.820313,4294.358887,4298.846191,4280.128418,4270,4521.153809,4511.025879,4520.256348,4439.743652,5414,3,55,,,,0,4,4,4,4,4,4,4,4,4,4,4,4,4,4,100,,,,,,,,,,,,,,,,,,,,,,,,,,,,,,,,,,,,,,,,,,,,,,,,,,,,,,,,,,,,,,,,,,,,,,,,,,,,,,,,,,,,,,,,,,,,,,,,,,,,,,,,,,,,,,,,,,,,,,,,,,,,,,,,,,,,,,
1702361823,1702361823,67,0,4313.717773,4297.692383,4308.846191,4272.179688,4309.743652,4295.256348,4292.307617,4293.333496,4277.05127,4272.94873,4510.384766,4505.128418,4504.358887,4434.615234,5474,3,55,,,,0,4,4,4,4,4,4,4,4,4,4,4,4,4,4,100,,,,,,,,,,,,,,,,,,,,,,,,,,,,,,,,,,,,,,,,,,,,,,,,,,,,,,,,,,,,,,,,,,,,,,,,,,,,,,,,,,,,,,,,,,,,,,,,,,,,,,,,,,,,,,,,,,,,,,,,,,,,,,,,,,,,,,
1702361823,1702361823,68,0,4309.615234,4297.307617,4306.794922,4265.256348,4293.974121,4294.487305,4286.666504,4292.307617,4275.641113,4279.743652,4506.410156,4496.282227,4527.307617,4427.05127,5377,3,55,,,,0,4,4,4,4,4,4,4,4,4,4,4,4,4,4,100,,,,,,,,,,,,,,,,,17,0,0.67418,-0.167542,-0.698792,0.170593,0.886339,-0.429252,-0.087901,-23.924303,-17.511431,94.75013,,,,,,,,,,,,,,,,,,,,,,,,,,,,,,,,,,,,,,,,,,,,,,,,,,,,,,,,,,,,,,,,,,,,,,,,,,,,,,,,,,,,,,,,,,,,,,,,,,,,,,,,,,
1702361823,1702361823,69,0,4309.743652,4296.282227,4311.025879,4261.282227,4296.666504,4295.769043,4285.384766,4293.589844,4276.410156,4269.230957,4518.461426,4500,4565.256348,4428.717773,5449,3,55,,,,0,4,4,4,4,4,4,4,4,4,4,4,4,4,4,100,,,,,,,,,,,,,,,,,,,,,,,,,,,,,,,,,,,,,,,,,,,,,,,,,,,,,,,,,,,,,,,,,,,,,,,,,,,,,,,,,,,,,,,,,,,,,,,,,,,,,,,,,,,,,,,,,,,,,,,,,,,,,,,,,,,,,,
1702361823,1702361823,70,0,4313.077148,4294.102539,4311.282227,4263.846191,4311.282227,4295.384766,4284.358887,4297.179688,4279.487305,4265.256348,4525.512695,4507.436035,4584.230957,4429.230957,5377,3,55,,,,0,4,4,4,4,4,4,4,4,4,4,4,4,4,4,100,,,,,,,,,,,,,,,,,,,,,,,,,,,,,,,,,,,,,,,,,,,,,,,,,,,,,,,,,,,,,,,,,,,,,,,,,,,,,,,,,,,,,,,,,,,,,,,,,,,,,,,,,,,,,,,,,,,,,,,,,,,,,,,,,,,,,,
1702361823,1702361823,71,0,4311.538574,4295.897461,4305.256348,4263.846191,4301.282227,4296.153809,4280.512695,4301.794922,4284.615234,4278.205078,4524.358887,4506.410156,4598.205078,4426.666504,3672,3,55,,,,0,4,4,4,4,4,4,4,4,4,4,4,4,4,4,100,,,,,,,,,,,,,,,,,,,,,,,,,,,,,,,,,,,,,,,,,,,,,,,,,,,,,,,,,,,,,,,,,2.006391,2.083355,1.929692,0.635368,0.389309,6.720121,2.640033,2.151568,0.608993,0.343888,2.074404,2.24723,1.614285,0.481309,0.315765,10.142551,1.943555,1.743083,0.371131,0.327002,0.486457,1.061898,0.911123,0.607487,0.548894,0.243227,0.078399,0.085894,0.069643,0.097996,0.648039,0.88056,0.412415,0.186369,0.160136,0.306672,0.348305,0.246181,0.179017,0.124834,0.620134,0.432649,0.188957,0.198574,0.209454,2.035465,1.413161,0.685583,0.350205,0.731097,5.791884,2.313649,0.931571,0.994849,0.261616,1.75713,2.535333,1.694922,0.448956,0.35051,240.778214,124.307144,112.668373,12.841692,1.28773,1.427594,2.285875,1.621324,0.856775,0.318796
1702361823,1702361823,72,0,4304.230957,4297.05127,4305.256348,4261.410156,4290.641113,4298.205078,4282.820313,4303.589844,4289.487305,4285.256348,4527.05127,4506.153809,4609.487305,4426.025879,4676,3,55,,,,0,4,4,4,4,4,4,4,4,4,4,4,4,4,4,100,,,,,,,,,,,,,,,,,18,0,0.674259,-0.167725,-0.69873,0.170349,0.881455,-0.427298,-0.086925,-23.865206,-17.393621,94.558449,,,,,,,,,,,,,,,,,,,,,,,,,,,,,,,,,,,,,,,,,,,,,,,,,,,,,,,,,,,,,,,,,,,,,,,,,,,,,,,,,,,,,,,,,,,,,,,,,,,,,,,,,,
1702361823,1702361823,73,0,4297.820313,4294.615234,4307.94873,4262.307617,4302.94873,4296.538574,4288.461426,4304.358887,4291.666504,4278.333496,4525.897461,4506.538574,4597.436035,4419.230957,5497,3,55,,,,0,4,4,4,4,4,4,4,4,4,4,4,4,4,4,100,,,,,,,,,,,,,,,,,,,,,,,,,,,,,,,,,,,,,,,,,,,,,,,,,,,,,,,,,,,,,,,,,,,,,,,,,,,,,,,,,,,,,,,,,,,,,,,,,,,,,,,,,,,,,,,,,,,,,,,,,,,,,,,,,,,,,,
1702361823,1702361823,74,0,4302.05127,4298.205078,4306.666504,4264.615234,4314.358887,4299.358887,4289.487305,4308.333496,4292.820313,4278.461426,4522.307617,4505.384766,4576.922852,4418.589844,5998,3,55,,,,0,4,4,4,4,4,4,4,4,4,4,4,4,4,4,100,,,,,,,,,,,,,,,,,,,,,,,,,,,,,,,,,,,,,,,,,,,,,,,,,,,,,,,,,,,,,,,,,,,,,,,,,,,,,,,,,,,,,,,,,,,,,,,,,,,,,,,,,,,,,,,,,,,,,,,,,,,,,,,,,,,,,,
1702361823,1702361823,75,0,4315.512695,4308.205078,4310,4269.615234,4310.256348,4303.717773,4289.743652,4311.410156,4296.666504,4287.179688,4522.05127,4505.128418,4560.384766,4427.179688,6110,3,55,,,,0,4,4,4,4,4,4,4,4,4,4,4,4,4,4,100,,,,,,,,,,,,,,,,,,,,,,,,,,,,,,,,,,,,,,,,,,,,,,,,,,,,,,,,,,,,,,,,,,,,,,,,,,,,,,,,,,,,,,,,,,,,,,,,,,,,,,,,,,,,,,,,,,,,,,,,,,,,,,,,,,,,,,
1702361823,1702361823,76,0,4309.487305,4294.487305,4309.487305,4268.333496,4302.436035,4300.641113,4293.333496,4305.512695,4293.974121,4278.717773,4506.922852,4497.179688,4528.333496,4415.641113,6469,3,55,,,,0,4,4,4,4,4,4,4,4,4,4,4,4,4,4,100,,,,,,,,,,,,,,,,,19,0,0.674353,-0.167725,-0.698669,0.170227,0.89464,-0.416066,-0.088878,-23.745352,-17.387592,94.552605,,,,,,,,,,,,,,,,,,,,,,,,,,,,,,,,,,,,,,,,,,,,,,,,,,,,,,,,,,,,,,,,,,,,,,,,,,,,,,,,,,,,,,,,,,,,,,,,,,,,,,,,,,
1702361823,1702361823,77,0,4285.128418,4273.717773,4298.974121,4258.717773,4304.102539,4301.666504,4295.641113,4298.717773,4283.589844,4265.256348,4488.717773,4485,4507.179688,4394.743652,6671,3,55,,,,0,4,4,4,4,4,4,4,4,4,4,4,4,4,4,100,,,,,,,,,,,,,,,,,,,,,,,,,,,,,,,,,,,,,,,,,,,,,,,,,,,,,,,,,,,,,,,,,,,,,,,,,,,,,,,,,,,,,,,,,,,,,,,,,,,,,,,,,,,,,,,,,,,,,,,,,,,,,,,,,,,,,,
1702361823,1702361823,78,0,4283.589844,4290.769043,4296.794922,4261.153809,4304.487305,4306.153809,4294.615234,4295.512695,4278.717773,4272.563965,4493.461426,4478.974121,4534.487305,4397.820313,5998,3,55,,,,0,4,4,4,4,4,4,4,4,4,4,4,4,4,4,100,,,,,,,,,,,,,,,,,,,,,,,,,,,,,,,,,,,,,,,,,,,,,,,,,,,,,,,,,,,,,,,,,,,,,,,,,,,,,,,,,,,,,,,,,,,,,,,,,,,,,,,,,,,,,,,,,,,,,,,,,,,,,,,,,,,,,,
1702361823,1702361823,79,0,4311.025879,4324.487305,4306.282227,4276.666504,4304.358887,4302.692383,4289.230957,4294.743652,4279.615234,4280.384766,4506.025879,4478.461426,4574.871582,4414.487305,6110,3,55,,,,0,4,4,4,4,4,4,4,4,4,4,4,4,4,4,100,,,,,,,,,,,,,,,,,,,,,,,,,,,,,,,,,,,,,,,,,,,,,,,,,,,,,,,,,,,,,,,,,,,,,,,,,,,,,,,,,,,,,,,,,,,,,,,,,,,,,,,,,,,,,,,,,,,,,,,,,,,,,,,,,,,,,,
1702361823,1702361823,80,0,4327.94873,4340.897461,4313.589844,4282.692383,4309.871582,4300.769043,4289.487305,4301.410156,4279.615234,4269.230957,4507.94873,4487.436035,4590.128418,4422.05127,6469,3,55,,,,0,4,4,4,4,4,4,4,4,4,4,4,4,4,4,100,,,,,,,,,,,,,,,,,20,0,0.674323,-0.167786,-0.698669,0.170288,0.880479,-0.431693,-0.090343,-23.80415,-17.382166,94.597343,,,,,,,,,,,,,,,,,,,,,,,,,,,,,,,,,,,,,,,,,,,,,,,,,,,,,,,,,,,,,,,,,,,,,,,,,,,,,,,,,,,,,,,,,,,,,,,,,,,,,,,,,,
1702361823,1702361823,81,0,4322.563965,4352.692383,4312.563965,4282.05127,4312.179688,4304.871582,4294.358887,4302.692383,4278.589844,4262.436035,4502.436035,4491.666504,4581.282227,4419.358887,6671,3,55,,,,0,4,4,4,4,4,4,4,4,4,4,4,4,4,4,100,,,,,,,,,,,,,,,,,,,,,,,,,,,,,,,,,,,,,,,,,,,,,,,,,,,,,,,,,,,,,,,,,,,,,,,,,,,,,,,,,,,,,,,,,,,,,,,,,,,,,,,,,,,,,,,,,,,,,,,,,,,,,,,,,,,,,,
1702361823,1702361823,82,0,4322.436035,4368.077148,4309.102539,4287.563965,4308.461426,4303.333496,4291.794922,4293.974121,4277.179688,4262.436035,4488.974121,4480.897461,4554.358887,4412.94873,5998,3,55,,,,0,4,4,4,4,4,4,4,4,4,4,4,4,4,4,100,,,,,,,,,,,,,,,,,,,,,,,,,,,,,,,,,,,,,,,,,,,,,,,,,,,,,,,,,,,,,,,,,,,,,,,,,,,,,,,,,,,,,,,,,,,,,,,,,,,,,,,,,,,,,,,,,,,,,,,,,,,,,,,,,,,,,,
1702361823,1702361823,83,0,4329.102539,4377.94873,4315.384766,4295,4304.487305,4302.436035,4289.871582,4296.794922,4274.743652,4247.820313,4474.743652,4478.589844,4523.077148,4411.153809,6110,3,55,,,,0,4,4,4,4,4,4,4,4,4,4,4,4,4,4,100,,,,,,,,,,,,,,,,,,,,,,,,,,,,,,,,,,,,,,,,,,,,,,,,,,,,,,,,,,,,,,,,,,,,,,,,,,,,,,,,,,,,,,,,,,,,,,,,,,,,,,,,,,,,,,,,,,,,,,,,,,,,,,,,,,,,,,
1702361823,1702361823,84,0,4323.846191,4384.487305,4322.692383,4297.563965,4309.230957,4305.384766,4292.05127,4303.846191,4276.410156,4240.128418,4472.307617,4489.615234,4502.692383,4413.846191,6469,3,55,,,,0,4,4,4,4,4,4,4,4,4,4,4,4,4,4,100,,,,,,,,,,,,,,,,,21,0,0.674294,-0.167908,-0.698608,0.170532,0.878525,-0.428275,-0.073739,-23.873735,-17.277283,94.620941,,,,,,,,,,,,,,,,,,,,,,,,,,,,,,,,,,,,,,,,,,,,,,,,,,,,,,,,,,,,,,,,,,,,,,,,,,,,,,,,,,,,,,,,,,,,,,,,,,,,,,,,,,
1702361823,1702361823,85,0,4318.077148,4380.128418,4317.563965,4288.333496,4313.974121,4305,4289.871582,4299.102539,4278.333496,4253.974121,4474.615234,4490.128418,4494.743652,4412.692383,6671,3,55,,,,0,4,4,4,4,4,4,4,4,4,4,4,4,4,4,100,,,,,,,,,,,,,,,,,,,,,,,,,,,,,,,,,,,,,,,,,,,,,,,,,,,,,,,,,,,,,,,,,,,,,,,,,,,,,,,,,,,,,,,,,,,,,,,,,,,,,,,,,,,,,,,,,,,,,,,,,,,,,,,,,,,,,,
1702361823,1702361823,86,0,4318.077148,4363.333496,4312.94873,4277.05127,4308.717773,4302.692383,4286.538574,4298.717773,4275.512695,4258.077148,4474.615234,4481.794922,4505.512695,4406.410156,5998,3,55,,,,0,4,4,4,4,4,4,4,4,4,4,4,4,4,4,100,,,,,,,,,,,,,,,,,,,,,,,,,,,,,,,,,,,,,,,,,,,,,,,,,,,,,,,,,,,,,,,,,,,,,,,,,,,,,,,,,,,,,,,,,,,,,,,,,,,,,,,,,,,,,,,,,,,,,,,,,,,,,,,,,,,,,,
1702361823,1702361823,87,0,4322.563965,4369.230957,4324.743652,4290.512695,4311.153809,4307.05127,4293.974121,4309.358887,4282.563965,4257.05127,4489.102539,4492.563965,4546.410156,4414.487305,6110,3,55,,,,0,4,4,4,4,4,4,4,4,4,4,4,4,4,4,100,,,,,,,,,,,,,,,,,,,,,,,,,,,,,,,,,,,,,,,,,,,,,,,,,,,,,,,,,,,,,,,,,1.631465,2.076483,1.847522,0.619505,0.376105,6.355664,2.486477,2.06196,0.611922,0.358801,1.695417,2.21809,1.557173,0.46117,0.312726,9.960925,2.094929,1.736616,0.35962,0.304953,0.428055,1.084719,0.89009,0.650615,0.587082,0.24755,0.088555,0.092736,0.073133,0.093977,0.574495,0.95381,0.353105,0.190575,0.159542,0.31276,0.381143,0.239498,0.188448,0.115588,0.59366,0.463413,0.210494,0.224983,0.217649,1.703218,1.227203,0.718165,0.412742,0.77164,5.354223,2.282188,1.042449,1.06869,0.274669,1.454272,2.661478,1.734889,0.460934,0.345138,228.218719,104.556129,107.150085,11.210235,1.186864,1.014899,2.409961,1.737196,0.892928,0.318825
1702361823,1702361823,88,0,4336.794922,4396.666504,4341.410156,4316.922852,4334.358887,4319.743652,4310.769043,4320.641113,4301.153809,4276.153809,4517.563965,4520.256348,4599.230957,4437.563965,6469,3,55,,,,0,4,4,4,4,4,4,4,4,4,4,4,4,4,4,100,,,,,,,,,,,,,,,,,22,0,0.674328,-0.168091,-0.698486,0.170715,0.891222,-0.4356,-0.083506,-24.136362,-17.282888,94.542183,,,,,,,,,,,,,,,,,,,,,,,,,,,,,,,,,,,,,,,,,,,,,,,,,,,,,,,,,,,,,,,,,,,,,,,,,,,,,,,,,,,,,,,,,,,,,,,,,,,,,,,,,,
1702361823,1702361823,89,0,4351.153809,4406.666504,4347.436035,4322.563965,4350.769043,4329.358887,4321.794922,4327.563965,4308.717773,4289.871582,4536.153809,4530.641113,4631.153809,4451.410156,6671,3,55,,,,0,4,4,4,4,4,4,4,4,4,4,4,4,4,4,100,,,,,,,,,,,,,,,,,,,,,,,,,,,,,,,,,,,,,,,,,,,,,,,,,,,,,,,,,,,,,,,,,,,,,,,,,,,,,,,,,,,,,,,,,,,,,,,,,,,,,,,,,,,,,,,,,,,,,,,,,,,,,,,,,,,,,,
1702361823,1702361823,90,0,4349.487305,4396.282227,4347.05127,4318.205078,4339.743652,4328.589844,4321.282227,4326.025879,4302.436035,4280.769043,4535.897461,4522.820313,4636.025879,4450.769043,5998,3,55,,,,0,4,4,4,4,4,4,4,4,4,4,4,4,4,4,100,,,,,,,,,,,,,,,,,,,,,,,,,,,,,,,,,,,,,,,,,,,,,,,,,,,,,,,,,,,,,,,,,,,,,,,,,,,,,,,,,,,,,,,,,,,,,,,,,,,,,,,,,,,,,,,,,,,,,,,,,,,,,,,,,,,,,,
1702361823,1702361823,91,0,4349.871582,4400.128418,4356.282227,4328.974121,4337.692383,4328.077148,4320.897461,4324.487305,4305.769043,4284.487305,4539.487305,4530.384766,4634.102539,4456.153809,6110,3,55,,,,0,4,4,4,4,4,4,4,4,4,4,4,4,4,4,100,,,,,,,,,,,,,,,,,,,,,,,,,,,,,,,,,,,,,,,,,,,,,,,,,,,,,,,,,,,,,,,,,,,,,,,,,,,,,,,,,,,,,,,,,,,,,,,,,,,,,,,,,,,,,,,,,,,,,,,,,,,,,,,,,,,,,,
1702361823,1702361823,92,0,4364.230957,4414.230957,4369.487305,4338.974121,4352.692383,4331.025879,4326.794922,4327.94873,4312.307617,4299.102539,4547.05127,4543.846191,4620.384766,4467.05127,6469,3,55,,,,0,4,4,4,4,4,4,4,4,4,4,4,4,4,4,100,,,,,,,,,,,,,,,,,23,0,0.674189,-0.168335,-0.698547,0.170776,0.883897,-0.436577,-0.083018,-24.189392,-17.287933,94.504631,,,,,,,,,,,,,,,,,,,,,,,,,,,,,,,,,,,,,,,,,,,,,,,,,,,,,,,,,,,,,,,,,,,,,,,,,,,,,,,,,,,,,,,,,,,,,,,,,,,,,,,,,,
1702361823,1702361823,93,0,4363.205078,4411.025879,4361.794922,4333.717773,4345.769043,4329.743652,4325.897461,4325,4302.692383,4288.589844,4532.436035,4533.077148,4581.666504,4461.025879,6671,3,55,,,,0,4,4,4,4,4,4,4,4,4,4,4,4,4,4,100,,,,,,,,,,,,,,,,,,,,,,,,,,,,,,,,,,,,,,,,,,,,,,,,,,,,,,,,,,,,,,,,,,,,,,,,,,,,,,,,,,,,,,,,,,,,,,,,,,,,,,,,,,,,,,,,,,,,,,,,,,,,,,,,,,,,,,
1702361823,1702361823,94,0,4345.512695,4400.641113,4345.897461,4329.487305,4335,4327.436035,4323.461426,4316.153809,4291.666504,4275.384766,4510.512695,4514.743652,4535.769043,4447.179688,5998,3,55,,,,0,4,4,4,4,4,4,4,4,4,4,4,4,4,4,100,,,,,,,,,,,,,,,,,,,,,,,,,,,,,,,,,,,,,,,,,,,,,,,,,,,,,,,,,,,,,,,,,,,,,,,,,,,,,,,,,,,,,,,,,,,,,,,,,,,,,,,,,,,,,,,,,,,,,,,,,,,,,,,,,,,,,,
1702361823,1702361823,95,0,4335.769043,4390.256348,4337.94873,4324.615234,4344.615234,4329.102539,4326.153809,4312.563965,4292.692383,4277.692383,4501.025879,4509.102539,4491.025879,4444.102539,6110,3,55,,,,0,4,4,4,4,4,4,4,4,4,4,4,4,4,4,100,,,,,,,,,,,,,,,,,,,,,,,,,,,,,,,,,,,,,,,,,,,,,,,,,,,,,,,,,,,,,,,,,,,,,,,,,,,,,,,,,,,,,,,,,,,,,,,,,,,,,,,,,,,,,,,,,,,,,,,,,,,,,,,,,,,,,,
1702361823,1702361823,96,0,4333.333496,4375.512695,4327.05127,4313.077148,4336.282227,4328.461426,4321.410156,4313.589844,4294.487305,4275,4492.94873,4503.717773,4451.538574,4443.461426,6469,3,55,,,,0,4,4,4,4,4,4,4,4,4,4,4,4,4,4,100,,,,,,,,,,,,,,,,,24,0,0.673988,-0.168762,-0.698608,0.170898,0.872177,-0.425345,-0.083018,-23.98712,-17.342472,94.387505,,,,,,,,,,,,,,,,,,,,,,,,,,,,,,,,,,,,,,,,,,,,,,,,,,,,,,,,,,,,,,,,,,,,,,,,,,,,,,,,,,,,,,,,,,,,,,,,,,,,,,,,,,
1702361823,1702361823,97,0,4337.179688,4371.410156,4325.256348,4314.871582,4312.94873,4325.897461,4318.846191,4317.820313,4293.589844,4273.077148,4491.666504,4500.897461,4448.846191,4441.538574,6671,3,55,,,,0,4,4,4,4,4,4,4,4,4,4,4,4,4,4,100,,,,,,,,,,,,,,,,,,,,,,,,,,,,,,,,,,,,,,,,,,,,,,,,,,,,,,,,,,,,,,,,,,,,,,,,,,,,,,,,,,,,,,,,,,,,,,,,,,,,,,,,,,,,,,,,,,,,,,,,,,,,,,,,,,,,,,
1702361823,1702361823,98,0,4340.512695,4372.179688,4337.563965,4323.589844,4317.307617,4326.153809,4324.871582,4320.769043,4295.897461,4275.641113,4502.94873,4505.128418,4486.666504,4450,5998,3,55,,,,0,4,4,4,4,4,4,4,4,4,4,4,4,4,4,100,,,,,,,,,,,,,,,,,,,,,,,,,,,,,,,,,,,,,,,,,,,,,,,,,,,,,,,,,,,,,,,,,,,,,,,,,,,,,,,,,,,,,,,,,,,,,,,,,,,,,,,,,,,,,,,,,,,,,,,,,,,,,,,,,,,,,,
1702361823,1702361823,99,0,4332.692383,4358.974121,4338.205078,4312.563965,4331.025879,4326.153809,4319.358887,4317.692383,4294.358887,4269.102539,4505,4507.94873,4524.230957,4458.077148,6110,3,55,,,,0,4,4,4,4,4,4,4,4,4,4,4,4,4,4,100,,,,,,,,,,,,,,,,,,,,,,,,,,,,,,,,,,,,,,,,,,,,,,,,,,,,,,,,,,,,,,,,,,,,,,,,,,,,,,,,,,,,,,,,,,,,,,,,,,,,,,,,,,,,,,,,,,,,,,,,,,,,,,,,,,,,,,
1702361823,1702361823,100,0,4329.487305,4353.077148,4333.461426,4306.025879,4327.436035,4321.410156,4310.641113,4317.05127,4293.974121,4268.974121,4505,4514.230957,4549.230957,4458.077148,6469,3,55,,,,0,4,4,4,4,4,4,4,4,4,4,4,4,4,4,100,,,,,,,,,,,,,,,,,25,0,0.673831,-0.168884,-0.69873,0.170898,0.886339,-0.42974,-0.072274,-23.87174,-17.291559,94.232086,,,,,,,,,,,,,,,,,,,,,,,,,,,,,,,,,,,,,,,,,,,,,,,,,,,,,,,,,,,,,,,,,,,,,,,,,,,,,,,,,,,,,,,,,,,,,,,,,,,,,,,,,,
1702361823,1702361823,101,0,4342.436035,4365.769043,4344.358887,4324.358887,4322.692383,4321.922852,4320.897461,4322.05127,4301.794922,4285,4519.487305,4524.230957,4569.102539,4466.794922,6671,3,55,,,,0,4,4,4,4,4,4,4,4,4,4,4,4,4,4,100,,,,,,,,,,,,,,,,,,,,,,,,,,,,,,,,,,,,,,,,,,,,,,,,,,,,,,,,,,,,,,,,,,,,,,,,,,,,,,,,,,,,,,,,,,,,,,,,,,,,,,,,,,,,,,,,,,,,,,,,,,,,,,,,,,,,,,
1702361823,1702361823,102,0,4352.820313,4368.974121,4353.589844,4331.794922,4324.102539,4330.769043,4330.897461,4323.717773,4301.666504,4290.769043,4525.512695,4525.769043,4570.641113,4477.692383,5998,3,55,,,,0,4,4,4,4,4,4,4,4,4,4,4,4,4,4,100,,,,,,,,,,,,,,,,,,,,,,,,,,,,,,,,,,,,,,,,,,,,,,,,,,,,,,,,,,,,,,,,,,,,,,,,,,,,,,,,,,,,,,,,,,,,,,,,,,,,,,,,,,,,,,,,,,,,,,,,,,,,,,,,,,,,,,
1702361823,1702361823,103,0,4351.666504,4363.589844,4351.025879,4320.256348,4326.666504,4331.794922,4327.692383,4322.820313,4294.358887,4280.384766,4517.692383,4522.563965,4553.846191,4476.153809,6110,3,55,,,,0,4,4,4,4,4,4,4,4,4,4,4,4,4,4,100,,,,,,,,,,,,,,,,,,,,,,,,,,,,,,,,,,,,,,,,,,,,,,,,,,,,,,,,,,,,,,,,,1.317743,2.151922,1.669249,0.56066,0.348116,5.790157,2.304392,1.797322,0.589513,0.374039,1.33198,2.290169,1.485643,0.451866,0.299895,9.250787,2.331629,1.649504,0.366213,0.281366,0.406482,1.080143,0.871768,0.67726,0.655084,0.245737,0.097757,0.098061,0.074916,0.089224,0.509832,0.977319,0.303758,0.192333,0.155508,0.315141,0.409424,0.266595,0.190058,0.109495,0.578337,0.515432,0.260347,0.248856,0.226277,1.357988,1.022269,0.775507,0.490543,0.787505,4.907558,2.322177,1.324026,1.124661,0.303862,1.266382,2.940215,1.823008,0.483252,0.336371,195.579865,81.039627,94.793617,9.089327,1.089721,0.790681,2.638985,1.848713,0.888624,0.309723
1702361823,1702361823,104,0,4346.922852,4363.461426,4347.94873,4313.846191,4325.256348,4322.179688,4326.025879,4321.922852,4294.615234,4275.384766,4513.846191,4523.846191,4531.153809,4473.974121,6469,3,55,,,,0,4,4,4,4,4,4,4,4,4,4,4,4,4,4,100,,,,,,,,,,,,,,,,,26,0,0.674001,-0.16864,-0.698669,0.170715,0.880967,-0.42681,-0.0796,-23.8179,-17.329069,94.208878,,,,,,,,,,,,,,,,,,,,,,,,,,,,,,,,,,,,,,,,,,,,,,,,,,,,,,,,,,,,,,,,,,,,,,,,,,,,,,,,,,,,,,,,,,,,,,,,,,,,,,,,,,
1702361823,1702361823,105,0,4343.846191,4361.538574,4345.512695,4312.563965,4320.897461,4316.794922,4321.922852,4321.922852,4296.538574,4278.461426,4511.538574,4520.897461,4501.410156,4473.333496,6671,3,55,,,,0,4,4,4,4,4,4,4,4,4,4,4,4,4,4,100,,,,,,,,,,,,,,,,,,,,,,,,,,,,,,,,,,,,,,,,,,,,,,,,,,,,,,,,,,,,,,,,,,,,,,,,,,,,,,,,,,,,,,,,,,,,,,,,,,,,,,,,,,,,,,,,,,,,,,,,,,,,,,,,,,,,,,
1702361823,1702361823,106,0,4342.436035,4358.717773,4344.487305,4307.436035,4323.717773,4320.128418,4311.922852,4322.563965,4293.974121,4278.461426,4504.615234,4513.077148,4468.589844,4467.563965,5998,3,55,,,,0,4,4,4,4,4,4,4,4,4,4,4,4,4,4,100,,,,,,,,,,,,,,,,,,,,,,,,,,,,,,,,,,,,,,,,,,,,,,,,,,,,,,,,,,,,,,,,,,,,,,,,,,,,,,,,,,,,,,,,,,,,,,,,,,,,,,,,,,,,,,,,,,,,,,,,,,,,,,,,,,,,,,
1702361823,1702361823,107,0,4335.256348,4356.538574,4339.102539,4297.692383,4325.128418,4322.692383,4309.358887,4320.641113,4293.589844,4278.205078,4497.563965,4509.358887,4451.794922,4461.153809,6110,3,55,,,,0,4,4,4,4,4,4,4,4,4,4,4,4,4,4,100,,,,,,,,,,,,,,,,,,,,,,,,,,,,,,,,,,,,,,,,,,,,,,,,,,,,,,,,,,,,,,,,,,,,,,,,,,,,,,,,,,,,,,,,,,,,,,,,,,,,,,,,,,,,,,,,,,,,,,,,,,,,,,,,,,,,,,
1702361823,1702361823,108,0,4323.077148,4352.94873,4326.922852,4288.077148,4314.358887,4319.102539,4311.282227,4317.307617,4293.717773,4280.512695,4493.846191,4501.794922,4458.717773,4455.897461,6469,3,55,,,,0,4,4,4,4,4,4,4,4,4,4,4,4,4,4,100,,,,,,,,,,,,,,,,,27,0,0.674239,-0.168701,-0.698425,0.170715,0.887804,-0.443413,-0.073251,-23.802776,-17.229496,94.221321,,,,,,,,,,,,,,,,,,,,,,,,,,,,,,,,,,,,,,,,,,,,,,,,,,,,,,,,,,,,,,,,,,,,,,,,,,,,,,,,,,,,,,,,,,,,,,,,,,,,,,,,,,
1702361823,1702361823,109,0,4320.641113,4349.102539,4322.179688,4283.974121,4308.589844,4313.717773,4310.512695,4318.589844,4292.179688,4277.692383,4497.436035,4497.307617,4484.487305,4455,6671,3,55,,,,0,4,4,4,4,4,4,4,4,4,4,4,4,4,4,100,,,,,,,,,,,,,,,,,,,,,,,,,,,,,,,,,,,,,,,,,,,,,,,,,,,,,,,,,,,,,,,,,,,,,,,,,,,,,,,,,,,,,,,,,,,,,,,,,,,,,,,,,,,,,,,,,,,,,,,,,,,,,,,,,,,,,,
1702361823,1702361823,110,0,4325.897461,4342.563965,4327.820313,4284.358887,4310.256348,4311.922852,4306.153809,4317.820313,4296.153809,4276.538574,4507.307617,4503.461426,4515,4460.256348,5998,3,55,,,,0,4,4,4,4,4,4,4,4,4,4,4,4,4,4,100,,,,,,,,,,,,,,,,,,,,,,,,,,,,,,,,,,,,,,,,,,,,,,,,,,,,,,,,,,,,,,,,,,,,,,,,,,,,,,,,,,,,,,,,,,,,,,,,,,,,,,,,,,,,,,,,,,,,,,,,,,,,,,,,,,,,,,
1702361823,1702361823,111,0,4326.666504,4341.538574,4329.615234,4285.512695,4310.512695,4311.410156,4298.846191,4308.846191,4291.538574,4281.282227,4509.615234,4502.436035,4527.820313,4460.384766,6110,3,55,,,,0,4,4,4,4,4,4,4,4,4,4,4,4,4,4,100,,,,,,,,,,,,,,,,,,,,,,,,,,,,,,,,,,,,,,,,,,,,,,,,,,,,,,,,,,,,,,,,,,,,,,,,,,,,,,,,,,,,,,,,,,,,,,,,,,,,,,,,,,,,,,,,,,,,,,,,,,,,,,,,,,,,,,
1702361823,1702361823,112,0,4324.487305,4350.384766,4326.282227,4290,4311.153809,4309.871582,4296.538574,4306.153809,4280,4271.410156,4503.333496,4490.128418,4522.563965,4457.563965,6469,3,55,,,,0,4,4,4,4,4,4,4,4,4,4,4,4,4,4,100,,,,,,,,,,,,,,,,,28,0,0.674291,-0.169128,-0.698242,0.170837,0.8712,-0.43267,-0.079111,-23.889166,-17.23988,94.299187,,,,,,,,,,,,,,,,,,,,,,,,,,,,,,,,,,,,,,,,,,,,,,,,,,,,,,,,,,,,,,,,,,,,,,,,,,,,,,,,,,,,,,,,,,,,,,,,,,,,,,,,,,
1702361823,1702361823,113,0,4319.358887,4349.615234,4326.410156,4292.563965,4301.794922,4310.512695,4302.563965,4312.307617,4285.897461,4259.743652,4503.846191,4492.820313,4518.461426,4462.436035,6671,3,55,,,,0,4,4,4,4,4,4,4,4,4,4,4,4,4,4,100,,,,,,,,,,,,,,,,,,,,,,,,,,,,,,,,,,,,,,,,,,,,,,,,,,,,,,,,,,,,,,,,,,,,,,,,,,,,,,,,,,,,,,,,,,,,,,,,,,,,,,,,,,,,,,,,,,,,,,,,,,,,,,,,,,,,,,
1702361823,1702361823,114,0,4318.205078,4338.717773,4330.384766,4289.358887,4288.589844,4308.974121,4307.692383,4313.205078,4295.512695,4274.615234,4507.307617,4505,4514.230957,4466.153809,5998,3,55,,,,0,4,4,4,4,4,4,4,4,4,4,4,4,4,4,100,,,,,,,,,,,,,,,,,,,,,,,,,,,,,,,,,,,,,,,,,,,,,,,,,,,,,,,,,,,,,,,,,,,,,,,,,,,,,,,,,,,,,,,,,,,,,,,,,,,,,,,,,,,,,,,,,,,,,,,,,,,,,,,,,,,,,,
1702361823,1702361823,115,0,4319.615234,4335,4330,4287.436035,4299.743652,4306.794922,4305.769043,4308.846191,4284.743652,4282.307617,4496.922852,4500,4488.717773,4461.666504,6110,3,55,,,,0,4,4,4,4,4,4,4,4,4,4,4,4,4,4,100,,,,,,,,,,,,,,,,,,,,,,,,,,,,,,,,,,,,,,,,,,,,,,,,,,,,,,,,,,,,,,,,,,,,,,,,,,,,,,,,,,,,,,,,,,,,,,,,,,,,,,,,,,,,,,,,,,,,,,,,,,,,,,,,,,,,,,
1702361823,1702361823,116,0,4312.94873,4334.743652,4324.615234,4289.871582,4315.512695,4309.743652,4304.615234,4306.538574,4273.461426,4263.717773,4483.846191,4486.282227,4455.128418,4455.384766,6469,3,55,,,,0,4,4,4,4,4,4,4,4,4,4,4,4,4,4,100,,,,,,,,,,,,,,,,,29,0,0.674356,-0.169434,-0.69812,0.170776,0.883409,-0.42388,-0.074228,-23.933582,-17.215891,94.285934,,,,,,,,,,,,,,,,,,,,,,,,,,,,,,,,,,,,,,,,,,,,,,,,,,,,,,,,,,,,,,,,,,,,,,,,,,,,,,,,,,,,,,,,,,,,,,,,,,,,,,,,,,
1702361823,1702361823,117,0,4311.538574,4336.666504,4329.230957,4299.230957,4302.820313,4310.384766,4308.333496,4307.563965,4278.846191,4258.077148,4486.410156,4488.333496,4446.922852,4456.282227,6671,3,55,,,,0,4,4,4,4,4,4,4,4,4,4,4,4,4,4,100,,,,,,,,,,,,,,,,,,,,,,,,,,,,,,,,,,,,,,,,,,,,,,,,,,,,,,,,,,,,,,,,,,,,,,,,,,,,,,,,,,,,,,,,,,,,,,,,,,,,,,,,,,,,,,,,,,,,,,,,,,,,,,,,,,,,,,
1702361823,1702361823,118,0,4324.871582,4344.615234,4340.256348,4311.538574,4292.820313,4305.897461,4307.307617,4308.461426,4282.94873,4267.820313,4496.410156,4500.384766,4463.461426,4466.153809,5998,3,55,,,,0,4,4,4,4,4,4,4,4,4,4,4,4,4,4,100,,,,,,,,,,,,,,,,,,,,,,,,,,,,,,,,,,,,,,,,,,,,,,,,,,,,,,,,,,,,,,,,,,,,,,,,,,,,,,,,,,,,,,,,,,,,,,,,,,,,,,,,,,,,,,,,,,,,,,,,,,,,,,,,,,,,,,
1702361823,1702361823,119,0,4327.820313,4343.205078,4337.179688,4308.846191,4302.563965,4301.153809,4298.205078,4308.974121,4280.512695,4267.820313,4496.153809,4500.128418,4476.922852,4468.846191,6110,3,55,,,,0,4,4,4,4,4,4,4,4,4,4,4,4,4,4,100,1,75,4,4,4,4,4,4,4,4,4,4,4,4,1,4,,,,,,,,,,,,,,,,,,,,,,,,,,,,,,,,,,,,,,,,,,,,,,,,,1.185156,2.270936,1.44379,0.485361,0.313982,5.138814,2.130191,1.47496,0.557341,0.382926,1.153193,2.43145,1.411719,0.457383,0.279126,8.028178,2.592172,1.541188,0.393797,0.260351,0.437028,1.038764,0.828818,0.677546,0.73344,0.225698,0.106603,0.09932,0.07542,0.082837,0.466039,0.966447,0.267983,0.192411,0.146344,0.317961,0.450429,0.313851,0.184132,0.107965,0.578909,0.606176,0.32535,0.269417,0.230049,1.112801,0.878461,0.832744,0.566365,0.773598,4.474278,2.40526,1.727633,1.144582,0.343081,1.321601,3.273773,1.90939,0.515222,0.328776,149.773453,59.072956,80.315186,6.891402,1.000446,0.869621,2.876889,1.892962,0.848264,0.29624
1702361823,1702361823,120,0,4316.025879,4330.769043,4328.333496,4298.717773,4300.897461,4298.333496,4295.128418,4309.871582,4282.05127,4264.487305,4490.897461,4492.179688,4472.692383,4460.769043,6469,3,55,,,,0,4,4,4,4,4,4,4,4,4,4,4,4,4,4,100,,,,,,,,,,,,,,,,,30,0,0.674233,-0.169861,-0.69812,0.170837,0.879014,-0.430717,-0.086436,-23.990225,-17.21097,94.257347,,,,,,,,,,,,,,,,,,,,,,,,,,,,,,,,,,,,,,,,,,,,,,,,,,,,,,,,,,,,,,,,,,,,,,,,,,,,,,,,,,,,,,,,,,,,,,,,,,,,,,,,,,
1702361823,1702361823,121,0,4308.717773,4324.358887,4327.436035,4298.846191,4286.794922,4297.05127,4299.615234,4310.641113,4283.077148,4266.025879,4491.153809,4491.922852,4461.410156,4457.05127,6671,3,55,,,,0,4,4,4,4,4,4,4,4,4,4,4,4,4,4,100,,,,,,,,,,,,,,,,,,,,,,,,,,,,,,,,,,,,,,,,,,,,,,,,,,,,,,,,,,,,,,,,,,,,,,,,,,,,,,,,,,,,,,,,,,,,,,,,,,,,,,,,,,,,,,,,,,,,,,,,,,,,,,,,,,,,,,
1702361824,1702361824,122,0,4308.205078,4325.128418,4326.666504,4299.102539,4284.743652,4296.922852,4297.179688,4310.769043,4280.769043,4263.589844,4493.974121,4494.487305,4457.563965,4460.897461,5998,3,55,,,,0,4,4,4,4,4,4,4,4,4,4,4,4,4,4,100,,,,,,,,,,,,,,,,,,,,,,,,,,,,,,,,,,,,,,,,,,,,,,,,,,,,,,,,,,,,,,,,,,,,,,,,,,,,,,,,,,,,,,,,,,,,,,,,,,,,,,,,,,,,,,,,,,,,,,,,,,,,,,,,,,,,,,
1702361824,1702361824,123,0,4308.589844,4325.128418,4326.282227,4294.487305,4293.846191,4296.922852,4297.692383,4311.410156,4280.512695,4263.717773,4491.538574,4492.820313,4463.846191,4461.666504,6110,3,55,,,,0,4,4,4,4,4,4,4,4,4,4,4,4,4,4,100,,,,,,,,,,,,,,,,,,,,,,,,,,,,,,,,,,,,,,,,,,,,,,,,,,,,,,,,,,,,,,,,,,,,,,,,,,,,,,,,,,,,,,,,,,,,,,,,,,,,,,,,,,,,,,,,,,,,,,,,,,,,,,,,,,,,,,
1702361824,1702361824,124,0,4306.282227,4317.307617,4328.461426,4294.871582,4294.230957,4297.436035,4304.102539,4311.666504,4281.538574,4267.436035,4483.846191,4490,4461.922852,4452.179688,6469,3,55,,,,0,4,4,4,4,4,4,4,4,4,4,4,4,4,4,100,,,,,,,,,,,,,,,,,31,0,0.67425,-0.170044,-0.698059,0.170837,0.877549,-0.440972,-0.078135,-24.124535,-17.123205,94.264946,,,,,,,,,,,,,,,,,,,,,,,,,,,,,,,,,,,,,,,,,,,,,,,,,,,,,,,,,,,,,,,,,,,,,,,,,,,,,,,,,,,,,,,,,,,,,,,,,,,,,,,,,,
1702361824,1702361824,125,0,4305.897461,4313.205078,4329.102539,4300.897461,4293.077148,4296.922852,4302.307617,4310.897461,4281.922852,4263.717773,4485.769043,4491.666504,4455.384766,4448.205078,6671,3,55,,,,0,4,4,4,4,4,4,4,4,4,4,4,4,4,4,100,,,,,,,,,,,,,,,,,,,,,,,,,,,,,,,,,,,,,,,,,,,,,,,,,,,,,,,,,,,,,,,,,,,,,,,,,,,,,,,,,,,,,,,,,,,,,,,,,,,,,,,,,,,,,,,,,,,,,,,,,,,,,,,,,,,,,,
1702361824,1702361824,126,0,4313.846191,4324.487305,4329.102539,4308.589844,4301.794922,4295.512695,4295.256348,4311.025879,4286.025879,4263.461426,4494.102539,4490.384766,4464.102539,4455.128418,5998,3,55,,,,0,4,4,4,4,4,4,4,4,4,4,4,4,4,4,100,,,,,,,,,,,,,,,,,,,,,,,,,,,,,,,,,,,,,,,,,,,,,,,,,,,,,,,,,,,,,,,,,,,,,,,,,,,,,,,,,,,,,,,,,,,,,,,,,,,,,,,,,,,,,,,,,,,,,,,,,,,,,,,,,,,,,,
1702361824,1702361824,127,0,4314.487305,4329.358887,4326.794922,4313.461426,4304.743652,4296.410156,4292.94873,4310.384766,4288.717773,4274.230957,4493.333496,4482.94873,4477.307617,4455.897461,55,3,55,,,,0,4,4,4,4,4,4,4,4,4,4,4,4,4,4,100,,,,,,,,,,,,,,,,,,,,,,,,,,,,,,,,,,,,,,,,,,,,,,,,,,,,,,,,,,,,,,,,,,,,,,,,,,,,,,,,,,,,,,,,,,,,,,,,,,,,,,,,,,,,,,,,,,,,,,,,,,,,,,,,,,,,,,
1702361824,1702361824,0,0,4300.128418,4317.05127,4319.358887,4309.487305,4294.358887,4296.410156,4292.436035,4306.922852,4283.333496,4285,4490.256348,4477.179688,4483.589844,4445.256348,5405,3,55,,,,0,4,4,4,4,4,4,4,4,4,4,4,4,4,4,100,,,,,,,,,,,,,,,,,0,0,0.674235,-0.170105,-0.698059,0.170837,0.883897,-0.439507,-0.075693,-23.912081,-17.177551,94.188446,,,,,,,,,,,,,,,,,,,,,,,,,,,,,,,,,,,,,,,,,,,,,,,,,,,,,,,,,,,,,,,,,,,,,,,,,,,,,,,,,,,,,,,,,,,,,,,,,,,,,,,,,,
1702361824,1702361824,1,0,4295.384766,4317.05127,4316.922852,4307.307617,4290.256348,4294.871582,4291.794922,4305.897461,4279.871582,4278.077148,4493.333496,4479.358887,4490.769043,4444.102539,5519,3,55,,,,0,4,4,4,4,4,4,4,4,4,4,4,4,4,4,100,,,,,,,,,,,,,,,,,,,,,,,,,,,,,,,,,,,,,,,,,,,,,,,,,,,,,,,,,,,,,,,,,,,,,,,,,,,,,,,,,,,,,,,,,,,,,,,,,,,,,,,,,,,,,,,,,,,,,,,,,,,,,,,,,,,,,,
1702361824,1702361824,2,0,4304.743652,4333.589844,4320.897461,4317.692383,4296.153809,4296.410156,4295.641113,4306.922852,4281.666504,4263.461426,4491.282227,4482.307617,4494.615234,4452.05127,5414,3,55,,,,0,4,4,4,4,4,4,4,4,4,4,4,4,4,4,100,,,,,,,,,,,,,,,,,,,,,,,,,,,,,,,,,,,,,,,,,,,,,,,,,,,,,,,,,,,,,,,,,,,,,,,,,,,,,,,,,,,,,,,,,,,,,,,,,,,,,,,,,,,,,,,,,,,,,,,,,,,,,,,,,,,,,,
1702361824,1702361824,3,0,4289.230957,4317.179688,4313.846191,4312.179688,4293.974121,4296.153809,4292.94873,4302.94873,4277.820313,4260.128418,4476.153809,4469.358887,4475.641113,4433.717773,5467,3,55,,,,0,4,4,4,4,4,4,4,4,4,4,4,4,4,4,100,,,,,,,,,,,,,,,,,,,,,,,,,,,,,,,,,,,,,,,,,,,,,,,,,,,,,,,,,,,,,,,,,,,,,,,,,,,,,,,,,,,,,,,,,,,,,,,,,,,,,,,,,,,,,,,,,,,,,,,,,,,,,,,,,,,,,,
1702361824,1702361824,4,0,4265.256348,4285.128418,4302.436035,4293.717773,4283.589844,4291.153809,4283.333496,4298.077148,4271.666504,4258.205078,4467.820313,4456.666504,4468.589844,4409.743652,5374,3,55,,,,0,4,4,4,4,4,4,4,4,4,4,4,4,4,4,100,,,,,,,,,,,,,,,,,1,0,0.674252,-0.170227,-0.697998,0.170898,0.891222,-0.428275,-0.071298,-23.93754,-17.09313,94.119606,,,,,,,,,,,,,,,,,,,,,,,,,,,,,,,,,,,,,,,,,,,,,,,,,,,,,,,,,,,,,,,,,,,,,,,,,,,,,,,,,,,,,,,,,,,,,,,,,,,,,,,,,,
1702361824,1702361824,5,0,4276.794922,4299.871582,4305.641113,4297.820313,4280.256348,4288.846191,4282.563965,4301.538574,4275.128418,4260.128418,4481.282227,4466.538574,4507.563965,4425.384766,5454,3,55,,,,0,4,4,4,4,4,4,4,4,4,4,4,4,4,4,100,,,,,,,,,,,,,,,,,,,,,,,,,,,,,,,,,,,,,,,,,,,,,,,,,,,,,,,,,,,,,,,,,,,,,,,,,,,,,,,,,,,,,,,,,,,,,,,,,,,,,,,,,,,,,,,,,,,,,,,,,,,,,,,,,,,,,,
1702361824,1702361824,6,0,4300.256348,4329.487305,4313.717773,4313.077148,4290.512695,4292.307617,4286.410156,4307.436035,4281.153809,4272.307617,4497.436035,4480.641113,4535.256348,4448.717773,5377,3,55,,,,0,4,4,4,4,4,4,4,4,4,4,4,4,4,4,100,,,,,,,,,,,,,,,,,,,,,,,,,,,,,,,,,,,,,,,,,,,,,,,,,,,,,,,,,,,,,,,,,,,,,,,,,,,,,,,,,,,,,,,,,,,,,,,,,,,,,,,,,,,,,,,,,,,,,,,,,,,,,,,,,,,,,,
1702361824,1702361824,7,0,4294.615234,4325.897461,4310.769043,4314.102539,4297.820313,4293.846191,4283.077148,4305.897461,4280.512695,4275.512695,4493.589844,4476.666504,4511.410156,4436.025879,3672,3,55,,,,0,4,4,4,4,4,4,4,4,4,4,4,4,4,4,100,,,,,,,,,,,,,,,,,,,,,,,,,,,,,,,,,,,,,,,,,,,,,,,,,,,,,,,,,,,,,,,,,1.272278,2.358248,1.248681,0.423075,0.288267,4.599519,1.989233,1.257768,0.530831,0.387395,1.268705,2.559889,1.367939,0.46684,0.254295,6.666462,2.779641,1.4806,0.431055,0.247316,0.56384,0.976489,0.74998,0.64842,0.797092,0.229958,0.12383,0.097122,0.075321,0.076416,0.488807,0.957392,0.251776,0.191748,0.132278,0.324013,0.527931,0.369637,0.171483,0.109807,0.60671,0.74754,0.397446,0.284998,0.224885,1.029718,0.863568,0.875203,0.617331,0.730706,4.2211,2.541514,2.196759,1.112391,0.381955,1.680216,3.521273,1.978844,0.543057,0.325675,102.952286,42.062347,68.063271,4.94475,0.918281,1.264611,3.007818,1.853079,0.778691,0.285788
1702361824,1702361824,8,0,4283.461426,4317.692383,4307.692383,4313.589844,4291.282227,4293.589844,4281.794922,4304.358887,4279.871582,4265,4485.384766,4468.846191,4496.282227,4420,4676,3,55,,,,0,4,4,4,4,4,4,4,4,4,4,4,4,4,4,100,,,,,,,,,,,,,,,,,2,0,0.674284,-0.17041,-0.697937,0.170837,0.880479,-0.433647,-0.077158,-24.060453,-17.117149,94.040977,,,,,,,,,,,,,,,,,,,,,,,,,,,,,,,,,,,,,,,,,,,,,,,,,,,,,,,,,,,,,,,,,,,,,,,,,,,,,,,,,,,,,,,,,,,,,,,,,,,,,,,,,,
1702361824,1702361824,9,0,4292.820313,4327.94873,4314.487305,4318.846191,4299.615234,4298.846191,4292.563965,4308.717773,4282.179688,4261.282227,4492.307617,4477.692383,4526.153809,4432.307617,5516,3,55,,,,0,4,4,4,4,4,4,4,4,4,4,4,4,4,4,100,,,,,,,,,,,,,,,,,,,,,,,,,,,,,,,,,,,,,,,,,,,,,,,,,,,,,,,,,,,,,,,,,,,,,,,,,,,,,,,,,,,,,,,,,,,,,,,,,,,,,,,,,,,,,,,,,,,,,,,,,,,,,,,,,,,,,,
1702361824,1702361824,10,0,4298.077148,4329.871582,4319.230957,4319.358887,4303.717773,4309.102539,4305.256348,4311.538574,4280.384766,4268.461426,4500.641113,4486.538574,4550.512695,4438.461426,6005,3,55,,,,0,4,4,4,4,4,4,4,4,4,4,4,4,4,4,100,,,,,,,,,,,,,,,,,,,,,,,,,,,,,,,,,,,,,,,,,,,,,,,,,,,,,,,,,,,,,,,,,,,,,,,,,,,,,,,,,,,,,,,,,,,,,,,,,,,,,,,,,,,,,,,,,,,,,,,,,,,,,,,,,,,,,,
1702361824,1702361824,11,0,4295.897461,4324.615234,4322.179688,4319.230957,4288.974121,4314.487305,4312.05127,4311.538574,4281.794922,4274.871582,4499.743652,4487.05127,4557.179688,4437.563965,6113,3,55,,,,0,4,4,4,4,4,4,4,4,4,4,4,4,4,4,100,,,,,,,,,,,,,,,,,,,,,,,,,,,,,,,,,,,,,,,,,,,,,,,,,,,,,,,,,,,,,,,,,,,,,,,,,,,,,,,,,,,,,,,,,,,,,,,,,,,,,,,,,,,,,,,,,,,,,,,,,,,,,,,,,,,,,,
1702361824,1702361824,12,0,4297.307617,4325.769043,4323.717773,4316.410156,4301.410156,4307.05127,4305.384766,4310.769043,4285.769043,4277.179688,4492.820313,4480,4558.333496,4438.205078,6474,3,55,,,,0,4,4,4,4,4,4,4,4,4,4,4,4,4,4,100,,,,,,,,,,,,,,,,,3,0,0.674285,-0.170654,-0.697876,0.170837,0.881455,-0.433158,-0.076181,-24.18774,-17.005436,94.120209,,,,,,,,,,,,,,,,,,,,,,,,,,,,,,,,,,,,,,,,,,,,,,,,,,,,,,,,,,,,,,,,,,,,,,,,,,,,,,,,,,,,,,,,,,,,,,,,,,,,,,,,,,
1702361824,1702361824,13,0,4298.846191,4324.230957,4320,4308.589844,4326.153809,4298.846191,4292.94873,4308.974121,4283.205078,4277.179688,4488.974121,4472.563965,4547.692383,4431.410156,6669,3,55,,,,0,4,4,4,4,4,4,4,4,4,4,4,4,4,4,100,,,,,,,,,,,,,,,,,,,,,,,,,,,,,,,,,,,,,,,,,,,,,,,,,,,,,,,,,,,,,,,,,,,,,,,,,,,,,,,,,,,,,,,,,,,,,,,,,,,,,,,,,,,,,,,,,,,,,,,,,,,,,,,,,,,,,,
1702361824,1702361824,14,0,4303.205078,4327.94873,4322.179688,4309.871582,4309.230957,4305.384766,4294.743652,4309.230957,4284.743652,4278.205078,4502.307617,4482.05127,4546.922852,4434.358887,6005,3,55,,,,0,4,4,4,4,4,4,4,4,4,4,4,4,4,4,100,,,,,,,,,,,,,,,,,,,,,,,,,,,,,,,,,,,,,,,,,,,,,,,,,,,,,,,,,,,,,,,,,,,,,,,,,,,,,,,,,,,,,,,,,,,,,,,,,,,,,,,,,,,,,,,,,,,,,,,,,,,,,,,,,,,,,,
1702361824,1702361824,15,0,4303.333496,4332.179688,4326.538574,4308.974121,4285.384766,4309.230957,4298.461426,4313.077148,4291.282227,4283.717773,4512.05127,4489.871582,4557.692383,4442.820313,6113,3,55,,,,0,4,4,4,4,4,4,4,4,4,4,4,4,4,4,100,,,,,,,,,,,,,,,,,,,,,,,,,,,,,,,,,,,,,,,,,,,,,,,,,,,,,,,,,,,,,,,,,,,,,,,,,,,,,,,,,,,,,,,,,,,,,,,,,,,,,,,,,,,,,,,,,,,,,,,,,,,,,,,,,,,,,,
1702361824,1702361824,16,0,4300.512695,4328.077148,4320.384766,4300.897461,4302.436035,4302.179688,4291.538574,4312.563965,4291.410156,4286.794922,4508.077148,4483.077148,4554.358887,4442.179688,0,3,55,,,,0,4,4,4,4,4,4,4,4,4,4,4,4,4,4,100,,,,,,,,,,,,,,,,,4,0,0.674239,-0.170898,-0.697876,0.170776,0.87413,-0.430228,-0.08253,-24.218967,-16.904892,94.058189,,,,,,,,,,,,,,,,,,,,,,,,,,,,,,,,,,,,,,,,,,,,,,,,,,,,,,,,,,,,,,,,,,,,,,,,,,,,,,,,,,,,,,,,,,,,,,,,,,,,,,,,,,
1702361824,1702361824,17,0,4303.717773,4326.282227,4319.358887,4302.692383,4318.461426,4301.282227,4291.410156,4310.128418,4292.563965,4285.512695,4514.615234,4484.615234,4538.077148,4440.512695,0,3,55,,,,0,4,4,4,4,4,4,4,4,4,4,4,4,4,4,100,,,,,,,,,,,,,,,,,,,,,,,,,,,,,,,,,,,,,,,,,,,,,,,,,,,,,,,,,,,,,,,,,,,,,,,,,,,,,,,,,,,,,,,,,,,,,,,,,,,,,,,,,,,,,,,,,,,,,,,,,,,,,,,,,,,,,,
1702361824,1702361824,18,0,4305.256348,4328.077148,4324.871582,4307.563965,4315.769043,4303.461426,4296.538574,4311.666504,4294.230957,4285.384766,4518.846191,4491.666504,4517.307617,4443.589844,0,3,55,,,,0,4,4,4,4,4,4,4,4,4,4,4,4,4,4,100,,,,,,,,,,,,,,,,,,,,,,,,,,,,,,,,,,,,,,,,,,,,,,,,,,,,,,,,,,,,,,,,,,,,,,,,,,,,,,,,,,,,,,,,,,,,,,,,,,,,,,,,,,,,,,,,,,,,,,,,,,,,,,,,,,,,,,
1702361824,1702361824,19,0,4302.692383,4326.282227,4318.846191,4305,4310.512695,4301.922852,4293.974121,4312.179688,4289.230957,4295.384766,4506.153809,4484.487305,4501.025879,4443.077148,0,3,55,,,,0,4,4,4,4,4,4,4,4,4,4,4,4,4,4,100,,,,,,,,,,,,,,,,,,,,,,,,,,,,,,,,,,,,,,,,,,,,,,,,,,,,,,,,,,,,,,,,,,,,,,,,,,,,,,,,,,,,,,,,,,,,,,,,,,,,,,,,,,,,,,,,,,,,,,,,,,,,,,,,,,,,,,
1702361824,1702361824,20,0,4304.358887,4325.897461,4313.589844,4308.461426,4297.94873,4306.025879,4296.410156,4311.410156,4289.358887,4300.769043,4504.871582,4478.333496,4509.871582,4438.846191,0,3,55,,,,0,4,4,4,4,4,4,4,4,4,4,4,4,4,4,100,,,,,,,,,,,,,,,,,5,0,0.674413,-0.171082,-0.697693,0.170654,0.892199,-0.4356,-0.071786,-24.413736,-16.931068,94.135704,,,,,,,,,,,,,,,,,,,,,,,,,,,,,,,,,,,,,,,,,,,,,,,,,,,,,,,,,,,,,,,,,,,,,,,,,,,,,,,,,,,,,,,,,,,,,,,,,,,,,,,,,,
1702361824,1702361824,21,0,4301.282227,4329.487305,4316.282227,4317.179688,4295.128418,4312.436035,4307.692383,4312.563965,4294.743652,4285.256348,4507.94873,4482.05127,4524.358887,4433.589844,0,3,55,,,,0,4,4,4,4,4,4,4,4,4,4,4,4,4,4,100,,,,,,,,,,,,,,,,,,,,,,,,,,,,,,,,,,,,,,,,,,,,,,,,,,,,,,,,,,,,,,,,,,,,,,,,,,,,,,,,,,,,,,,,,,,,,,,,,,,,,,,,,,,,,,,,,,,,,,,,,,,,,,,,,,,,,,
1702361824,1702361824,22,0,4293.333496,4324.743652,4312.563965,4313.846191,4304.871582,4313.205078,4309.743652,4311.282227,4293.205078,4272.94873,4494.743652,4476.153809,4514.871582,4425.384766,0,3,55,,,,0,4,4,4,4,4,4,4,4,4,4,4,4,4,4,100,,,,,,,,,,,,,,,,,,,,,,,,,,,,,,,,,,,,,,,,,,,,,,,,,,,,,,,,,,,,,,,,,,,,,,,,,,,,,,,,,,,,,,,,,,,,,,,,,,,,,,,,,,,,,,,,,,,,,,,,,,,,,,,,,,,,,,
1702361824,1702361824,23,0,4298.846191,4320.769043,4306.922852,4309.230957,4307.563965,4309.487305,4302.436035,4311.538574,4292.563965,4280,4491.153809,4472.307617,4505,4424.102539,0,3,55,,,,0,4,4,4,4,4,4,4,4,4,4,4,4,4,4,100,,,,,,,,,,,,,,,,,,,,,,,,,,,,,,,,,,,,,,,,,,,,,,,,,,,,,,,,,,,,,,,,,1.577477,2.368581,1.13577,0.393761,0.282304,4.562406,1.920005,1.243571,0.518631,0.394338,1.709606,2.6227,1.359722,0.461932,0.23029,5.479852,2.854406,1.500422,0.460862,0.24673,0.79282,0.925638,0.645838,0.598302,0.827298,0.25798,0.158939,0.09361,0.075128,0.072613,0.592946,0.987097,0.251671,0.191381,0.116282,0.357493,0.654985,0.421402,0.153404,0.112286,0.684191,0.93595,0.46819,0.292046,0.211,1.135481,0.997757,0.887908,0.626914,0.666493,4.208888,2.781178,2.680887,1.022506,0.409543,2.329413,3.589698,2.010944,0.547015,0.327578,64.649857,31.32258,60.784111,3.446372,0.848601,1.883167,2.976807,1.747903,0.688275,0.283589
1702361824,1702361824,24,0,4308.589844,4332.05127,4315.384766,4319.102539,4306.282227,4305.897461,4302.563965,4318.077148,4296.538574,4294.230957,4508.589844,4484.230957,4504.871582,4434.102539,0,3,55,,,,0,4,4,4,4,4,4,4,4,4,4,4,4,4,4,100,,,,,,,,,,,,,,,,,6,0,0.674556,-0.171448,-0.69751,0.170471,0.885362,-0.437065,-0.079111,-24.38903,-16.871296,94.072136,,,,,,,,,,,,,,,,,,,,,,,,,,,,,,,,,,,,,,,,,,,,,,,,,,,,,,,,,,,,,,,,,,,,,,,,,,,,,,,,,,,,,,,,,,,,,,,,,,,,,,,,,,
1702361824,1702361824,25,0,4311.538574,4343.077148,4330.769043,4332.820313,4311.410156,4305.897461,4304.102539,4321.025879,4296.410156,4293.077148,4519.102539,4497.692383,4498.974121,4449.102539,0,3,55,,,,0,4,4,4,4,4,4,4,4,4,4,4,4,4,4,100,,,,,,,,,,,,,,,,,,,,,,,,,,,,,,,,,,,,,,,,,,,,,,,,,,,,,,,,,,,,,,,,,,,,,,,,,,,,,,,,,,,,,,,,,,,,,,,,,,,,,,,,,,,,,,,,,,,,,,,,,,,,,,,,,,,,,,
1702361824,1702361824,26,0,4312.05127,4333.974121,4333.077148,4335.128418,4307.563965,4305.897461,4296.794922,4315.128418,4293.077148,4281.025879,4512.436035,4499.487305,4487.692383,4452.436035,0,3,55,,,,0,4,4,4,4,4,4,4,4,4,4,4,4,4,4,100,,,,,,,,,,,,,,,,,,,,,,,,,,,,,,,,,,,,,,,,,,,,,,,,,,,,,,,,,,,,,,,,,,,,,,,,,,,,,,,,,,,,,,,,,,,,,,,,,,,,,,,,,,,,,,,,,,,,,,,,,,,,,,,,,,,,,,
1702361824,1702361824,27,0,4311.794922,4324.102539,4324.358887,4331.282227,4307.692383,4302.94873,4291.538574,4310.128418,4293.333496,4289.102539,4503.974121,4493.333496,4488.717773,4443.846191,0,3,55,,,,0,4,4,4,4,4,4,4,4,4,4,4,4,4,4,100,,,,,,,,,,,,,,,,,,,,,,,,,,,,,,,,,,,,,,,,,,,,,,,,,,,,,,,,,,,,,,,,,,,,,,,,,,,,,,,,,,,,,,,,,,,,,,,,,,,,,,,,,,,,,,,,,,,,,,,,,,,,,,,,,,,,,,
1702361824,1702361824,28,0,4311.922852,4331.922852,4323.717773,4336.282227,4315.256348,4305.128418,4294.230957,4311.666504,4295.769043,4296.794922,4506.794922,4493.461426,4508.461426,4442.820313,0,3,55,,,,0,4,4,4,4,4,4,4,4,4,4,4,4,4,4,100,,,,,,,,,,,,,,,,,7,0,0.674682,-0.17157,-0.697388,0.170349,0.884874,-0.439507,-0.081553,-24.400127,-16.900833,94.064919,,,,,,,,,,,,,,,,,,,,,,,,,,,,,,,,,,,,,,,,,,,,,,,,,,,,,,,,,,,,,,,,,,,,,,,,,,,,,,,,,,,,,,,,,,,,,,,,,,,,,,,,,,
1702361824,1702361824,29,0,4311.282227,4337.179688,4328.974121,4345.384766,4302.563965,4306.794922,4295.641113,4311.538574,4293.205078,4287.05127,4511.025879,4497.436035,4532.179688,4445.512695,0,3,55,,,,0,4,4,4,4,4,4,4,4,4,4,4,4,4,4,100,,,,,,,,,,,,,,,,,,,,,,,,,,,,,,,,,,,,,,,,,,,,,,,,,,,,,,,,,,,,,,,,,,,,,,,,,,,,,,,,,,,,,,,,,,,,,,,,,,,,,,,,,,,,,,,,,,,,,,,,,,,,,,,,,,,,,,
1702361824,1702361824,30,0,4312.692383,4332.94873,4325.897461,4344.358887,4294.230957,4301.666504,4294.358887,4310.384766,4290.641113,4285.256348,4507.692383,4495.512695,4548.974121,4440.641113,0,3,55,,,,0,4,4,4,4,4,4,4,4,4,4,4,4,4,4,100,,,,,,,,,,,,,,,,,,,,,,,,,,,,,,,,,,,,,,,,,,,,,,,,,,,,,,,,,,,,,,,,,,,,,,,,,,,,,,,,,,,,,,,,,,,,,,,,,,,,,,,,,,,,,,,,,,,,,,,,,,,,,,,,,,,,,,
1702361824,1702361824,31,0,4311.410156,4331.538574,4325.769043,4341.153809,4308.333496,4300.897461,4295.128418,4308.974121,4291.794922,4290.384766,4508.077148,4490.897461,4556.410156,4435,0,3,55,,,,0,4,4,4,4,4,4,4,4,4,4,4,4,4,4,100,,,,,,,,,,,,,,,,,,,,,,,,,,,,,,,,,,,,,,,,,,,,,,,,,,,,,,,,,,,,,,,,,,,,,,,,,,,,,,,,,,,,,,,,,,,,,,,,,,,,,,,,,,,,,,,,,,,,,,,,,,,,,,,,,,,,,,
1702361824,1702361824,32,0,4300.897461,4323.077148,4326.410156,4342.563965,4311.538574,4298.205078,4294.230957,4306.410156,4284.743652,4279.230957,4504.743652,4483.077148,4549.230957,4430.256348,0,3,55,,,,0,4,4,4,4,4,4,4,4,4,4,4,4,4,4,100,,,,,,,,,,,,,,,,,8,0,0.674841,-0.171936,-0.697144,0.170349,0.873153,-0.425833,-0.083018,-24.460114,-16.844082,94.25843,,,,,,,,,,,,,,,,,,,,,,,,,,,,,,,,,,,,,,,,,,,,,,,,,,,,,,,,,,,,,,,,,,,,,,,,,,,,,,,,,,,,,,,,,,,,,,,,,,,,,,,,,,
1702361824,1702361824,33,0,4298.846191,4312.179688,4320.512695,4341.666504,4301.282227,4296.410156,4293.205078,4307.563965,4279.487305,4273.077148,4492.820313,4477.05127,4533.846191,4425.897461,0,3,55,,,,0,4,4,4,4,4,4,4,4,4,4,4,4,4,4,100,,,,,,,,,,,,,,,,,,,,,,,,,,,,,,,,,,,,,,,,,,,,,,,,,,,,,,,,,,,,,,,,,,,,,,,,,,,,,,,,,,,,,,,,,,,,,,,,,,,,,,,,,,,,,,,,,,,,,,,,,,,,,,,,,,,,,,
1702361824,1702361824,34,0,4303.461426,4317.94873,4320.769043,4344.102539,4301.922852,4304.615234,4296.410156,4310.384766,4288.974121,4282.05127,4490.769043,4477.563965,4524.230957,4426.538574,0,3,55,,,,0,4,4,4,4,4,4,4,4,4,4,4,4,4,4,100,,,,,,,,,,,,,,,,,,,,,,,,,,,,,,,,,,,,,,,,,,,,,,,,,,,,,,,,,,,,,,,,,,,,,,,,,,,,,,,,,,,,,,,,,,,,,,,,,,,,,,,,,,,,,,,,,,,,,,,,,,,,,,,,,,,,,,
1702361824,1702361824,35,0,4298.974121,4320.769043,4326.282227,4348.974121,4309.743652,4303.717773,4296.794922,4309.871582,4296.410156,4282.94873,4492.05127,4478.461426,4512.307617,4427.94873,0,3,55,,,,0,4,4,4,4,4,4,4,4,4,4,4,4,4,4,100,,,,,,,,,,,,,,,,,,,,,,,,,,,,,,,,,,,,,,,,,,,,,,,,,,,,,,,,,,,,,,,,,,,,,,,,,,,,,,,,,,,,,,,,,,,,,,,,,,,,,,,,,,,,,,,,,,,,,,,,,,,,,,,,,,,,,,
1702361824,1702361824,36,0,4299.230957,4310,4328.333496,4350.897461,4310,4292.692383,4293.205078,4310.384766,4295.897461,4281.282227,4492.307617,4480.128418,4502.179688,4426.153809,0,3,55,,,,0,4,4,4,4,4,4,4,4,4,4,4,4,4,4,100,,,,,,,,,,,,,,,,,9,0,0.67495,-0.172302,-0.697021,0.170044,0.888292,-0.428275,-0.086436,-24.397436,-16.743008,94.332588,,,,,,,,,,,,,,,,,,,,,,,,,,,,,,,,,,,,,,,,,,,,,,,,,,,,,,,,,,,,,,,,,,,,,,,,,,,,,,,,,,,,,,,,,,,,,,,,,,,,,,,,,,
1702361824,1702361824,37,0,4310.769043,4312.05127,4328.717773,4353.205078,4299.102539,4292.820313,4293.077148,4314.487305,4296.922852,4284.102539,4503.205078,4488.205078,4510.641113,4429.358887,0,3,55,,,,0,4,4,4,4,4,4,4,4,4,4,4,4,4,4,100,,,,,,,,,,,,,,,,,,,,,,,,,,,,,,,,,,,,,,,,,,,,,,,,,,,,,,,,,,,,,,,,,,,,,,,,,,,,,,,,,,,,,,,,,,,,,,,,,,,,,,,,,,,,,,,,,,,,,,,,,,,,,,,,,,,,,,
1702361824,1702361824,38,0,4307.307617,4320.128418,4327.563965,4350.769043,4289.615234,4299.358887,4294.230957,4313.589844,4296.794922,4282.94873,4508.846191,4493.205078,4524.871582,4435.128418,0,3,55,,,,0,4,4,4,4,4,4,4,4,4,4,4,4,4,4,100,,,,,,,,,,,,,,,,,,,,,,,,,,,,,,,,,,,,,,,,,,,,,,,,,,,,,,,,,,,,,,,,,,,,,,,,,,,,,,,,,,,,,,,,,,,,,,,,,,,,,,,,,,,,,,,,,,,,,,,,,,,,,,,,,,,,,,
1702361824,1702361824,39,0,4297.692383,4314.230957,4324.102539,4345.384766,4299.358887,4298.461426,4292.820313,4310.641113,4293.077148,4282.94873,4500.769043,4491.666504,4536.922852,4432.05127,0,3,55,,,,0,4,4,4,4,4,4,4,4,4,4,4,4,4,4,100,,,,,,,,,,,,,,,,,,,,,,,,,,,,,,,,,,,,,,,,,,,,,,,,,,,,,,,,,,,,,,,,,1.982231,2.293684,1.098129,0.400607,0.299564,4.988882,1.934205,1.409088,0.521576,0.410781,2.344783,2.599361,1.35155,0.43015,0.211372,4.654644,2.827068,1.559853,0.469968,0.259064,1.093994,0.915102,0.537899,0.543802,0.820838,0.317634,0.216694,0.090551,0.075977,0.07275,0.764324,1.073969,0.25561,0.194095,0.103121,0.41754,0.816035,0.457738,0.1317,0.11271,0.805809,1.135096,0.524891,0.286093,0.192384,1.377005,1.22817,0.859234,0.59449,0.594204,4.420248,3.17751,3.1293,0.887434,0.419401,3.130085,3.46463,1.981706,0.513204,0.333803,39.392353,26.832747,58.526173,2.463949,0.801227,2.55344,2.794469,1.600752,0.587837,0.292808
1702361824,1702361824,40,0,4303.205078,4310.769043,4324.871582,4352.05127,4314.102539,4296.025879,4298.205078,4312.563965,4294.871582,4281.666504,4500.641113,4491.794922,4552.563965,4429.230957,0,3,55,,,,0,4,4,4,4,4,4,4,4,4,4,4,4,4,4,100,,,,,,,,,,,,,,,,,10,0,0.675028,-0.172424,-0.69696,0.169861,0.887804,-0.434623,-0.076181,-24.291025,-16.835373,94.215996,,,,,,,,,,,,,,,,,,,,,,,,,,,,,,,,,,,,,,,,,,,,,,,,,,,,,,,,,,,,,,,,,,,,,,,,,,,,,,,,,,,,,,,,,,,,,,,,,,,,,,,,,,
1702361824,1702361824,41,0,4305.128418,4316.025879,4326.922852,4361.025879,4310.769043,4297.563965,4306.153809,4313.846191,4293.846191,4267.179688,4507.94873,4492.94873,4561.153809,4431.282227,0,3,55,,,,0,4,4,4,4,4,4,4,4,4,4,4,4,4,4,100,,,,,,,,,,,,,,,,,,,,,,,,,,,,,,,,,,,,,,,,,,,,,,,,,,,,,,,,,,,,,,,,,,,,,,,,,,,,,,,,,,,,,,,,,,,,,,,,,,,,,,,,,,,,,,,,,,,,,,,,,,,,,,,,,,,,,,
1702361824,1702361824,42,0,4302.436035,4319.230957,4326.153809,4358.205078,4298.717773,4299.487305,4302.05127,4310.128418,4283.717773,4259.230957,4507.05127,4493.461426,4555.641113,4430.769043,0,3,55,,,,0,4,4,4,4,4,4,4,4,4,4,4,4,4,4,100,,,,,,,,,,,,,,,,,,,,,,,,,,,,,,,,,,,,,,,,,,,,,,,,,,,,,,,,,,,,,,,,,,,,,,,,,,,,,,,,,,,,,,,,,,,,,,,,,,,,,,,,,,,,,,,,,,,,,,,,,,,,,,,,,,,,,,
1702361824,1702361824,43,0,4303.205078,4312.179688,4327.692383,4356.153809,4299.487305,4300.256348,4293.205078,4306.410156,4277.436035,4273.846191,4496.666504,4492.307617,4537.179688,4428.205078,0,3,55,,,,0,4,4,4,4,4,4,4,4,4,4,4,4,4,4,100,,,,,,,,,,,,,,,,,,,,,,,,,,,,,,,,,,,,,,,,,,,,,,,,,,,,,,,,,,,,,,,,,,,,,,,,,,,,,,,,,,,,,,,,,,,,,,,,,,,,,,,,,,,,,,,,,,,,,,,,,,,,,,,,,,,,,,
1702361824,1702361824,44,0,4297.820313,4297.820313,4326.025879,4359.102539,4306.153809,4294.871582,4293.333496,4307.436035,4282.94873,4276.282227,4486.153809,4489.230957,4509.615234,4424.487305,0,3,55,,,,0,4,4,4,4,4,4,4,4,4,4,4,4,4,4,100,,,,,,,,,,,,,,,,,11,0,0.675027,-0.172363,-0.697021,0.169678,0.886339,-0.430717,-0.062019,-24.145256,-16.835169,94.194397,,,,,,,,,,,,,,,,,,,,,,,,,,,,,,,,,,,,,,,,,,,,,,,,,,,,,,,,,,,,,,,,,,,,,,,,,,,,,,,,,,,,,,,,,,,,,,,,,,,,,,,,,,
1702361824,1702361824,45,0,4292.179688,4298.717773,4321.282227,4358.589844,4307.179688,4293.461426,4295.641113,4310.512695,4291.153809,4268.461426,4492.307617,4488.205078,4496.538574,4428.461426,0,3,55,,,,0,4,4,4,4,4,4,4,4,4,4,4,4,4,4,100,,,,,,,,,,,,,,,,,,,,,,,,,,,,,,,,,,,,,,,,,,,,,,,,,,,,,,,,,,,,,,,,,,,,,,,,,,,,,,,,,,,,,,,,,,,,,,,,,,,,,,,,,,,,,,,,,,,,,,,,,,,,,,,,,,,,,,
1702361824,1702361824,46,0,4298.333496,4308.589844,4320.512695,4356.794922,4306.410156,4300.256348,4296.153809,4312.05127,4293.461426,4279.487305,4507.05127,4487.05127,4505.512695,4438.846191,0,3,55,,,,0,4,4,4,4,4,4,4,4,4,4,4,4,4,4,100,,,,,,,,,,,,,,,,,,,,,,,,,,,,,,,,,,,,,,,,,,,,,,,,,,,,,,,,,,,,,,,,,,,,,,,,,,,,,,,,,,,,,,,,,,,,,,,,,,,,,,,,,,,,,,,,,,,,,,,,,,,,,,,,,,,,,,
1702361824,1702361824,47,0,4303.589844,4296.282227,4325.256348,4357.179688,4304.358887,4300.256348,4297.05127,4311.282227,4293.589844,4288.461426,4515.897461,4491.410156,4518.461426,4447.820313,0,3,55,,,,0,4,4,4,4,4,4,4,4,4,4,4,4,4,4,100,,,,,,,,,,,,,,,,,,,,,,,,,,,,,,,,,,,,,,,,,,,,,,,,,,,,,,,,,,,,,,,,,,,,,,,,,,,,,,,,,,,,,,,,,,,,,,,,,,,,,,,,,,,,,,,,,,,,,,,,,,,,,,,,,,,,,,
1702361824,1702361824,48,0,4308.205078,4279.358887,4334.102539,4359.615234,4303.717773,4293.717773,4297.307617,4310.128418,4294.615234,4284.615234,4529.230957,4506.153809,4546.282227,4462.820313,0,3,55,,,,0,4,4,4,4,4,4,4,4,4,4,4,4,4,4,100,,,,,,,,,,,,,,,,,12,0,0.675028,-0.172546,-0.69696,0.169739,0.885362,-0.438042,-0.08253,-24.297398,-17.101652,94.224953,,,,,,,,,,,,,,,,,,,,,,,,,,,,,,,,,,,,,,,,,,,,,,,,,,,,,,,,,,,,,,,,,,,,,,,,,,,,,,,,,,,,,,,,,,,,,,,,,,,,,,,,,,
1702361824,1702361824,49,0,4321.153809,4279.487305,4340.128418,4358.589844,4300.512695,4295.769043,4297.05127,4310.769043,4295.641113,4289.487305,4543.846191,4514.358887,4592.94873,4480.256348,0,3,55,,,,0,4,4,4,4,4,4,4,4,4,4,4,4,4,4,100,,,,,,,,,,,,,,,,,,,,,,,,,,,,,,,,,,,,,,,,,,,,,,,,,,,,,,,,,,,,,,,,,,,,,,,,,,,,,,,,,,,,,,,,,,,,,,,,,,,,,,,,,,,,,,,,,,,,,,,,,,,,,,,,,,,,,,
1702361824,1702361824,50,0,4323.333496,4272.05127,4337.692383,4356.282227,4284.102539,4299.102539,4297.436035,4312.179688,4295.128418,4293.717773,4540.128418,4508.205078,4620.128418,4476.153809,0,3,55,,,,0,4,4,4,4,4,4,4,4,4,4,4,4,4,4,100,,,,,,,,,,,,,,,,,,,,,,,,,,,,,,,,,,,,,,,,,,,,,,,,,,,,,,,,,,,,,,,,,,,,,,,,,,,,,,,,,,,,,,,,,,,,,,,,,,,,,,,,,,,,,,,,,,,,,,,,,,,,,,,,,,,,,,
1702361824,1702361824,51,0,4317.692383,4258.846191,4336.666504,4360.256348,4273.717773,4296.538574,4296.794922,4311.282227,4294.358887,4291.153809,4533.974121,4510.256348,4624.358887,4464.615234,0,3,55,,,,0,4,4,4,4,4,4,4,4,4,4,4,4,4,4,100,,,,,,,,,,,,,,,,,,,,,,,,,,,,,,,,,,,,,,,,,,,,,,,,,,,,,,,,,,,,,,,,,,,,,,,,,,,,,,,,,,,,,,,,,,,,,,,,,,,,,,,,,,,,,,,,,,,,,,,,,,,,,,,,,,,,,,
1702361824,1702361824,52,0,4320.897461,4265,4344.102539,4367.436035,4291.538574,4300.512695,4298.077148,4312.692383,4296.153809,4295.769043,4541.538574,4522.820313,4631.666504,4474.358887,0,3,55,,,,0,4,4,4,4,4,4,4,4,4,4,4,4,4,4,100,,,,,,,,,,,,,,,,,13,0,0.674887,-0.172791,-0.697021,0.1698,0.894152,-0.432182,-0.069833,-24.467657,-17.008154,94.252457,,,,,,,,,,,,,,,,,,,,,,,,,,,,,,,,,,,,,,,,,,,,,,,,,,,,,,,,,,,,,,,,,,,,,,,,,,,,,,,,,,,,,,,,,,,,,,,,,,,,,,,,,,
1702361824,1702361824,53,0,4319.871582,4271.666504,4346.153809,4368.846191,4302.94873,4304.871582,4297.692383,4318.077148,4298.077148,4298.205078,4543.717773,4525.512695,4627.179688,4481.025879,0,3,55,,,,0,4,4,4,4,4,4,4,4,4,4,4,4,4,4,100,,,,,,,,,,,,,,,,,,,,,,,,,,,,,,,,,,,,,,,,,,,,,,,,,,,,,,,,,,,,,,,,,,,,,,,,,,,,,,,,,,,,,,,,,,,,,,,,,,,,,,,,,,,,,,,,,,,,,,,,,,,,,,,,,,,,,,
1702361824,1702361824,54,0,4311.666504,4266.666504,4341.153809,4365.769043,4294.102539,4297.820313,4296.025879,4320.512695,4298.077148,4290.512695,4541.410156,4523.461426,4601.794922,4475.128418,0,3,55,,,,0,4,4,4,4,4,4,4,4,4,4,4,4,4,4,100,,,,,,,,,,,,,,,,,,,,,,,,,,,,,,,,,,,,,,,,,,,,,,,,,,,,,,,,,,,,,,,,,,,,,,,,,,,,,,,,,,,,,,,,,,,,,,,,,,,,,,,,,,,,,,,,,,,,,,,,,,,,,,,,,,,,,,
1702361824,1702361824,55,0,4311.666504,4262.692383,4340.641113,4366.922852,4295.641113,4295.512695,4299.615234,4322.179688,4297.94873,4285,4539.230957,4523.461426,4582.05127,4476.666504,0,3,55,,,,0,4,4,4,4,4,4,4,4,4,4,4,4,4,4,100,1,75,4,4,4,4,4,4,4,4,4,4,4,4,1,4,,,,,,,,,,,,,,,,,,,,,,,,,,,,,,,,,,,,,,,,,,,,,,,,,2.370941,2.15384,1.097561,0.428999,0.334165,5.867304,1.99072,1.647481,0.530739,0.44005,3.003175,2.496591,1.302614,0.373984,0.20006,4.337606,2.701947,1.582169,0.452497,0.279801,1.389398,0.951161,0.442112,0.498,0.786821,0.375823,0.293013,0.089193,0.078934,0.075932,0.952943,1.20603,0.253005,0.202807,0.097523,0.51135,0.96666,0.466586,0.108959,0.109584,0.952677,1.282675,0.550566,0.265272,0.174438,1.655226,1.462808,0.78959,0.535932,0.526859,4.687735,3.709267,3.486614,0.734213,0.411618,3.898155,3.20642,1.872968,0.442227,0.343511,25.786547,27.488625,59.011944,1.931898,0.785903,3.101037,2.532739,1.44573,0.489348,0.313785
1702361824,1702361824,56,0,4310.641113,4263.333496,4336.922852,4368.077148,4303.846191,4298.974121,4302.94873,4321.666504,4296.794922,4281.794922,4528.205078,4515.512695,4574.871582,4473.717773,0,3,55,,,,0,4,4,4,4,4,4,4,4,4,4,4,4,4,4,100,,,,,,,,,,,,,,,,,14,0,0.674934,-0.172913,-0.69696,0.169739,0.88878,-0.43267,-0.081065,-24.520891,-17.024006,94.143883,,,,,,,,,,,,,,,,,,,,,,,,,,,,,,,,,,,,,,,,,,,,,,,,,,,,,,,,,,,,,,,,,,,,,,,,,,,,,,,,,,,,,,,,,,,,,,,,,,,,,,,,,,
1702361824,1702361824,57,0,4305.512695,4261.794922,4330,4362.820313,4293.717773,4295.128418,4302.436035,4315.256348,4296.666504,4277.563965,4521.666504,4505,4579.871582,4463.077148,0,3,55,,,,0,4,4,4,4,4,4,4,4,4,4,4,4,4,4,100,,,,,,,,,,,,,,,,,,,,,,,,,,,,,,,,,,,,,,,,,,,,,,,,,,,,,,,,,,,,,,,,,,,,,,,,,,,,,,,,,,,,,,,,,,,,,,,,,,,,,,,,,,,,,,,,,,,,,,,,,,,,,,,,,,,,,,
1702361824,1702361824,58,0,4307.05127,4260.384766,4327.563965,4356.794922,4279.358887,4293.077148,4301.282227,4311.153809,4295.128418,4281.538574,4528.077148,4500.641113,4607.436035,4458.589844,0,3,55,,,,0,4,4,4,4,4,4,4,4,4,4,4,4,4,4,100,,,,,,,,,,,,,,,,,,,,,,,,,,,,,,,,,,,,,,,,,,,,,,,,,,,,,,,,,,,,,,,,,,,,,,,,,,,,,,,,,,,,,,,,,,,,,,,,,,,,,,,,,,,,,,,,,,,,,,,,,,,,,,,,,,,,,,
1702361824,1702361824,59,0,4297.436035,4257.179688,4316.410156,4353.077148,4276.153809,4295.256348,4298.846191,4312.179688,4285.897461,4278.333496,4521.666504,4485.256348,4628.077148,4446.794922,0,3,55,,,,0,4,4,4,4,4,4,4,4,4,4,4,4,4,4,100,,,,,,,,,,,,,,,,,,,,,,,,,,,,,,,,,,,,,,,,,,,,,,,,,,,,,,,,,,,,,,,,,,,,,,,,,,,,,,,,,,,,,,,,,,,,,,,,,,,,,,,,,,,,,,,,,,,,,,,,,,,,,,,,,,,,,,
1702361824,1702361824,60,0,4279.230957,4243.717773,4295.641113,4345,4279.102539,4290.384766,4295.384766,4307.307617,4276.282227,4254.871582,4502.179688,4466.025879,4620.641113,4425.512695,0,3,55,,,,0,4,4,4,4,4,4,4,4,4,4,4,4,4,4,100,,,,,,,,,,,,,,,,,15,0,0.674918,-0.173035,-0.69696,0.169678,0.873642,-0.434623,-0.083506,-24.435469,-16.954939,94.129494,,,,,,,,,,,,,,,,,,,,,,,,,,,,,,,,,,,,,,,,,,,,,,,,,,,,,,,,,,,,,,,,,,,,,,,,,,,,,,,,,,,,,,,,,,,,,,,,,,,,,,,,,,
1702361824,1702361824,61,0,4276.922852,4235.512695,4293.461426,4338.589844,4282.94873,4291.666504,4297.179688,4301.538574,4275.897461,4244.230957,4499.743652,4466.666504,4615.897461,4422.563965,0,3,55,,,,0,4,4,4,4,4,4,4,4,4,4,4,4,4,4,100,,,,,,,,,,,,,,,,,,,,,,,,,,,,,,,,,,,,,,,,,,,,,,,,,,,,,,,,,,,,,,,,,,,,,,,,,,,,,,,,,,,,,,,,,,,,,,,,,,,,,,,,,,,,,,,,,,,,,,,,,,,,,,,,,,,,,,
1702361824,1702361824,62,0,4281.666504,4245.128418,4306.410156,4344.743652,4281.153809,4296.922852,4298.077148,4302.436035,4278.974121,4264.230957,4506.794922,4475.512695,4618.077148,4431.410156,0,3,55,,,,0,4,4,4,4,4,4,4,4,4,4,4,4,4,4,100,,,,,,,,,,,,,,,,,,,,,,,,,,,,,,,,,,,,,,,,,,,,,,,,,,,,,,,,,,,,,,,,,,,,,,,,,,,,,,,,,,,,,,,,,,,,,,,,,,,,,,,,,,,,,,,,,,,,,,,,,,,,,,,,,,,,,,
1702361824,1702361824,63,0,4282.05127,4252.692383,4308.205078,4350.641113,4279.615234,4289.615234,4288.846191,4299.615234,4277.94873,4271.153809,4505.897461,4474.487305,4605.641113,4430.256348,0,3,55,,,,0,4,4,4,4,4,4,4,4,4,4,4,4,4,4,100,,,,,,,,,,,,,,,,,,,,,,,,,,,,,,,,,,,,,,,,,,,,,,,,,,,,,,,,,,,,,,,,,,,,,,,,,,,,,,,,,,,,,,,,,,,,,,,,,,,,,,,,,,,,,,,,,,,,,,,,,,,,,,,,,,,,,,
1702361824,1702361824,64,0,4291.282227,4253.974121,4306.794922,4351.025879,4288.205078,4284.358887,4280.512695,4293.974121,4273.461426,4253.461426,4504.102539,4472.563965,4593.205078,4432.94873,5397,3,55,,,,0,4,4,4,4,4,4,4,4,4,4,4,4,4,4,100,,,,,,,,,,,,,,,,,16,0,0.67498,-0.173279,-0.696899,0.169434,0.870712,-0.443413,-0.0796,-24.408588,-17.026112,94.149879,,,,,,,,,,,,,,,,,,,,,,,,,,,,,,,,,,,,,,,,,,,,,,,,,,,,,,,,,,,,,,,,,,,,,,,,,,,,,,,,,,,,,,,,,,,,,,,,,,,,,,,,,,
1702361824,1702361824,65,0,4301.410156,4259.743652,4315.641113,4353.974121,4292.692383,4287.436035,4279.615234,4293.333496,4272.692383,4255.128418,4506.794922,4477.307617,4597.692383,4441.794922,5507,3,55,,,,0,4,4,4,4,4,4,4,4,4,4,4,4,4,4,100,,,,,,,,,,,,,,,,,,,,,,,,,,,,,,,,,,,,,,,,,,,,,,,,,,,,,,,,,,,,,,,,,,,,,,,,,,,,,,,,,,,,,,,,,,,,,,,,,,,,,,,,,,,,,,,,,,,,,,,,,,,,,,,,,,,,,,
1702361824,1702361824,66,0,4299.102539,4260.769043,4322.94873,4357.563965,4286.922852,4285,4281.794922,4298.077148,4278.589844,4269.102539,4513.205078,4485.512695,4609.487305,4444.743652,5412,3,55,,,,0,4,4,4,4,4,4,4,4,4,4,4,4,4,4,100,,,,,,,,,,,,,,,,,,,,,,,,,,,,,,,,,,,,,,,,,,,,,,,,,,,,,,,,,,,,,,,,,,,,,,,,,,,,,,,,,,,,,,,,,,,,,,,,,,,,,,,,,,,,,,,,,,,,,,,,,,,,,,,,,,,,,,
1702361824,1702361824,67,0,4298.589844,4256.410156,4327.307617,4358.077148,4281.282227,4279.871582,4282.05127,4304.487305,4281.410156,4265.897461,4520.256348,4494.358887,4619.102539,4446.153809,5457,3,55,,,,0,4,4,4,4,4,4,4,4,4,4,4,4,4,4,100,,,,,,,,,,,,,,,,,,,,,,,,,,,,,,,,,,,,,,,,,,,,,,,,,,,,,,,,,,,,,,,,,,,,,,,,,,,,,,,,,,,,,,,,,,,,,,,,,,,,,,,,,,,,,,,,,,,,,,,,,,,,,,,,,,,,,,
1702361824,1702361824,68,0,4300.641113,4260.641113,4332.820313,4358.205078,4272.94873,4281.538574,4282.05127,4307.307617,4277.820313,4261.538574,4521.538574,4495.384766,4620.256348,4446.282227,5362,3,55,,,,0,4,4,4,4,4,4,4,4,4,4,4,4,4,4,100,,,,,,,,,,,,,,,,,17,0,0.675277,-0.173706,-0.696594,0.169067,0.87999,-0.44732,-0.085948,-24.484398,-16.973499,94.184891,,,,,,,,,,,,,,,,,,,,,,,,,,,,,,,,,,,,,,,,,,,,,,,,,,,,,,,,,,,,,,,,,,,,,,,,,,,,,,,,,,,,,,,,,,,,,,,,,,,,,,,,,,
1702361824,1702361824,69,0,4296.410156,4259.230957,4331.922852,4357.94873,4261.153809,4282.692383,4281.794922,4304.871582,4277.94873,4266.922852,4515.512695,4490.512695,4614.230957,4438.717773,5459,3,55,,,,0,4,4,4,4,4,4,4,4,4,4,4,4,4,4,100,,,,,,,,,,,,,,,,,,,,,,,,,,,,,,,,,,,,,,,,,,,,,,,,,,,,,,,,,,,,,,,,,,,,,,,,,,,,,,,,,,,,,,,,,,,,,,,,,,,,,,,,,,,,,,,,,,,,,,,,,,,,,,,,,,,,,,
1702361824,1702361824,70,0,4292.820313,4250.897461,4324.743652,4353.461426,4264.230957,4279.743652,4278.974121,4302.307617,4279.487305,4266.538574,4506.025879,4489.487305,4612.94873,4428.461426,5375,3,55,,,,0,4,4,4,4,4,4,4,4,4,4,4,4,4,4,100,,,,,,,,,,,,,,,,,,,,,,,,,,,,,,,,,,,,,,,,,,,,,,,,,,,,,,,,,,,,,,,,,,,,,,,,,,,,,,,,,,,,,,,,,,,,,,,,,,,,,,,,,,,,,,,,,,,,,,,,,,,,,,,,,,,,,,
1702361824,1702361824,71,0,4295,4254.871582,4324.230957,4352.692383,4277.94873,4277.94873,4277.179688,4304.871582,4277.692383,4262.94873,4506.410156,4491.153809,4614.102539,4427.94873,3672,3,55,,,,0,4,4,4,4,4,4,4,4,4,4,4,4,4,4,100,,,,,,,,,,,,,,,,,,,,,,,,,,,,,,,,,,,,,,,,,,,,,,,,,,,,,,,,,,,,,,,,,2.610538,1.993094,1.093853,0.45448,0.372866,6.608412,2.021163,1.817524,0.534207,0.479267,3.44883,2.356604,1.190537,0.306703,0.196106,4.214455,2.496045,1.509687,0.410199,0.300923,1.597548,1.014055,0.367883,0.464924,0.741887,0.418056,0.373509,0.090715,0.084445,0.080263,1.100214,1.343079,0.242273,0.217442,0.101067,0.60148,1.056783,0.441677,0.088244,0.102857,1.063936,1.32566,0.537695,0.232589,0.160714,1.860721,1.607678,0.697351,0.473441,0.473473,4.767768,4.234985,3.687544,0.596912,0.392366,4.393291,2.93302,1.691193,0.349298,0.354378,19.509661,30.894176,59.049076,1.702146,0.8052,3.380389,2.290883,1.318322,0.406665,0.343023
1702361824,1702361824,72,0,4296.794922,4263.974121,4328.333496,4353.333496,4279.871582,4276.666504,4277.307617,4306.410156,4277.436035,4266.410156,4514.230957,4492.05127,4609.487305,4434.487305,4676,3,55,,,,0,4,4,4,4,4,4,4,4,4,4,4,4,4,4,100,,,,,,,,,,,,,,,,,18,0,0.675368,-0.174072,-0.696533,0.168579,0.898059,-0.442437,-0.074228,-24.402624,-17.042816,94.249733,,,,,,,,,,,,,,,,,,,,,,,,,,,,,,,,,,,,,,,,,,,,,,,,,,,,,,,,,,,,,,,,,,,,,,,,,,,,,,,,,,,,,,,,,,,,,,,,,,,,,,,,,,
1702361824,1702361824,73,0,4295.384766,4264.615234,4327.94873,4352.436035,4274.743652,4276.666504,4278.974121,4304.102539,4278.333496,4258.717773,4512.436035,4493.974121,4598.333496,4435.128418,5505,3,55,,,,0,4,4,4,4,4,4,4,4,4,4,4,4,4,4,100,,,,,,,,,,,,,,,,,,,,,,,,,,,,,,,,,,,,,,,,,,,,,,,,,,,,,,,,,,,,,,,,,,,,,,,,,,,,,,,,,,,,,,,,,,,,,,,,,,,,,,,,,,,,,,,,,,,,,,,,,,,,,,,,,,,,,,
1702361824,1702361824,74,0,4297.563965,4264.230957,4328.077148,4359.487305,4274.102539,4277.692383,4280.769043,4303.205078,4278.333496,4246.922852,4505.384766,4492.563965,4589.230957,4430,6001,3,55,,,,0,4,4,4,4,4,4,4,4,4,4,4,4,4,4,100,,,,,,,,,,,,,,,,,,,,,,,,,,,,,,,,,,,,,,,,,,,,,,,,,,,,,,,,,,,,,,,,,,,,,,,,,,,,,,,,,,,,,,,,,,,,,,,,,,,,,,,,,,,,,,,,,,,,,,,,,,,,,,,,,,,,,,
1702361824,1702361824,75,0,4298.077148,4266.282227,4327.820313,4365.128418,4277.563965,4278.589844,4281.282227,4304.230957,4275.128418,4250.641113,4506.666504,4481.153809,4598.974121,4428.077148,6118,3,55,,,,0,4,4,4,4,4,4,4,4,4,4,4,4,4,4,100,,,,,,,,,,,,,,,,,,,,,,,,,,,,,,,,,,,,,,,,,,,,,,,,,,,,,,,,,,,,,,,,,,,,,,,,,,,,,,,,,,,,,,,,,,,,,,,,,,,,,,,,,,,,,,,,,,,,,,,,,,,,,,,,,,,,,,
1702361824,1702361824,76,0,4294.230957,4265.769043,4325.128418,4360.384766,4277.179688,4278.717773,4283.717773,4303.589844,4271.666504,4250.512695,4507.563965,4477.307617,4620.256348,4427.436035,6481,3,55,,,,0,4,4,4,4,4,4,4,4,4,4,4,4,4,4,100,,,,,,,,,,,,,,,,,19,0,0.675429,-0.174316,-0.696472,0.168335,0.88292,-0.424857,-0.068856,-24.479029,-16.871868,94.158096,,,,,,,,,,,,,,,,,,,,,,,,,,,,,,,,,,,,,,,,,,,,,,,,,,,,,,,,,,,,,,,,,,,,,,,,,,,,,,,,,,,,,,,,,,,,,,,,,,,,,,,,,,
1702361824,1702361824,77,0,4297.436035,4265,4330.256348,4358.205078,4263.461426,4278.846191,4289.743652,4305.641113,4275.256348,4248.589844,4508.205078,4485,4637.307617,4424.871582,6668,3,55,,,,0,4,4,4,4,4,4,4,4,4,4,4,4,4,4,100,,,,,,,,,,,,,,,,,,,,,,,,,,,,,,,,,,,,,,,,,,,,,,,,,,,,,,,,,,,,,,,,,,,,,,,,,,,,,,,,,,,,,,,,,,,,,,,,,,,,,,,,,,,,,,,,,,,,,,,,,,,,,,,,,,,,,,
1702361824,1702361824,78,0,4304.230957,4266.282227,4338.077148,4362.820313,4258.589844,4280.256348,4292.307617,4310.384766,4280.384766,4263.461426,4519.358887,4483.589844,4659.743652,4430.512695,6001,3,55,,,,0,4,4,4,4,4,4,4,4,4,4,4,4,4,4,100,,,,,,,,,,,,,,,,,,,,,,,,,,,,,,,,,,,,,,,,,,,,,,,,,,,,,,,,,,,,,,,,,,,,,,,,,,,,,,,,,,,,,,,,,,,,,,,,,,,,,,,,,,,,,,,,,,,,,,,,,,,,,,,,,,,,,,
1702361824,1702361824,79,0,4298.717773,4263.846191,4333.974121,4359.102539,4278.846191,4280,4290.256348,4310.128418,4279.615234,4271.538574,4526.025879,4479.230957,4678.077148,4434.230957,6118,3,55,,,,0,4,4,4,4,4,4,4,4,4,4,4,4,4,4,100,,,,,,,,,,,,,,,,,,,,,,,,,,,,,,,,,,,,,,,,,,,,,,,,,,,,,,,,,,,,,,,,,,,,,,,,,,,,,,,,,,,,,,,,,,,,,,,,,,,,,,,,,,,,,,,,,,,,,,,,,,,,,,,,,,,,,,
1702361824,1702361824,80,0,4291.025879,4262.820313,4330.769043,4353.717773,4285.512695,4280.769043,4293.717773,4308.717773,4277.820313,4254.743652,4519.487305,4487.05127,4679.230957,4427.563965,6481,3,55,,,,0,4,4,4,4,4,4,4,4,4,4,4,4,4,4,100,,,,,,,,,,,,,,,,,20,0,0.675506,-0.174438,-0.696411,0.168152,0.8712,-0.44146,-0.072274,-24.481125,-16.784681,94.375618,,,,,,,,,,,,,,,,,,,,,,,,,,,,,,,,,,,,,,,,,,,,,,,,,,,,,,,,,,,,,,,,,,,,,,,,,,,,,,,,,,,,,,,,,,,,,,,,,,,,,,,,,,
1702361824,1702361824,81,0,4302.692383,4269.102539,4341.153809,4361.410156,4267.94873,4281.025879,4293.205078,4310.128418,4278.461426,4244.743652,4522.05127,4495.512695,4686.282227,4434.615234,6668,3,55,,,,0,4,4,4,4,4,4,4,4,4,4,4,4,4,4,100,,,,,,,,,,,,,,,,,,,,,,,,,,,,,,,,,,,,,,,,,,,,,,,,,,,,,,,,,,,,,,,,,,,,,,,,,,,,,,,,,,,,,,,,,,,,,,,,,,,,,,,,,,,,,,,,,,,,,,,,,,,,,,,,,,,,,,
1702361824,1702361824,82,0,4315.512695,4265,4345.512695,4362.820313,4271.666504,4278.717773,4284.871582,4307.05127,4278.461426,4255.897461,4535.641113,4493.846191,4705,4451.025879,6001,3,55,,,,0,4,4,4,4,4,4,4,4,4,4,4,4,4,4,100,,,,,,,,,,,,,,,,,,,,,,,,,,,,,,,,,,,,,,,,,,,,,,,,,,,,,,,,,,,,,,,,,,,,,,,,,,,,,,,,,,,,,,,,,,,,,,,,,,,,,,,,,,,,,,,,,,,,,,,,,,,,,,,,,,,,,,
1702361824,1702361824,83,0,4309.358887,4247.436035,4339.487305,4350.769043,4282.179688,4279.487305,4282.692383,4304.871582,4278.846191,4263.846191,4542.563965,4494.230957,4710,4451.282227,6118,3,55,,,,0,4,4,4,4,4,4,4,4,4,4,4,4,4,4,100,,,,,,,,,,,,,,,,,,,,,,,,,,,,,,,,,,,,,,,,,,,,,,,,,,,,,,,,,,,,,,,,,,,,,,,,,,,,,,,,,,,,,,,,,,,,,,,,,,,,,,,,,,,,,,,,,,,,,,,,,,,,,,,,,,,,,,
1702361824,1702361824,84,0,4303.846191,4246.282227,4341.922852,4347.563965,4269.487305,4280,4285.256348,4309.358887,4279.230957,4266.538574,4540.128418,4497.820313,4705,4444.102539,6481,3,55,,,,0,4,4,4,4,4,4,4,4,4,4,4,4,4,4,100,,,,,,,,,,,,,,,,,21,0,0.675535,-0.174255,-0.696472,0.167969,0.876083,-0.448785,-0.071786,-24.59968,-16.806213,94.521385,,,,,,,,,,,,,,,,,,,,,,,,,,,,,,,,,,,,,,,,,,,,,,,,,,,,,,,,,,,,,,,,,,,,,,,,,,,,,,,,,,,,,,,,,,,,,,,,,,,,,,,,,,
1702361824,1702361824,85,0,4306.794922,4257.820313,4342.692383,4354.230957,4268.333496,4278.461426,4281.794922,4306.410156,4276.794922,4266.794922,4534.358887,4496.410156,4705.641113,4445.512695,6668,3,55,,,,0,4,4,4,4,4,4,4,4,4,4,4,4,4,4,100,,,,,,,,,,,,,,,,,,,,,,,,,,,,,,,,,,,,,,,,,,,,,,,,,,,,,,,,,,,,,,,,,,,,,,,,,,,,,,,,,,,,,,,,,,,,,,,,,,,,,,,,,,,,,,,,,,,,,,,,,,,,,,,,,,,,,,
1702361824,1702361824,86,0,4302.563965,4259.743652,4333.205078,4355,4278.077148,4278.846191,4278.717773,4297.05127,4276.666504,4258.333496,4535,4490.769043,4709.230957,4448.333496,6001,3,55,,,,0,4,4,4,4,4,4,4,4,4,4,4,4,4,4,100,,,,,,,,,,,,,,,,,,,,,,,,,,,,,,,,,,,,,,,,,,,,,,,,,,,,,,,,,,,,,,,,,,,,,,,,,,,,,,,,,,,,,,,,,,,,,,,,,,,,,,,,,,,,,,,,,,,,,,,,,,,,,,,,,,,,,,
1702361824,1702361824,87,0,4295.384766,4254.102539,4326.282227,4347.692383,4262.179688,4275.769043,4277.563965,4295.512695,4275.128418,4248.461426,4536.922852,4482.692383,4711.794922,4441.538574,6118,3,55,,,,0,4,4,4,4,4,4,4,4,4,4,4,4,4,4,100,,,,,,,,,,,,,,,,,,,,,,,,,,,,,,,,,,,,,,,,,,,,,,,,,,,,,,,,,,,,,,,,,2.663358,1.840263,1.063719,0.457524,0.40087,6.855907,1.97303,1.817875,0.525506,0.519354,3.568529,2.206475,1.018925,0.246121,0.195693,4.03293,2.241193,1.331736,0.352618,0.313124,1.644003,1.063411,0.327429,0.443843,0.701686,0.421807,0.438705,0.096387,0.091635,0.084363,1.162097,1.433894,0.232493,0.234003,0.111155,0.668661,1.054068,0.383095,0.071936,0.093405,1.109124,1.243436,0.49352,0.194887,0.15105,1.953258,1.594208,0.612025,0.422579,0.438084,4.570535,4.548955,3.68559,0.499324,0.370636,4.510507,2.743993,1.459312,0.257992,0.362451,17.008661,34.006836,56.427208,1.619352,0.85171,3.457335,2.118013,1.24909,0.348591,0.373471
1702361824,1702361824,88,0,4292.05127,4249.615234,4321.025879,4342.436035,4251.282227,4268.077148,4269.358887,4296.666504,4266.922852,4251.282227,4526.410156,4471.025879,4708.205078,4430.128418,6481,3,55,,,,0,4,4,4,4,4,4,4,4,4,4,4,4,4,4,100,,,,,,,,,,,,,,,,,22,0,0.675516,-0.174194,-0.696594,0.167603,0.890245,-0.437553,-0.072274,-24.723045,-16.808926,94.469254,,,,,,,,,,,,,,,,,,,,,,,,,,,,,,,,,,,,,,,,,,,,,,,,,,,,,,,,,,,,,,,,,,,,,,,,,,,,,,,,,,,,,,,,,,,,,,,,,,,,,,,,,,
1702361824,1702361824,89,0,4285,4247.563965,4311.922852,4340.897461,4267.179688,4265.384766,4263.717773,4293.333496,4262.05127,4253.205078,4516.922852,4461.794922,4701.666504,4423.333496,6668,3,55,,,,0,4,4,4,4,4,4,4,4,4,4,4,4,4,4,100,,,,,,,,,,,,,,,,,,,,,,,,,,,,,,,,,,,,,,,,,,,,,,,,,,,,,,,,,,,,,,,,,,,,,,,,,,,,,,,,,,,,,,,,,,,,,,,,,,,,,,,,,,,,,,,,,,,,,,,,,,,,,,,,,,,,,,
1702361824,1702361824,90,0,4280.897461,4248.974121,4309.102539,4340.897461,4271.666504,4265.641113,4265.512695,4291.410156,4263.333496,4237.179688,4522.179688,4460.512695,4701.410156,4426.922852,6001,3,55,,,,0,4,4,4,4,4,4,4,4,4,4,4,4,4,4,100,,,,,,,,,,,,,,,,,,,,,,,,,,,,,,,,,,,,,,,,,,,,,,,,,,,,,,,,,,,,,,,,,,,,,,,,,,,,,,,,,,,,,,,,,,,,,,,,,,,,,,,,,,,,,,,,,,,,,,,,,,,,,,,,,,,,,,
1702361824,1702361824,91,0,4284.615234,4249.871582,4315.769043,4340.641113,4259.871582,4263.077148,4263.974121,4293.205078,4262.307617,4233.717773,4522.94873,4462.94873,4705,4431.410156,6118,3,55,,,,0,4,4,4,4,4,4,4,4,4,4,4,4,4,4,100,,,,,,,,,,,,,,,,,,,,,,,,,,,,,,,,,,,,,,,,,,,,,,,,,,,,,,,,,,,,,,,,,,,,,,,,,,,,,,,,,,,,,,,,,,,,,,,,,,,,,,,,,,,,,,,,,,,,,,,,,,,,,,,,,,,,,,
1702361824,1702361824,92,0,4288.461426,4249.743652,4322.692383,4340.897461,4261.794922,4261.666504,4260.897461,4293.333496,4260.128418,4244.871582,4516.153809,4467.436035,4714.230957,4428.333496,6481,3,55,,,,0,4,4,4,4,4,4,4,4,4,4,4,4,4,4,100,,,,,,,,,,,,,,,,,23,0,0.675482,-0.174133,-0.696716,0.167297,0.886827,-0.439018,-0.080576,-24.867407,-16.928032,94.538994,,,,,,,,,,,,,,,,,,,,,,,,,,,,,,,,,,,,,,,,,,,,,,,,,,,,,,,,,,,,,,,,,,,,,,,,,,,,,,,,,,,,,,,,,,,,,,,,,,,,,,,,,,
1702361824,1702361824,93,0,4294.230957,4252.94873,4325.897461,4344.102539,4264.358887,4262.179688,4264.871582,4293.974121,4261.666504,4241.025879,4519.358887,4474.615234,4724.358887,4426.538574,6668,3,55,,,,0,4,4,4,4,4,4,4,4,4,4,4,4,4,4,100,,,,,,,,,,,,,,,,,,,,,,,,,,,,,,,,,,,,,,,,,,,,,,,,,,,,,,,,,,,,,,,,,,,,,,,,,,,,,,,,,,,,,,,,,,,,,,,,,,,,,,,,,,,,,,,,,,,,,,,,,,,,,,,,,,,,,,
1702361824,1702361824,94,0,4294.871582,4252.179688,4329.358887,4342.820313,4247.820313,4264.871582,4276.282227,4295.641113,4262.820313,4237.05127,4521.922852,4475.384766,4726.025879,4430.128418,6001,3,55,,,,0,4,4,4,4,4,4,4,4,4,4,4,4,4,4,100,,,,,,,,,,,,,,,,,,,,,,,,,,,,,,,,,,,,,,,,,,,,,,,,,,,,,,,,,,,,,,,,,,,,,,,,,,,,,,,,,,,,,,,,,,,,,,,,,,,,,,,,,,,,,,,,,,,,,,,,,,,,,,,,,,,,,,
1702361824,1702361824,95,0,4285.128418,4245.128418,4328.205078,4334.358887,4244.487305,4266.025879,4278.846191,4296.794922,4263.717773,4242.436035,4513.974121,4467.94873,4723.589844,4425.769043,6118,3,55,,,,0,4,4,4,4,4,4,4,4,4,4,4,4,4,4,100,,,,,,,,,,,,,,,,,,,,,,,,,,,,,,,,,,,,,,,,,,,,,,,,,,,,,,,,,,,,,,,,,,,,,,,,,,,,,,,,,,,,,,,,,,,,,,,,,,,,,,,,,,,,,,,,,,,,,,,,,,,,,,,,,,,,,,
1702361824,1702361824,96,0,4275.256348,4238.205078,4318.589844,4327.820313,4259.743652,4262.94873,4269.615234,4296.538574,4263.589844,4241.282227,4506.153809,4456.153809,4720.128418,4406.025879,6481,3,55,,,,0,4,4,4,4,4,4,4,4,4,4,4,4,4,4,100,,,,,,,,,,,,,,,,,24,0,0.67537,-0.174011,-0.696899,0.167114,0.870223,-0.419973,-0.068856,-24.947332,-17.018562,94.535095,,,,,,,,,,,,,,,,,,,,,,,,,,,,,,,,,,,,,,,,,,,,,,,,,,,,,,,,,,,,,,,,,,,,,,,,,,,,,,,,,,,,,,,,,,,,,,,,,,,,,,,,,,
1702361824,1702361824,97,0,4268.333496,4232.94873,4309.743652,4324.230957,4258.205078,4261.922852,4263.461426,4296.153809,4263.077148,4233.846191,4498.589844,4444.871582,4709.230957,4393.205078,6668,3,55,,,,0,4,4,4,4,4,4,4,4,4,4,4,4,4,4,100,,,,,,,,,,,,,,,,,,,,,,,,,,,,,,,,,,,,,,,,,,,,,,,,,,,,,,,,,,,,,,,,,,,,,,,,,,,,,,,,,,,,,,,,,,,,,,,,,,,,,,,,,,,,,,,,,,,,,,,,,,,,,,,,,,,,,,
1702361824,1702361824,98,0,4263.333496,4226.538574,4310.769043,4317.563965,4245.256348,4263.717773,4266.666504,4294.358887,4262.692383,4228.077148,4494.487305,4444.102539,4698.846191,4396.666504,6001,3,55,,,,0,4,4,4,4,4,4,4,4,4,4,4,4,4,4,100,,,,,,,,,,,,,,,,,,,,,,,,,,,,,,,,,,,,,,,,,,,,,,,,,,,,,,,,,,,,,,,,,,,,,,,,,,,,,,,,,,,,,,,,,,,,,,,,,,,,,,,,,,,,,,,,,,,,,,,,,,,,,,,,,,,,,,
1702361824,1702361824,99,0,4260.641113,4219.743652,4307.179688,4308.589844,4244.487305,4263.717773,4266.922852,4284.871582,4253.717773,4215.769043,4488.717773,4444.487305,4690.256348,4391.794922,6118,3,55,,,,0,4,4,4,4,4,4,4,4,4,4,4,4,4,4,100,,,,,,,,,,,,,,,,,,,,,,,,,,,,,,,,,,,,,,,,,,,,,,,,,,,,,,,,,,,,,,,,,,,,,,,,,,,,,,,,,,,,,,,,,,,,,,,,,,,,,,,,,,,,,,,,,,,,,,,,,,,,,,,,,,,,,,
1702361824,1702361824,100,0,4260.384766,4221.153809,4300.641113,4308.846191,4248.974121,4261.538574,4262.692383,4278.333496,4245.897461,4211.922852,4477.436035,4435.128418,4683.589844,4380,6481,3,55,,,,0,4,4,4,4,4,4,4,4,4,4,4,4,4,4,100,,,,,,,,,,,,,,,,,25,0,0.675302,-0.173706,-0.697144,0.166687,0.880967,-0.426322,-0.087413,-25.069267,-16.950041,94.598251,,,,,,,,,,,,,,,,,,,,,,,,,,,,,,,,,,,,,,,,,,,,,,,,,,,,,,,,,,,,,,,,,,,,,,,,,,,,,,,,,,,,,,,,,,,,,,,,,,,,,,,,,,
1702361824,1702361824,101,0,4268.974121,4236.025879,4311.153809,4320.128418,4254.487305,4263.846191,4265.641113,4286.538574,4251.922852,4224.871582,4480.512695,4439.615234,4693.333496,4386.922852,6668,3,55,,,,0,4,4,4,4,4,4,4,4,4,4,4,4,4,4,100,,,,,,,,,,,,,,,,,,,,,,,,,,,,,,,,,,,,,,,,,,,,,,,,,,,,,,,,,,,,,,,,,,,,,,,,,,,,,,,,,,,,,,,,,,,,,,,,,,,,,,,,,,,,,,,,,,,,,,,,,,,,,,,,,,,,,,
1702361824,1702361824,102,0,4285.769043,4253.589844,4329.871582,4335.769043,4269.871582,4273.717773,4275.384766,4295,4261.025879,4231.666504,4500.384766,4459.743652,4707.307617,4406.538574,6001,3,55,,,,0,4,4,4,4,4,4,4,4,4,4,4,4,4,4,100,,,,,,,,,,,,,,,,,,,,,,,,,,,,,,,,,,,,,,,,,,,,,,,,,,,,,,,,,,,,,,,,,,,,,,,,,,,,,,,,,,,,,,,,,,,,,,,,,,,,,,,,,,,,,,,,,,,,,,,,,,,,,,,,,,,,,,
1702361824,1702361824,103,0,4294.871582,4259.615234,4336.794922,4344.871582,4281.410156,4283.077148,4284.102539,4298.717773,4269.487305,4234.743652,4514.358887,4466.794922,4701.410156,4415.641113,6118,3,55,,,,0,4,4,4,4,4,4,4,4,4,4,4,4,4,4,100,,,,,,,,,,,,,,,,,,,,,,,,,,,,,,,,,,,,,,,,,,,,,,,,,,,,,,,,,,,,,,,,,2.598394,1.706344,1.008311,0.433075,0.407045,6.307625,1.825313,1.633978,0.502986,0.547015,3.399549,2.065202,0.819623,0.205275,0.193938,3.540706,1.969201,1.090151,0.291615,0.308952,1.520191,1.05615,0.34307,0.434707,0.674129,0.393185,0.468254,0.106425,0.098135,0.087901,1.144836,1.43393,0.234929,0.245204,0.12214,0.692101,0.961726,0.302264,0.061301,0.082441,1.075718,1.061313,0.438955,0.160049,0.142313,1.977562,1.415826,0.554081,0.388542,0.42074,4.219059,4.507833,3.45745,0.447625,0.352724,4.346165,2.69907,1.214471,0.188856,0.362314,16.125572,34.538918,50.367611,1.563383,0.901363,3.588072,2.023054,1.240729,0.316057,0.396586
1702361824,1702361824,104,0,4293.717773,4256.794922,4333.461426,4339.487305,4282.692383,4281.538574,4284.615234,4305.512695,4277.436035,4249.230957,4518.205078,4465.512695,4688.589844,4416.538574,6481,3,55,,,,0,4,4,4,4,4,4,4,4,4,4,4,4,4,4,100,,,,,,,,,,,,,,,,,26,0,0.675251,-0.173462,-0.697327,0.166382,0.889269,-0.42974,-0.069833,-25.012341,-17.021702,94.571762,,,,,,,,,,,,,,,,,,,,,,,,,,,,,,,,,,,,,,,,,,,,,,,,,,,,,,,,,,,,,,,,,,,,,,,,,,,,,,,,,,,,,,,,,,,,,,,,,,,,,,,,,,
1702361824,1702361824,105,0,4296.538574,4261.666504,4338.589844,4338.717773,4282.820313,4281.282227,4283.589844,4313.077148,4282.179688,4265.897461,4529.102539,4479.102539,4690.769043,4427.436035,6668,3,55,,,,0,4,4,4,4,4,4,4,4,4,4,4,4,4,4,100,,,,,,,,,,,,,,,,,,,,,,,,,,,,,,,,,,,,,,,,,,,,,,,,,,,,,,,,,,,,,,,,,,,,,,,,,,,,,,,,,,,,,,,,,,,,,,,,,,,,,,,,,,,,,,,,,,,,,,,,,,,,,,,,,,,,,,
1702361824,1702361824,106,0,4309.358887,4276.794922,4357.436035,4351.922852,4273.205078,4294.487305,4293.077148,4316.282227,4290.384766,4273.205078,4546.282227,4496.025879,4698.717773,4444.615234,6001,3,55,,,,0,4,4,4,4,4,4,4,4,4,4,4,4,4,4,100,,,,,,,,,,,,,,,,,,,,,,,,,,,,,,,,,,,,,,,,,,,,,,,,,,,,,,,,,,,,,,,,,,,,,,,,,,,,,,,,,,,,,,,,,,,,,,,,,,,,,,,,,,,,,,,,,,,,,,,,,,,,,,,,,,,,,,
1702361824,1702361824,107,0,4320.897461,4278.461426,4360.256348,4348.205078,4263.205078,4295.256348,4296.153809,4314.358887,4297.436035,4275.897461,4550,4496.153809,4689.487305,4449.102539,6118,3,55,,,,0,4,4,4,4,4,4,4,4,4,4,4,4,4,4,100,,,,,,,,,,,,,,,,,,,,,,,,,,,,,,,,,,,,,,,,,,,,,,,,,,,,,,,,,,,,,,,,,,,,,,,,,,,,,,,,,,,,,,,,,,,,,,,,,,,,,,,,,,,,,,,,,,,,,,,,,,,,,,,,,,,,,,
1702361824,1702361824,108,0,4320.641113,4275.128418,4346.282227,4332.820313,4274.102539,4280,4283.589844,4310.128418,4292.820313,4278.717773,4541.282227,4489.102539,4671.794922,4442.94873,6481,3,55,,,,0,4,4,4,4,4,4,4,4,4,4,4,4,4,4,100,,,,,,,,,,,,,,,,,27,0,0.675123,-0.17334,-0.69751,0.16626,0.880967,-0.42974,-0.076181,-24.811106,-16.902866,94.447914,,,,,,,,,,,,,,,,,,,,,,,,,,,,,,,,,,,,,,,,,,,,,,,,,,,,,,,,,,,,,,,,,,,,,,,,,,,,,,,,,,,,,,,,,,,,,,,,,,,,,,,,,,
1702361824,1702361824,109,0,4320.512695,4282.820313,4347.94873,4335.512695,4290.128418,4275.256348,4280.256348,4309.615234,4288.846191,4276.666504,4537.94873,4490.769043,4671.666504,4444.743652,6668,3,55,,,,0,4,4,4,4,4,4,4,4,4,4,4,4,4,4,100,,,,,,,,,,,,,,,,,,,,,,,,,,,,,,,,,,,,,,,,,,,,,,,,,,,,,,,,,,,,,,,,,,,,,,,,,,,,,,,,,,,,,,,,,,,,,,,,,,,,,,,,,,,,,,,,,,,,,,,,,,,,,,,,,,,,,,
1702361824,1702361824,110,0,4321.794922,4277.563965,4360.897461,4338.974121,4283.205078,4283.461426,4293.461426,4311.794922,4291.282227,4279.871582,4542.94873,4497.436035,4681.666504,4449.230957,6001,3,55,,,,0,4,4,4,4,4,4,4,4,4,4,4,4,4,4,100,,,,,,,,,,,,,,,,,,,,,,,,,,,,,,,,,,,,,,,,,,,,,,,,,,,,,,,,,,,,,,,,,,,,,,,,,,,,,,,,,,,,,,,,,,,,,,,,,,,,,,,,,,,,,,,,,,,,,,,,,,,,,,,,,,,,,,
1702361824,1702361824,111,0,4315.769043,4266.282227,4362.563965,4327.692383,4277.563965,4287.563965,4298.846191,4310.641113,4290.256348,4280.769043,4542.94873,4496.666504,4671.410156,4444.102539,6118,3,55,,,,0,4,4,4,4,4,4,4,4,4,4,4,4,4,4,100,,,,,,,,,,,,,,,,,,,,,,,,,,,,,,,,,,,,,,,,,,,,,,,,,,,,,,,,,,,,,,,,,,,,,,,,,,,,,,,,,,,,,,,,,,,,,,,,,,,,,,,,,,,,,,,,,,,,,,,,,,,,,,,,,,,,,,
1702361824,1702361824,112,0,4307.692383,4270.897461,4362.563965,4322.820313,4281.794922,4282.94873,4293.077148,4310.384766,4288.717773,4270.641113,4535.384766,4492.179688,4650.769043,4440.897461,6481,3,55,,,,0,4,4,4,4,4,4,4,4,4,4,4,4,4,4,100,,,,,,,,,,,,,,,,,28,0,0.675026,-0.173401,-0.697632,0.166077,0.892199,-0.418508,-0.083018,-24.763329,-16.745913,94.453125,,,,,,,,,,,,,,,,,,,,,,,,,,,,,,,,,,,,,,,,,,,,,,,,,,,,,,,,,,,,,,,,,,,,,,,,,,,,,,,,,,,,,,,,,,,,,,,,,,,,,,,,,,
1702361824,1702361824,113,0,4307.692383,4274.615234,4368.974121,4327.307617,4267.563965,4280.512695,4294.230957,4313.974121,4286.794922,4261.025879,4527.820313,4493.461426,4641.922852,4444.358887,6668,3,55,,,,0,4,4,4,4,4,4,4,4,4,4,4,4,4,4,100,,,,,,,,,,,,,,,,,,,,,,,,,,,,,,,,,,,,,,,,,,,,,,,,,,,,,,,,,,,,,,,,,,,,,,,,,,,,,,,,,,,,,,,,,,,,,,,,,,,,,,,,,,,,,,,,,,,,,,,,,,,,,,,,,,,,,,
1702361824,1702361824,114,0,4311.153809,4264.102539,4369.487305,4326.025879,4265.512695,4283.974121,4299.871582,4313.461426,4280.256348,4257.436035,4522.692383,4493.717773,4626.282227,4439.358887,6001,3,55,,,,0,4,4,4,4,4,4,4,4,4,4,4,4,4,4,100,,,,,,,,,,,,,,,,,,,,,,,,,,,,,,,,,,,,,,,,,,,,,,,,,,,,,,,,,,,,,,,,,,,,,,,,,,,,,,,,,,,,,,,,,,,,,,,,,,,,,,,,,,,,,,,,,,,,,,,,,,,,,,,,,,,,,,
1702361824,1702361824,115,0,4310.384766,4261.794922,4369.358887,4324.743652,4287.179688,4287.179688,4299.487305,4312.563965,4278.974121,4262.05127,4519.487305,4492.436035,4607.692383,4431.153809,6118,3,55,,,,0,4,4,4,4,4,4,4,4,4,4,4,4,4,4,100,,,,,,,,,,,,,,,,,,,,,,,,,,,,,,,,,,,,,,,,,,,,,,,,,,,,,,,,,,,,,,,,,,,,,,,,,,,,,,,,,,,,,,,,,,,,,,,,,,,,,,,,,,,,,,,,,,,,,,,,,,,,,,,,,,,,,,
1702361824,1702361824,116,0,4309.743652,4267.179688,4368.333496,4328.461426,4286.794922,4281.794922,4294.102539,4312.820313,4282.563965,4263.333496,4512.820313,4491.410156,4614.487305,4432.563965,6481,3,55,,,,0,4,4,4,4,4,4,4,4,4,4,4,4,4,4,100,,,,,,,,,,,,,,,,,29,0,0.675024,-0.173645,-0.697632,0.165833,0.882432,-0.424857,-0.072763,-24.720329,-16.654654,94.457809,,,,,,,,,,,,,,,,,,,,,,,,,,,,,,,,,,,,,,,,,,,,,,,,,,,,,,,,,,,,,,,,,,,,,,,,,,,,,,,,,,,,,,,,,,,,,,,,,,,,,,,,,,
1702361824,1702361824,117,0,4310,4266.153809,4360.641113,4326.025879,4274.743652,4275.641113,4290,4310.128418,4276.538574,4251.153809,4506.282227,4482.563965,4633.333496,4434.102539,6668,3,55,,,,0,4,4,4,4,4,4,4,4,4,4,4,4,4,4,100,,,,,,,,,,,,,,,,,,,,,,,,,,,,,,,,,,,,,,,,,,,,,,,,,,,,,,,,,,,,,,,,,,,,,,,,,,,,,,,,,,,,,,,,,,,,,,,,,,,,,,,,,,,,,,,,,,,,,,,,,,,,,,,,,,,,,,
1702361824,1702361824,118,0,4307.563965,4265.897461,4355.384766,4318.846191,4273.589844,4280.512695,4293.846191,4307.820313,4269.871582,4247.692383,4507.436035,4471.282227,4644.615234,4427.307617,6001,3,55,,,,0,4,4,4,4,4,4,4,4,4,4,4,4,4,4,100,,,,,,,,,,,,,,,,,,,,,,,,,,,,,,,,,,,,,,,,,,,,,,,,,,,,,,,,,,,,,,,,,,,,,,,,,,,,,,,,,,,,,,,,,,,,,,,,,,,,,,,,,,,,,,,,,,,,,,,,,,,,,,,,,,,,,,
1702361824,1702361824,119,0,4300.769043,4258.333496,4346.153809,4309.487305,4270,4281.922852,4293.846191,4306.153809,4269.487305,4246.922852,4503.717773,4461.410156,4648.461426,4416.794922,6118,3,55,,,,0,4,4,4,4,4,4,4,4,4,4,4,4,4,4,100,1,75,4,4,4,4,4,4,4,4,4,4,4,4,1,4,,,,,,,,,,,,,,,,,,,,,,,,,,,,,,,,,,,,,,,,,,,,,,,,,2.553838,1.594742,0.942526,0.388622,0.388028,5.034443,1.623036,1.344493,0.470427,0.548992,3.124542,1.95237,0.635528,0.186054,0.188099,2.918953,1.717636,0.85253,0.236805,0.285843,1.264759,0.974835,0.437362,0.437183,0.657831,0.359656,0.45354,0.120002,0.100742,0.090804,1.095571,1.329047,0.253389,0.244078,0.128354,0.698,0.820403,0.2178,0.056311,0.071443,1.008366,0.838907,0.394383,0.133613,0.13126,2.044758,1.140416,0.524369,0.370435,0.41701,3.979646,4.097142,3.017178,0.433189,0.340201,4.156848,2.796856,0.992642,0.151911,0.350166,15.382723,31.633488,41.923355,1.484036,0.921658,4.076145,1.980234,1.263771,0.303257,0.405307
1702361824,1702361824,120,0,4290.512695,4251.153809,4330.128418,4299.358887,4264.358887,4271.282227,4281.922852,4300.256348,4265.769043,4233.205078,4494.871582,4448.717773,4644.871582,4409.230957,6481,3,55,,,,0,4,4,4,4,4,4,4,4,4,4,4,4,4,4,100,,,,,,,,,,,,,,,,,30,0,0.674961,-0.174133,-0.697571,0.165833,0.880967,-0.425345,-0.088878,-24.53163,-16.705856,94.245361,,,,,,,,,,,,,,,,,,,,,,,,,,,,,,,,,,,,,,,,,,,,,,,,,,,,,,,,,,,,,,,,,,,,,,,,,,,,,,,,,,,,,,,,,,,,,,,,,,,,,,,,,,
1702361824,1702361824,121,0,4281.666504,4255.256348,4323.077148,4295.384766,4263.333496,4263.333496,4274.871582,4294.743652,4262.563965,4237.436035,4488.077148,4439.743652,4631.025879,4408.461426,6668,3,55,,,,0,4,4,4,4,4,4,4,4,4,4,4,4,4,4,100,,,,,,,,,,,,,,,,,,,,,,,,,,,,,,,,,,,,,,,,,,,,,,,,,,,,,,,,,,,,,,,,,,,,,,,,,,,,,,,,,,,,,,,,,,,,,,,,,,,,,,,,,,,,,,,,,,,,,,,,,,,,,,,,,,,,,,
1702361825,1702361825,122,0,4279.358887,4255.256348,4324.743652,4296.666504,4261.922852,4265.897461,4277.307617,4295,4263.974121,4248.077148,4488.846191,4441.282227,4620.897461,4410.897461,6001,3,55,,,,0,4,4,4,4,4,4,4,4,4,4,4,4,4,4,100,,,,,,,,,,,,,,,,,,,,,,,,,,,,,,,,,,,,,,,,,,,,,,,,,,,,,,,,,,,,,,,,,,,,,,,,,,,,,,,,,,,,,,,,,,,,,,,,,,,,,,,,,,,,,,,,,,,,,,,,,,,,,,,,,,,,,,
1702361825,1702361825,123,0,4281.538574,4248.205078,4322.94873,4293.205078,4268.205078,4265.897461,4272.307617,4295.641113,4262.820313,4236.282227,4499.102539,4446.282227,4616.410156,4412.179688,6118,3,55,,,,0,4,4,4,4,4,4,4,4,4,4,4,4,4,4,100,,,,,,,,,,,,,,,,,,,,,,,,,,,,,,,,,,,,,,,,,,,,,,,,,,,,,,,,,,,,,,,,,,,,,,,,,,,,,,,,,,,,,,,,,,,,,,,,,,,,,,,,,,,,,,,,,,,,,,,,,,,,,,,,,,,,,,
1702361825,1702361825,124,0,4279.358887,4246.794922,4326.410156,4290.897461,4275.384766,4259.358887,4262.820313,4294.615234,4262.05127,4234.230957,4502.820313,4451.538574,4603.974121,4411.153809,6481,3,55,,,,0,4,4,4,4,4,4,4,4,4,4,4,4,4,4,100,,,,,,,,,,,,,,,,,31,0,0.675007,-0.174561,-0.697449,0.16571,0.87999,-0.43267,-0.076181,-24.528467,-16.83527,94.137497,,,,,,,,,,,,,,,,,,,,,,,,,,,,,,,,,,,,,,,,,,,,,,,,,,,,,,,,,,,,,,,,,,,,,,,,,,,,,,,,,,,,,,,,,,,,,,,,,,,,,,,,,,
1702361825,1702361825,125,0,4282.563965,4253.077148,4335.256348,4298.205078,4262.820313,4260,4263.589844,4296.922852,4267.692383,4249.487305,4501.153809,4458.333496,4595,4415.512695,6668,3,55,,,,0,4,4,4,4,4,4,4,4,4,4,4,4,4,4,100,,,,,,,,,,,,,,,,,,,,,,,,,,,,,,,,,,,,,,,,,,,,,,,,,,,,,,,,,,,,,,,,,,,,,,,,,,,,,,,,,,,,,,,,,,,,,,,,,,,,,,,,,,,,,,,,,,,,,,,,,,,,,,,,,,,,,,
1702361825,1702361825,126,0,4293.205078,4253.333496,4335.256348,4299.102539,4247.94873,4262.692383,4264.743652,4298.589844,4268.589844,4252.563965,4505.128418,4461.410156,4606.153809,4423.717773,6001,3,55,,,,0,4,4,4,4,4,4,4,4,4,4,4,4,4,4,100,,,,,,,,,,,,,,,,,,,,,,,,,,,,,,,,,,,,,,,,,,,,,,,,,,,,,,,,,,,,,,,,,,,,,,,,,,,,,,,,,,,,,,,,,,,,,,,,,,,,,,,,,,,,,,,,,,,,,,,,,,,,,,,,,,,,,,
1702361825,1702361825,127,0,4292.307617,4248.846191,4335.897461,4291.794922,4250.641113,4256.153809,4260,4295.769043,4264.358887,4246.410156,4505.384766,4461.282227,4620,4423.846191,55,3,55,,,,0,4,4,4,4,4,4,4,4,4,4,4,4,4,4,100,,,,,,,,,,,,,,,,,,,,,,,,,,,,,,,,,,,,,,,,,,,,,,,,,,,,,,,,,,,,,,,,,,,,,,,,,,,,,,,,,,,,,,,,,,,,,,,,,,,,,,,,,,,,,,,,,,,,,,,,,,,,,,,,,,,,,,
1702361825,1702361825,0,0,4283.205078,4245.897461,4340.641113,4289.358887,4247.563965,4255.512695,4259.102539,4292.692383,4264.615234,4243.589844,4495.769043,4457.820313,4615,4417.179688,5402,3,55,,,,0,4,4,4,4,4,4,4,4,4,4,4,4,4,4,100,,,,,,,,,,,,,,,,,0,0,0.675068,-0.174683,-0.697388,0.165588,0.884385,-0.421438,-0.090831,-24.408953,-16.835077,94.157082,,,,,,,,,,,,,,,,,,,,,,,,,,,,,,,,,,,,,,,,,,,,,,,,,,,,,,,,,,,,,,,,,,,,,,,,,,,,,,,,,,,,,,,,,,,,,,,,,,,,,,,,,,
1702361825,1702361825,1,0,4278.589844,4240,4334.358887,4284.102539,4234.743652,4258.974121,4261.410156,4292.563965,4262.563965,4237.692383,4485.641113,4448.077148,4598.846191,4409.230957,5507,3,55,,,,0,4,4,4,4,4,4,4,4,4,4,4,4,4,4,100,,,,,,,,,,,,,,,,,,,,,,,,,,,,,,,,,,,,,,,,,,,,,,,,,,,,,,,,,,,,,,,,,,,,,,,,,,,,,,,,,,,,,,,,,,,,,,,,,,,,,,,,,,,,,,,,,,,,,,,,,,,,,,,,,,,,,,
1702361825,1702361825,2,0,4279.230957,4232.179688,4324.743652,4279.102539,4239.743652,4251.410156,4261.282227,4291.538574,4254.487305,4225.128418,4476.025879,4438.846191,4582.179688,4401.666504,5415,3,55,,,,0,4,4,4,4,4,4,4,4,4,4,4,4,4,4,100,,,,,,,,,,,,,,,,,,,,,,,,,,,,,,,,,,,,,,,,,,,,,,,,,,,,,,,,,,,,,,,,,,,,,,,,,,,,,,,,,,,,,,,,,,,,,,,,,,,,,,,,,,,,,,,,,,,,,,,,,,,,,,,,,,,,,,
1702361825,1702361825,3,0,4275,4231.282227,4326.538574,4278.717773,4247.307617,4250.512695,4261.794922,4289.487305,4247.692383,4217.179688,4472.94873,4441.153809,4565.641113,4399.230957,5455,3,55,,,,0,4,4,4,4,4,4,4,4,4,4,4,4,4,4,100,,,,,,,,,,,,,,,,,,,,,,,,,,,,,,,,,,,,,,,,,,,,,,,,,,,,,,,,,,,,,,,,,,,,,,,,,,,,,,,,,,,,,,,,,,,,,,,,,,,,,,,,,,,,,,,,,,,,,,,,,,,,,,,,,,,,,,
1702361825,1702361825,4,0,4267.692383,4233.846191,4329.743652,4273.333496,4236.153809,4258.077148,4265.256348,4287.94873,4245.384766,4217.820313,4474.487305,4442.563965,4549.615234,4400.512695,5367,3,55,,,,0,4,4,4,4,4,4,4,4,4,4,4,4,4,4,100,,,,,,,,,,,,,,,,,1,0,0.674972,-0.174927,-0.697449,0.165466,0.889757,-0.435112,-0.083506,-24.50139,-16.834902,94.024704,,,,,,,,,,,,,,,,,,,,,,,,,,,,,,,,,,,,,,,,,,,,,,,,,,,,,,,,,,,,,,,,,,,,,,,,,,,,,,,,,,,,,,,,,,,,,,,,,,,,,,,,,,
1702361825,1702361825,5,0,4268.974121,4230.256348,4325.256348,4261.538574,4241.794922,4255.769043,4266.282227,4282.94873,4242.179688,4213.589844,4464.230957,4431.666504,4533.333496,4396.922852,5459,3,55,,,,0,4,4,4,4,4,4,4,4,4,4,4,4,4,4,100,,,,,,,,,,,,,,,,,,,,,,,,,,,,,,,,,,,,,,,,,,,,,,,,,,,,,,,,,,,,,,,,,,,,,,,,,,,,,,,,,,,,,,,,,,,,,,,,,,,,,,,,,,,,,,,,,,,,,,,,,,,,,,,,,,,,,,
1702361825,1702361825,6,0,4279.102539,4234.871582,4326.666504,4255,4264.615234,4255,4264.487305,4278.077148,4241.538574,4211.025879,4461.410156,4430.897461,4532.94873,4394.487305,5375,3,55,,,,0,4,4,4,4,4,4,4,4,4,4,4,4,4,4,100,,,,,,,,,,,,,,,,,,,,,,,,,,,,,,,,,,,,,,,,,,,,,,,,,,,,,,,,,,,,,,,,,,,,,,,,,,,,,,,,,,,,,,,,,,,,,,,,,,,,,,,,,,,,,,,,,,,,,,,,,,,,,,,,,,,,,,
1702361825,1702361825,7,0,4285.769043,4249.102539,4335.641113,4252.179688,4257.179688,4262.307617,4263.461426,4281.794922,4246.410156,4222.692383,4474.871582,4442.94873,4555,4402.820313,3677,3,55,,,,0,4,4,4,4,4,4,4,4,4,4,4,4,4,4,100,,,,,,,,,,,,,,,,,,,,,,,,,,,,,,,,,,,,,,,,,,,,,,,,,,,,,,,,,,,,,,,,,2.704498,1.504366,0.883796,0.336733,0.348551,3.573387,1.433603,1.049333,0.435856,0.519451,3.000551,1.892378,0.51354,0.181147,0.179607,2.30378,1.5042,0.677087,0.193914,0.248253,0.980132,0.834362,0.607211,0.45416,0.645788,0.37672,0.400786,0.137369,0.097345,0.092993,1.108382,1.137336,0.285995,0.228204,0.127317,0.738546,0.685712,0.148798,0.055926,0.061777,1.006616,0.648224,0.370619,0.117437,0.116777,2.327469,0.89345,0.514285,0.364935,0.420111,4.249318,3.472599,2.443395,0.43508,0.330907,4.275556,2.988111,0.826576,0.144374,0.326015,15.381863,26.049057,33.027485,1.346961,0.889061,5.136947,1.966474,1.288245,0.298637,0.39688
1702361825,1702361825,8,0,4283.461426,4251.410156,4339.358887,4248.205078,4245.897461,4261.666504,4261.666504,4287.94873,4246.025879,4223.333496,4478.077148,4445.769043,4573.846191,4409.871582,4679,3,55,,,,0,4,4,4,4,4,4,4,4,4,4,4,4,4,4,100,,,,,,,,,,,,,,,,,2,0,0.674905,-0.174927,-0.697571,0.165222,0.874618,-0.427298,-0.082041,-24.401253,-16.651411,94.005569,,,,,,,,,,,,,,,,,,,,,,,,,,,,,,,,,,,,,,,,,,,,,,,,,,,,,,,,,,,,,,,,,,,,,,,,,,,,,,,,,,,,,,,,,,,,,,,,,,,,,,,,,,
