Timestamp,OriginalTimestamp,EEG.Counter,EEG.Interpolated,EEG.AF3,EEG.F7,EEG.F3,EEG.FC5,EEG.T7,EEG.P7,EEG.O1,EEG.O2,EEG.P8,EEG.T8,EEG.FC6,EEG.F4,EEG.F8,EEG.AF4,EEG.RawCq,EEG.Battery,EEG.BatteryPercent,MarkerIndex,MarkerType,MarkerValueInt,EEG.MarkerHardware,CQ.AF3,CQ.F7,CQ.F3,CQ.FC5,CQ.T7,CQ.P7,CQ.O1,CQ.O2,CQ.P8,CQ.T8,CQ.FC6,CQ.F4,CQ.F8,CQ.AF4,CQ.Overall,EQ.SampleRateQuality,EQ.OVERALL,EQ.AF3,EQ.F7,EQ.F3,EQ.FC5,EQ.T7,EQ.P7,EQ.O1,EQ.O2,EQ.P8,EQ.T8,EQ.FC6,EQ.F4,EQ.F8,EQ.AF4,MOT.CounterMems,MOT.InterpolatedMems,MOT.Q0,MOT.Q1,MOT.Q2,MOT.Q3,MOT.AccX,MOT.AccY,MOT.AccZ,MOT.MagX,MOT.MagY,MOT.MagZ,PM.Attention.IsActive,PM.Attention.Scaled,PM.Attention.Raw,PM.Attention.Min,PM.Attention.Max,PM.Engagement.IsActive,PM.Engagement.Scaled,PM.Engagement.Raw,PM.Engagement.Min,PM.Engagement.Max,PM.Excitement.IsActive,PM.Excitement.Scaled,PM.Excitement.Raw,PM.Excitement.Min,PM.Excitement.Max,PM.LongTermExcitement,PM.Stress.IsActive,PM.Stress.Scaled,PM.Stress.Raw,PM.Stress.Min,PM.Stress.Max,PM.Relaxation.IsActive,PM.Relaxation.Scaled,PM.Relaxation.Raw,PM.Relaxation.Min,PM.Relaxation.Max,PM.Interest.IsActive,PM.Interest.Scaled,PM.Interest.Raw,PM.Interest.Min,PM.Interest.Max,PM.Focus.IsActive,PM.Focus.Scaled,PM.Focus.Raw,PM.Focus.Min,PM.Focus.Max,POW.AF3.Theta,POW.AF3.Alpha,POW.AF3.BetaL,POW.AF3.BetaH,POW.AF3.Gamma,POW.F7.Theta,POW.F7.Alpha,POW.F7.BetaL,POW.F7.BetaH,POW.F7.Gamma,POW.F3.Theta,POW.F3.Alpha,POW.F3.BetaL,POW.F3.BetaH,POW.F3.Gamma,POW.FC5.Theta,POW.FC5.Alpha,POW.FC5.BetaL,POW.FC5.BetaH,POW.FC5.Gamma,POW.T7.Theta,POW.T7.Alpha,POW.T7.BetaL,POW.T7.BetaH,POW.T7.Gamma,POW.P7.Theta,POW.P7.Alpha,POW.P7.BetaL,POW.P7.BetaH,POW.P7.Gamma,POW.O1.Theta,POW.O1.Alpha,POW.O1.BetaL,POW.O1.BetaH,POW.O1.Gamma,POW.O2.Theta,POW.O2.Alpha,POW.O2.BetaL,POW.O2.BetaH,POW.O2.Gamma,POW.P8.Theta,POW.P8.Alpha,POW.P8.BetaL,POW.P8.BetaH,POW.P8.Gamma,POW.T8.Theta,POW.T8.Alpha,POW.T8.BetaL,POW.T8.BetaH,POW.T8.Gamma,POW.FC6.Theta,POW.FC6.Alpha,POW.FC6.BetaL,POW.FC6.BetaH,POW.FC6.Gamma,POW.F4.Theta,POW.F4.Alpha,POW.F4.BetaL,POW.F4.BetaH,POW.F4.Gamma,POW.F8.Theta,POW.F8.Alpha,POW.F8.BetaL,POW.F8.BetaH,POW.F8.Gamma,POW.AF4.Theta,POW.AF4.Alpha,POW.AF4.BetaL,POW.AF4.BetaH,POW.AF4.Gamma
,,,,,,,,,,,,,,,,,,,,,,,,,,,,,,,,,,,,,,,,,,,,,,,,,,,,,,,,,,,,,,,,,,,,,,,,,,,,,,,,,,,,,,,,,,,,,,,,,,,,,,,,,,,,,,,,,,,,,,,,,,,,,,,,,,,,,,,,,,,,,,,,,,,,,,,,,,,,,,,,,,,,,,,,,,,,,
1702361606,1702361606,18,0,4276.025879,4208.205078,4264.230957,4234.871582,4248.846191,4269.230957,4251.922852,4277.05127,4252.692383,4208.717773,4456.538574,4445.512695,4326.025879,4440.384766,0,3,56,,,,0,4,4,4,4,4,4,4,4,4,4,4,4,4,4,100,,,,,,,,,,,,,,,,,,,,,,,,,,,,,,,,,,,,,,,,,,,,,,,,,,,,,,,,,,,,,,,,,,,,,,,,,,,,,,,,,,,,,,,,,,,,,,,,,,,,,,,,,,,,,,,,,,,,,,,,,,,,,,,,,,,,,,
1702361606,1702361606,19,0,4274.871582,4208.333496,4263.589844,4233.974121,4262.692383,4263.205078,4243.846191,4278.589844,4247.563965,4201.025879,4459.230957,4442.94873,4333.717773,4442.820313,0,3,56,,,,0,4,4,4,4,4,4,4,4,4,4,4,4,4,4,100,,,,,,,,,,,,,,,,,,,,,,,,,,,,,,,,,,,,,,,,,,,,,,,,,,,,,,,,,,,,,,,,,,,,,,,,,,,,,,,,,,,,,,,,,,,,,,,,,,,,,,,,,,,,,,,,,,,,,,,,,,,,,,,,,,,,,,
1702361606,1702361606,20,0,4279.102539,4212.05127,4265.256348,4249.871582,4227.94873,4266.282227,4250,4279.102539,4253.589844,4222.05127,4467.692383,4452.307617,4346.410156,4450.512695,0,3,56,,,,0,4,4,4,4,4,4,4,4,4,4,4,4,4,4,100,,,,,,,,,,,,,,,,,5,0,0.091301,-0.681763,0.220764,-0.691467,0.902454,-0.388719,-0.066903,-21.921947,-4.007083,80.47715,,,,,,,,,,,,,,,,,,,,,,,,,,,,,,,,,,,,,,,,,,,,,,,,,,,,,,,,,,,,,,,,,,,,,,,,,,,,,,,,,,,,,,,,,,,,,,,,,,,,,,,,,,
1702361606,1702361606,21,0,4264.358887,4200.128418,4248.333496,4233.461426,4277.94873,4262.563965,4237.179688,4267.563965,4246.282227,4224.615234,4450,4437.436035,4323.846191,4430.512695,0,3,56,,,,0,4,4,4,4,4,4,4,4,4,4,4,4,4,4,100,,,,,,,,,,,,,,,,,,,,,,,,,,,,,,,,,,,,,,,,,,,,,,,,,,,,,,,,,,,,,,,,,,,,,,,,,,,,,,,,,,,,,,,,,,,,,,,,,,,,,,,,,,,,,,,,,,,,,,,,,,,,,,,,,,,,,,
1702361606,1702361606,22,0,4267.692383,4203.077148,4252.820313,4236.410156,4271.410156,4262.94873,4236.410156,4276.025879,4250.641113,4257.436035,4467.05127,4442.307617,4336.538574,4440.128418,0,3,56,,,,0,4,4,4,4,4,4,4,4,4,4,4,4,4,4,100,,,,,,,,,,,,,,,,,,,,,,,,,,,,,,,,,,,,,,,,,,,,,,,,,,,,,,,,,,,,,,,,,,,,,,,,,,,,,,,,,,,,,,,,,,,,,,,,,,,,,,,,,,,,,,,,,,,,,,,,,,,,,,,,,,,,,,
1702361606,1702361606,23,0,4288.333496,4226.410156,4274.230957,4280,4161.922852,4263.589844,4250.384766,4288.717773,4264.358887,4262.692383,4493.846191,4464.358887,4361.410156,4461.410156,0,3,56,,,,0,4,4,4,4,4,4,4,4,4,4,4,4,4,4,100,,,,,,,,,,,,,,,,,,,,,,,,,,,,,,,,,,,,,,,,,,,,,,,,,,,,,,,,,,,,,,,,,3.851393,1.369567,1.077871,1.137393,0.679645,4.14782,1.512205,1.296383,1.041819,1.92338,1.829801,1.173704,1.49602,1.039333,0.625985,2.9418,2.231039,0.889246,1.730226,1.977823,2.097852,1.569063,3.502825,10.246743,23.31497,0.555563,0.196807,0.148582,0.316742,0.394396,0.643206,0.401971,0.600824,0.638899,0.651411,0.520307,0.134923,0.393693,0.19101,0.268113,1.370334,0.29812,0.756299,0.587979,0.479736,7.482756,1.940697,1.729002,4.797985,6.237899,4.431997,1.130074,2.017771,1.205094,0.772331,4.334377,1.157963,1.708868,1.229111,0.579794,5.154416,1.803627,1.985277,1.074582,1.019605,7.13915,0.759297,1.428501,1.257353,0.629371
1702361606,1702361606,24,0,4272.820313,4216.666504,4257.94873,4275.897461,4189.487305,4253.333496,4237.05127,4271.282227,4251.025879,4191.153809,4468.333496,4446.025879,4338.589844,4435.769043,0,3,56,,,,0,4,4,4,4,4,4,4,4,4,4,4,4,4,4,100,,,,,,,,,,,,,,,,,6,0,0.090972,-0.681641,0.220703,-0.69165,0.892687,-0.383836,-0.080088,-21.763086,-4.056375,80.496101,,,,,,,,,,,,,,,,,,,,,,,,,,,,,,,,,,,,,,,,,,,,,,,,,,,,,,,,,,,,,,,,,,,,,,,,,,,,,,,,,,,,,,,,,,,,,,,,,,,,,,,,,,
1702361606,1702361606,25,0,4256.153809,4198.717773,4240.384766,4244.230957,4282.692383,4252.307617,4227.307617,4266.410156,4242.563965,4220.512695,4453.077148,4429.743652,4333.974121,4419.102539,0,3,56,,,,0,4,4,4,4,4,4,4,4,4,4,4,4,4,4,100,,,,,,,,,,,,,,,,,,,,,,,,,,,,,,,,,,,,,,,,,,,,,,,,,,,,,,,,,,,,,,,,,,,,,,,,,,,,,,,,,,,,,,,,,,,,,,,,,,,,,,,,,,,,,,,,,,,,,,,,,,,,,,,,,,,,,,
1702361606,1702361606,26,0,4261.153809,4202.307617,4245.256348,4245.641113,4271.922852,4254.487305,4238.077148,4280.512695,4249.871582,4278.461426,4464.358887,4437.820313,4348.461426,4422.05127,0,3,56,,,,0,4,4,4,4,4,4,4,4,4,4,4,4,4,4,100,,,,,,,,,,,,,,,,,,,,,,,,,,,,,,,,,,,,,,,,,,,,,,,,,,,,,,,,,,,,,,,,,,,,,,,,,,,,,,,,,,,,,,,,,,,,,,,,,,,,,,,,,,,,,,,,,,,,,,,,,,,,,,,,,,,,,,
1702361606,1702361606,27,0,4250.256348,4202.436035,4235,4254.358887,4229.743652,4249.102539,4235,4271.666504,4240.256348,4200.128418,4447.820313,4427.179688,4328.589844,4402.563965,0,3,56,,,,0,4,4,4,4,4,4,4,4,4,4,4,4,4,4,100,,,,,,,,,,,,,,,,,,,,,,,,,,,,,,,,,,,,,,,,,,,,,,,,,,,,,,,,,,,,,,,,,,,,,,,,,,,,,,,,,,,,,,,,,,,,,,,,,,,,,,,,,,,,,,,,,,,,,,,,,,,,,,,,,,,,,,
1702361606,1702361606,28,0,4243.846191,4200.897461,4232.307617,4265.641113,4199.358887,4253.205078,4232.179688,4262.436035,4233.717773,4188.077148,4438.333496,4417.436035,4323.589844,4393.461426,0,3,56,,,,0,4,4,4,4,4,4,4,4,4,4,4,4,4,4,100,,,,,,,,,,,,,,,,,7,0,0.091219,-0.681213,0.220581,-0.692078,0.908802,-0.387254,-0.073739,-21.72011,-3.984071,80.413155,,,,,,,,,,,,,,,,,,,,,,,,,,,,,,,,,,,,,,,,,,,,,,,,,,,,,,,,,,,,,,,,,,,,,,,,,,,,,,,,,,,,,,,,,,,,,,,,,,,,,,,,,,
1702361606,1702361606,29,0,4252.94873,4201.794922,4246.666504,4278.333496,4205.897461,4254.358887,4238.589844,4270.512695,4240.769043,4257.307617,4447.94873,4424.358887,4334.487305,4399.358887,0,3,56,,,,0,4,4,4,4,4,4,4,4,4,4,4,4,4,4,100,,,,,,,,,,,,,,,,,,,,,,,,,,,,,,,,,,,,,,,,,,,,,,,,,,,,,,,,,,,,,,,,,,,,,,,,,,,,,,,,,,,,,,,,,,,,,,,,,,,,,,,,,,,,,,,,,,,,,,,,,,,,,,,,,,,,,,
1702361606,1702361606,30,0,4248.333496,4197.05127,4238.077148,4262.820313,4280.641113,4248.717773,4229.230957,4266.153809,4234.358887,4217.94873,4433.717773,4417.692383,4317.307617,4382.436035,0,3,56,,,,0,4,4,4,4,4,4,4,4,4,4,4,4,4,4,100,,,,,,,,,,,,,,,,,,,,,,,,,,,,,,,,,,,,,,,,,,,,,,,,,,,,,,,,,,,,,,,,,,,,,,,,,,,,,,,,,,,,,,,,,,,,,,,,,,,,,,,,,,,,,,,,,,,,,,,,,,,,,,,,,,,,,,
1702361606,1702361606,31,0,4254.358887,4199.743652,4235.128418,4253.974121,4292.692383,4257.820313,4225.641113,4261.410156,4228.333496,4180,4439.358887,4420.769043,4329.230957,4384.743652,0,3,56,,,,0,4,4,4,4,4,4,4,4,4,4,4,4,4,4,100,,,,,,,,,,,,,,,,,,,,,,,,,,,,,,,,,,,,,,,,,,,,,,,,,,,,,,,,,,,,,,,,,,,,,,,,,,,,,,,,,,,,,,,,,,,,,,,,,,,,,,,,,,,,,,,,,,,,,,,,,,,,,,,,,,,,,,
1702361606,1702361606,32,0,4266.410156,4208.333496,4249.743652,4270.512695,4220.384766,4261.282227,4233.589844,4266.410156,4236.025879,4221.410156,4465.128418,4435.641113,4358.205078,4403.846191,0,3,56,,,,0,4,4,4,4,4,4,4,4,4,4,4,4,4,4,100,,,,,,,,,,,,,,,,,8,0,0.091362,-0.680847,0.220886,-0.692322,0.898547,-0.407765,-0.067391,-21.681433,-4.085664,80.455177,,,,,,,,,,,,,,,,,,,,,,,,,,,,,,,,,,,,,,,,,,,,,,,,,,,,,,,,,,,,,,,,,,,,,,,,,,,,,,,,,,,,,,,,,,,,,,,,,,,,,,,,,,
1702361606,1702361606,33,0,4264.230957,4216.025879,4253.205078,4284.358887,4191.538574,4250,4232.436035,4268.717773,4240.384766,4220.769043,4462.820313,4436.410156,4356.153809,4401.025879,0,3,56,,,,0,4,4,4,4,4,4,4,4,4,4,4,4,4,4,100,,,,,,,,,,,,,,,,,,,,,,,,,,,,,,,,,,,,,,,,,,,,,,,,,,,,,,,,,,,,,,,,,,,,,,,,,,,,,,,,,,,,,,,,,,,,,,,,,,,,,,,,,,,,,,,,,,,,,,,,,,,,,,,,,,,,,,
1702361606,1702361606,34,0,4265.897461,4211.025879,4253.333496,4287.307617,4185.641113,4249.743652,4234.102539,4273.333496,4246.153809,4223.717773,4462.05127,4443.461426,4358.974121,4400.512695,0,3,56,,,,0,4,4,4,4,4,4,4,4,4,4,4,4,4,4,100,,,,,,,,,,,,,,,,,,,,,,,,,,,,,,,,,,,,,,,,,,,,,,,,,,,,,,,,,,,,,,,,,,,,,,,,,,,,,,,,,,,,,,,,,,,,,,,,,,,,,,,,,,,,,,,,,,,,,,,,,,,,,,,,,,,,,,
1702361606,1702361606,35,0,4257.94873,4193.846191,4253.974121,4276.282227,4201.794922,4251.794922,4233.717773,4273.589844,4249.358887,4250.512695,4463.974121,4445.769043,4355,4391.153809,0,3,56,,,,0,4,4,4,4,4,4,4,4,4,4,4,4,4,4,100,,,,,,,,,,,,,,,,,,,,,,,,,,,,,,,,,,,,,,,,,,,,,,,,,,,,,,,,,,,,,,,,,,,,,,,,,,,,,,,,,,,,,,,,,,,,,,,,,,,,,,,,,,,,,,,,,,,,,,,,,,,,,,,,,,,,,,
1702361606,1702361606,36,0,4252.05127,4202.307617,4252.820313,4274.358887,4241.410156,4245,4220.641113,4262.94873,4234.871582,4207.307617,4448.077148,4431.538574,4328.974121,4375.641113,0,3,56,,,,0,4,4,4,4,4,4,4,4,4,4,4,4,4,4,100,,,,,,,,,,,,,,,,,9,0,0.09259,-0.680664,0.22113,-0.692261,0.899036,-0.391649,-0.083506,-21.613289,-4.060431,80.692993,,,,,,,,,,,,,,,,,,,,,,,,,,,,,,,,,,,,,,,,,,,,,,,,,,,,,,,,,,,,,,,,,,,,,,,,,,,,,,,,,,,,,,,,,,,,,,,,,,,,,,,,,,
1702361606,1702361606,37,0,4283.717773,4248.205078,4261.538574,4301.922852,4248.717773,4248.205078,4216.794922,4260,4228.077148,4191.025879,4441.410156,4434.615234,4324.358887,4393.717773,0,3,56,,,,0,4,4,4,4,4,4,4,4,4,4,4,4,4,4,100,,,,,,,,,,,,,,,,,,,,,,,,,,,,,,,,,,,,,,,,,,,,,,,,,,,,,,,,,,,,,,,,,,,,,,,,,,,,,,,,,,,,,,,,,,,,,,,,,,,,,,,,,,,,,,,,,,,,,,,,,,,,,,,,,,,,,,
1702361606,1702361606,38,0,4314.743652,4288.461426,4274.487305,4328.077148,4230.256348,4259.871582,4230.384766,4264.743652,4236.794922,4218.974121,4447.307617,4450.512695,4330,4416.538574,0,3,56,,,,0,4,4,4,4,4,4,4,4,4,4,4,4,4,4,100,,,,,,,,,,,,,,,,,,,,,,,,,,,,,,,,,,,,,,,,,,,,,,,,,,,,,,,,,,,,,,,,,,,,,,,,,,,,,,,,,,,,,,,,,,,,,,,,,,,,,,,,,,,,,,,,,,,,,,,,,,,,,,,,,,,,,,
1702361606,1702361606,39,0,4311.282227,4299.230957,4279.487305,4331.025879,4204.743652,4257.820313,4237.563965,4264.871582,4232.05127,4205.256348,4439.743652,4450.641113,4312.436035,4407.436035,0,3,56,,,,0,4,4,4,4,4,4,4,4,4,4,4,4,4,4,100,,,,,,,,,,,,,,,,,,,,,,,,,,,,,,,,,,,,,,,,,,,,,,,,,,,,,,,,,,,,,,,,,3.01482,1.105382,0.938544,1.092394,0.748339,3.588759,1.693686,1.213713,1.109055,1.961206,1.960094,1.049419,1.419045,0.959644,0.712233,2.591943,2.220602,0.807955,1.741301,2.055888,2.017749,1.481655,3.982382,10.055106,23.191235,0.536794,0.263786,0.191493,0.338991,0.440462,0.610599,0.469718,0.745472,0.61587,0.730063,0.435151,0.109352,0.380816,0.182207,0.31048,1.184055,0.317882,0.704254,0.549441,0.543525,7.367925,2.333703,1.885511,4.209742,6.880775,4.778706,1.230094,2.030298,1.114251,0.850604,4.977692,1.234794,1.56995,1.14857,0.692985,5.126771,1.90465,2.184653,1.045757,1.13115,7.263288,0.674547,1.395182,1.235342,0.719121
1702361606,1702361606,40,0,4302.05127,4301.025879,4270.769043,4323.974121,4211.282227,4245.897461,4225,4260.384766,4218.077148,4178.846191,4422.179688,4434.615234,4286.922852,4391.025879,0,3,56,,,,0,4,4,4,4,4,4,4,4,4,4,4,4,4,4,100,,,,,,,,,,,,,,,,,10,0,0.093201,-0.680603,0.221252,-0.6922,0.886827,-0.390184,-0.059578,-21.80196,-4.154387,80.673691,,,,,,,,,,,,,,,,,,,,,,,,,,,,,,,,,,,,,,,,,,,,,,,,,,,,,,,,,,,,,,,,,,,,,,,,,,,,,,,,,,,,,,,,,,,,,,,,,,,,,,,,,,
1702361606,1702361606,41,0,4306.025879,4316.794922,4264.230957,4326.922852,4261.538574,4251.538574,4220.512695,4260.128418,4224.743652,4191.922852,4420.769043,4429.230957,4283.461426,4394.230957,0,3,56,,,,0,4,4,4,4,4,4,4,4,4,4,4,4,4,4,100,,,,,,,,,,,,,,,,,,,,,,,,,,,,,,,,,,,,,,,,,,,,,,,,,,,,,,,,,,,,,,,,,,,,,,,,,,,,,,,,,,,,,,,,,,,,,,,,,,,,,,,,,,,,,,,,,,,,,,,,,,,,,,,,,,,,,,
1702361606,1702361606,42,0,4314.743652,4343.846191,4274.358887,4342.307617,4258.077148,4264.487305,4233.974121,4264.102539,4237.563965,4199.871582,4424.871582,4440.256348,4285.384766,4401.025879,0,3,56,,,,0,4,4,4,4,4,4,4,4,4,4,4,4,4,4,100,,,,,,,,,,,,,,,,,,,,,,,,,,,,,,,,,,,,,,,,,,,,,,,,,,,,,,,,,,,,,,,,,,,,,,,,,,,,,,,,,,,,,,,,,,,,,,,,,,,,,,,,,,,,,,,,,,,,,,,,,,,,,,,,,,,,,,
1702361606,1702361606,43,0,4305.384766,4330.256348,4274.743652,4346.538574,4183.461426,4255.128418,4234.871582,4264.743652,4235.128418,4200.769043,4415.897461,4438.974121,4273.589844,4392.563965,0,3,56,,,,0,4,4,4,4,4,4,4,4,4,4,4,4,4,4,100,,,,,,,,,,,,,,,,,,,,,,,,,,,,,,,,,,,,,,,,,,,,,,,,,,,,,,,,,,,,,,,,,,,,,,,,,,,,,,,,,,,,,,,,,,,,,,,,,,,,,,,,,,,,,,,,,,,,,,,,,,,,,,,,,,,,,,
1702361606,1702361606,44,0,4278.077148,4293.974121,4251.410156,4323.205078,4200.256348,4240.384766,4218.205078,4261.282227,4231.666504,4240.769043,4405.384766,4418.461426,4262.563965,4372.307617,0,3,56,,,,0,4,4,4,4,4,4,4,4,4,4,4,4,4,4,100,,,,,,,,,,,,,,,,,11,0,0.094362,-0.680237,0.221313,-0.692383,0.896105,-0.407765,-0.071786,-21.855097,-4.138949,80.839653,,,,,,,,,,,,,,,,,,,,,,,,,,,,,,,,,,,,,,,,,,,,,,,,,,,,,,,,,,,,,,,,,,,,,,,,,,,,,,,,,,,,,,,,,,,,,,,,,,,,,,,,,,
1702361606,1702361606,45,0,4271.666504,4299.358887,4242.692383,4306.794922,4246.538574,4244.230957,4213.205078,4260.256348,4232.820313,4233.589844,4408.205078,4412.179688,4264.871582,4361.666504,0,3,56,,,,0,4,4,4,4,4,4,4,4,4,4,4,4,4,4,100,,,,,,,,,,,,,,,,,,,,,,,,,,,,,,,,,,,,,,,,,,,,,,,,,,,,,,,,,,,,,,,,,,,,,,,,,,,,,,,,,,,,,,,,,,,,,,,,,,,,,,,,,,,,,,,,,,,,,,,,,,,,,,,,,,,,,,
1702361606,1702361606,46,0,4282.436035,4311.538574,4252.563965,4318.846191,4198.974121,4250.512695,4221.794922,4263.974121,4234.871582,4177.94873,4413.589844,4425.384766,4267.692383,4369.358887,0,3,56,,,,0,4,4,4,4,4,4,4,4,4,4,4,4,4,4,100,,,,,,,,,,,,,,,,,,,,,,,,,,,,,,,,,,,,,,,,,,,,,,,,,,,,,,,,,,,,,,,,,,,,,,,,,,,,,,,,,,,,,,,,,,,,,,,,,,,,,,,,,,,,,,,,,,,,,,,,,,,,,,,,,,,,,,
1702361606,1702361606,47,0,4276.410156,4297.563965,4250.641113,4320.641113,4214.871582,4248.077148,4213.717773,4261.922852,4231.922852,4175,4410.384766,4424.487305,4267.820313,4371.666504,0,3,56,,,,0,4,4,4,4,4,4,4,4,4,4,4,4,4,4,100,,,,,,,,,,,,,,,,,,,,,,,,,,,,,,,,,,,,,,,,,,,,,,,,,,,,,,,,,,,,,,,,,,,,,,,,,,,,,,,,,,,,,,,,,,,,,,,,,,,,,,,,,,,,,,,,,,,,,,,,,,,,,,,,,,,,,,
1702361606,1702361606,48,0,4278.077148,4306.025879,4254.102539,4319.358887,4303.846191,4249.743652,4205.256348,4255.897461,4224.871582,4205.769043,4416.538574,4420.641113,4282.820313,4375.512695,0,3,56,,,,0,4,4,4,4,4,4,4,4,4,4,4,4,4,4,100,,,,,,,,,,,,,,,,,12,0,0.094201,-0.680237,0.221191,-0.692444,0.910267,-0.403858,-0.077646,-21.936255,-4.19172,80.805687,,,,,,,,,,,,,,,,,,,,,,,,,,,,,,,,,,,,,,,,,,,,,,,,,,,,,,,,,,,,,,,,,,,,,,,,,,,,,,,,,,,,,,,,,,,,,,,,,,,,,,,,,,
1702361606,1702361606,49,0,4307.436035,4341.410156,4285.769043,4355.512695,4204.871582,4261.538574,4226.922852,4265,4236.794922,4238.717773,4440.512695,4449.230957,4311.025879,4401.282227,0,3,56,,,,0,4,4,4,4,4,4,4,4,4,4,4,4,4,4,100,,,,,,,,,,,,,,,,,,,,,,,,,,,,,,,,,,,,,,,,,,,,,,,,,,,,,,,,,,,,,,,,,,,,,,,,,,,,,,,,,,,,,,,,,,,,,,,,,,,,,,,,,,,,,,,,,,,,,,,,,,,,,,,,,,,,,,
1702361606,1702361606,50,0,4313.077148,4340.897461,4300.512695,4371.410156,4096.025879,4267.820313,4242.563965,4274.487305,4251.410156,4254.230957,4452.820313,4470,4312.820313,4411.153809,0,3,56,,,,0,4,4,4,4,4,4,4,4,4,4,4,4,4,4,100,,,,,,,,,,,,,,,,,,,,,,,,,,,,,,,,,,,,,,,,,,,,,,,,,,,,,,,,,,,,,,,,,,,,,,,,,,,,,,,,,,,,,,,,,,,,,,,,,,,,,,,,,,,,,,,,,,,,,,,,,,,,,,,,,,,,,,
1702361606,1702361606,51,0,4283.333496,4313.974121,4274.743652,4331.794922,4237.820313,4254.615234,4221.538574,4264.102539,4238.717773,4218.846191,4431.282227,4446.538574,4283.205078,4383.717773,0,3,56,,,,0,4,4,4,4,4,4,4,4,4,4,4,4,4,4,100,,,,,,,,,,,,,,,,,,,,,,,,,,,,,,,,,,,,,,,,,,,,,,,,,,,,,,,,,,,,,,,,,,,,,,,,,,,,,,,,,,,,,,,,,,,,,,,,,,,,,,,,,,,,,,,,,,,,,,,,,,,,,,,,,,,,,,
1702361606,1702361606,52,0,4273.205078,4303.589844,4264.102539,4308.333496,4357.692383,4246.794922,4212.820313,4260.512695,4231.025879,4187.563965,4415.384766,4432.563965,4273.205078,4370,0,3,56,,,,0,4,4,4,4,4,4,4,4,4,4,4,4,4,4,100,,,,,,,,,,,,,,,,,13,0,0.094313,-0.680298,0.220764,-0.692505,0.908802,-0.410695,-0.073739,-22.009296,-4.239215,80.691788,,,,,,,,,,,,,,,,,,,,,,,,,,,,,,,,,,,,,,,,,,,,,,,,,,,,,,,,,,,,,,,,,,,,,,,,,,,,,,,,,,,,,,,,,,,,,,,,,,,,,,,,,,
1702361606,1702361606,53,0,4293.077148,4317.820313,4294.615234,4336.282227,4276.282227,4268.205078,4248.333496,4278.333496,4251.794922,4235.384766,4442.94873,4463.974121,4309.743652,4397.692383,0,3,56,,,,0,4,4,4,4,4,4,4,4,4,4,4,4,4,4,100,,,,,,,,,,,,,,,,,,,,,,,,,,,,,,,,,,,,,,,,,,,,,,,,,,,,,,,,,,,,,,,,,,,,,,,,,,,,,,,,,,,,,,,,,,,,,,,,,,,,,,,,,,,,,,,,,,,,,,,,,,,,,,,,,,,,,,
1702361606,1702361606,54,0,4301.922852,4337.436035,4314.358887,4357.94873,4207.307617,4285.384766,4274.743652,4286.282227,4265.769043,4273.077148,4468.205078,4485.897461,4330,4416.794922,0,3,56,,,,0,4,4,4,4,4,4,4,4,4,4,4,4,4,4,100,,,,,,,,,,,,,,,,,,,,,,,,,,,,,,,,,,,,,,,,,,,,,,,,,,,,,,,,,,,,,,,,,,,,,,,,,,,,,,,,,,,,,,,,,,,,,,,,,,,,,,,,,,,,,,,,,,,,,,,,,,,,,,,,,,,,,,
1702361606,1702361606,55,0,4295.384766,4333.205078,4306.538574,4344.230957,4214.358887,4283.974121,4270.128418,4279.615234,4260,4245,4462.563965,4475.384766,4317.692383,4409.871582,0,3,56,,,,0,4,4,4,4,4,4,4,4,4,4,4,4,4,4,100,1,16.666666,1,1,3,1,0,4,4,4,4,1,3,3,1,3,,,,,,,,,,,,,,,,,,,,,,,,,,,,,,,,,,,,,,,,,,,,,,,,,2.668328,1.185807,0.825504,0.982841,0.842807,3.184414,2.230274,1.088363,1.107697,1.888763,2.19796,1.102976,1.339105,0.820756,0.833663,2.357855,2.262155,0.762814,1.635668,2.196529,1.982431,1.488265,4.363194,9.888688,22.785,0.58727,0.346604,0.237546,0.342532,0.485929,0.616285,0.621544,0.929653,0.568848,0.840125,0.36992,0.126672,0.356419,0.165845,0.355633,1.067305,0.437479,0.626783,0.472453,0.619009,7.066574,2.725492,1.978444,3.46681,7.597395,6.09144,1.476754,1.956307,0.982821,0.990427,6.548678,1.682906,1.419647,1.024589,0.867842,6.856767,2.248765,2.307077,0.989718,1.284564,7.861091,0.854786,1.357011,1.146618,0.834665
1702361606,1702361606,56,0,4286.153809,4312.692383,4293.077148,4323.589844,4232.179688,4281.282227,4263.461426,4277.436035,4252.692383,4227.307617,4451.282227,4461.025879,4316.666504,4396.794922,0,3,56,,,,0,4,4,4,4,4,4,4,4,4,4,4,4,4,4,100,,,,,,,,,,,,,,,,,14,0,0.09446,-0.680481,0.22052,-0.692383,0.89171,-0.390184,-0.066903,-21.958366,-4.181961,80.72261,,,,,,,,,,,,,,,,,,,,,,,,,,,,,,,,,,,,,,,,,,,,,,,,,,,,,,,,,,,,,,,,,,,,,,,,,,,,,,,,,,,,,,,,,,,,,,,,,,,,,,,,,,
1702361606,1702361606,57,0,4271.282227,4306.794922,4279.615234,4317.307617,4271.538574,4280.641113,4259.743652,4276.282227,4247.820313,4238.077148,4445.256348,4449.230957,4313.974121,4383.717773,0,3,56,,,,0,4,4,4,4,4,4,4,4,4,4,4,4,4,4,100,,,,,,,,,,,,,,,,,,,,,,,,,,,,,,,,,,,,,,,,,,,,,,,,,,,,,,,,,,,,,,,,,,,,,,,,,,,,,,,,,,,,,,,,,,,,,,,,,,,,,,,,,,,,,,,,,,,,,,,,,,,,,,,,,,,,,,
1702361606,1702361606,58,0,4262.179688,4318.205078,4278.589844,4321.153809,4239.487305,4282.05127,4257.820313,4275.641113,4247.05127,4245.641113,4440,4442.94873,4295.128418,4380.256348,0,3,56,,,,0,4,4,4,4,4,4,4,4,4,4,4,4,4,4,100,,,,,,,,,,,,,,,,,,,,,,,,,,,,,,,,,,,,,,,,,,,,,,,,,,,,,,,,,,,,,,,,,,,,,,,,,,,,,,,,,,,,,,,,,,,,,,,,,,,,,,,,,,,,,,,,,,,,,,,,,,,,,,,,,,,,,,
1702361606,1702361606,59,0,4265.897461,4317.820313,4288.333496,4320.256348,4190.641113,4286.666504,4261.410156,4279.487305,4250.769043,4228.205078,4436.538574,4448.205078,4290.641113,4384.102539,0,3,56,,,,0,4,4,4,4,4,4,4,4,4,4,4,4,4,4,100,,,,,,,,,,,,,,,,,,,,,,,,,,,,,,,,,,,,,,,,,,,,,,,,,,,,,,,,,,,,,,,,,,,,,,,,,,,,,,,,,,,,,,,,,,,,,,,,,,,,,,,,,,,,,,,,,,,,,,,,,,,,,,,,,,,,,,
1702361606,1702361606,60,0,4269.615234,4314.230957,4287.05127,4317.820313,4275.256348,4284.743652,4262.820313,4280,4249.102539,4210.256348,4435.769043,4455.128418,4296.282227,4387.563965,0,3,56,,,,0,4,4,4,4,4,4,4,4,4,4,4,4,4,4,100,,,,,,,,,,,,,,,,,15,0,0.094408,-0.680725,0.219788,-0.692383,0.89757,-0.391649,-0.060554,-21.879196,-4.247097,80.667015,,,,,,,,,,,,,,,,,,,,,,,,,,,,,,,,,,,,,,,,,,,,,,,,,,,,,,,,,,,,,,,,,,,,,,,,,,,,,,,,,,,,,,,,,,,,,,,,,,,,,,,,,,
1702361606,1702361606,61,0,4265,4321.153809,4277.692383,4315.512695,4348.461426,4273.974121,4256.666504,4276.666504,4246.666504,4238.461426,4435.128418,4453.846191,4289.871582,4388.589844,0,3,56,,,,0,4,4,4,4,4,4,4,4,4,4,4,4,4,4,100,,,,,,,,,,,,,,,,,,,,,,,,,,,,,,,,,,,,,,,,,,,,,,,,,,,,,,,,,,,,,,,,,,,,,,,,,,,,,,,,,,,,,,,,,,,,,,,,,,,,,,,,,,,,,,,,,,,,,,,,,,,,,,,,,,,,,,
1702361606,1702361606,62,0,4265.769043,4324.358887,4286.922852,4319.102539,4294.743652,4283.461426,4264.358887,4284.615234,4257.307617,4268.461426,4450.769043,4463.846191,4301.153809,4398.974121,0,3,56,,,,0,4,4,4,4,4,4,4,4,4,4,4,4,4,4,100,,,,,,,,,,,,,,,,,,,,,,,,,,,,,,,,,,,,,,,,,,,,,,,,,,,,,,,,,,,,,,,,,,,,,,,,,,,,,,,,,,,,,,,,,,,,,,,,,,,,,,,,,,,,,,,,,,,,,,,,,,,,,,,,,,,,,,
1702361606,1702361606,63,0,4291.282227,4334.615234,4319.743652,4350.769043,4200.128418,4312.692383,4294.871582,4301.666504,4278.717773,4269.487305,4485.897461,4498.717773,4346.538574,4429.871582,0,3,56,,,,0,4,4,4,4,4,4,4,4,4,4,4,4,4,4,100,,,,,,,,,,,,,,,,,,,,,,,,,,,,,,,,,,,,,,,,,,,,,,,,,,,,,,,,,,,,,,,,,,,,,,,,,,,,,,,,,,,,,,,,,,,,,,,,,,,,,,,,,,,,,,,,,,,,,,,,,,,,,,,,,,,,,,
1702361606,1702361606,64,0,4316.153809,4358.974121,4342.820313,4383.846191,4160.512695,4320.641113,4312.820313,4308.205078,4287.436035,4261.025879,4503.077148,4519.102539,4369.615234,4452.94873,5318,3,56,,,,0,4,4,4,4,4,4,4,4,4,4,4,4,4,4,100,,,,,,,,,,,,,,,,,16,0,0.094766,-0.680908,0.218872,-0.692444,0.895617,-0.397509,-0.074228,-21.891277,-4.189054,80.750313,,,,,,,,,,,,,,,,,,,,,,,,,,,,,,,,,,,,,,,,,,,,,,,,,,,,,,,,,,,,,,,,,,,,,,,,,,,,,,,,,,,,,,,,,,,,,,,,,,,,,,,,,,
1702361606,1702361606,65,0,4294.487305,4350.897461,4323.077148,4358.846191,4236.282227,4307.692383,4294.871582,4296.538574,4274.358887,4260.256348,4480.384766,4494.102539,4344.615234,4432.05127,5514,3,56,,,,0,4,4,4,4,4,4,4,4,4,4,4,4,4,4,100,,,,,,,,,,,,,,,,,,,,,,,,,,,,,,,,,,,,,,,,,,,,,,,,,,,,,,,,,,,,,,,,,,,,,,,,,,,,,,,,,,,,,,,,,,,,,,,,,,,,,,,,,,,,,,,,,,,,,,,,,,,,,,,,,,,,,,
1702361606,1702361606,66,0,4255.384766,4312.307617,4286.922852,4302.563965,4355,4302.692383,4270.384766,4279.871582,4257.436035,4262.94873,4450.897461,4462.94873,4311.666504,4396.410156,5460,3,56,,,,0,4,4,4,4,4,4,4,4,4,4,4,4,4,4,100,,,,,,,,,,,,,,,,,,,,,,,,,,,,,,,,,,,,,,,,,,,,,,,,,,,,,,,,,,,,,,,,,,,,,,,,,,,,,,,,,,,,,,,,,,,,,,,,,,,,,,,,,,,,,,,,,,,,,,,,,,,,,,,,,,,,,,
1702361606,1702361606,67,0,4263.461426,4314.358887,4293.974121,4310.897461,4321.538574,4310,4273.846191,4279.871582,4262.05127,4250.769043,4460.897461,4476.025879,4321.794922,4407.05127,5487,3,56,,,,0,4,4,4,4,4,4,4,4,4,4,4,4,4,4,100,,,,,,,,,,,,,,,,,,,,,,,,,,,,,,,,,,,,,,,,,,,,,,,,,,,,,,,,,,,,,,,,,,,,,,,,,,,,,,,,,,,,,,,,,,,,,,,,,,,,,,,,,,,,,,,,,,,,,,,,,,,,,,,,,,,,,,
1702361606,1702361606,68,0,4286.538574,4340.512695,4322.94873,4351.794922,4225,4307.179688,4283.077148,4290.256348,4277.307617,4263.846191,4487.563965,4503.333496,4351.153809,4437.179688,5370,3,56,,,,0,4,4,4,4,4,4,4,4,4,4,4,4,4,4,100,,,,,,,,,,,,,,,,,17,0,0.094535,-0.681152,0.218018,-0.692505,0.904407,-0.395068,-0.075693,-21.852148,-4.220149,80.775284,,,,,,,,,,,,,,,,,,,,,,,,,,,,,,,,,,,,,,,,,,,,,,,,,,,,,,,,,,,,,,,,,,,,,,,,,,,,,,,,,,,,,,,,,,,,,,,,,,,,,,,,,,
1702361606,1702361606,69,0,4274.102539,4331.282227,4317.692383,4338.974121,4278.589844,4297.563965,4277.94873,4291.153809,4272.563965,4276.282227,4485.384766,4496.666504,4344.102539,4431.282227,5495,3,56,,,,0,4,4,4,4,4,4,4,4,4,4,4,4,4,4,100,,,,,,,,,,,,,,,,,,,,,,,,,,,,,,,,,,,,,,,,,,,,,,,,,,,,,,,,,,,,,,,,,,,,,,,,,,,,,,,,,,,,,,,,,,,,,,,,,,,,,,,,,,,,,,,,,,,,,,,,,,,,,,,,,,,,,,
1702361606,1702361606,70,0,4256.794922,4317.94873,4299.358887,4313.589844,4352.692383,4299.487305,4278.077148,4289.230957,4262.05127,4266.410156,4470.128418,4477.820313,4324.615234,4411.794922,5424,3,56,,,,0,4,4,4,4,4,4,4,4,4,4,4,4,4,4,100,,,,,,,,,,,,,,,,,,,,,,,,,,,,,,,,,,,,,,,,,,,,,,,,,,,,,,,,,,,,,,,,,,,,,,,,,,,,,,,,,,,,,,,,,,,,,,,,,,,,,,,,,,,,,,,,,,,,,,,,,,,,,,,,,,,,,,
1702361606,1702361606,71,0,4262.820313,4328.077148,4306.666504,4326.410156,4291.282227,4306.282227,4290.128418,4295.256348,4273.333496,4271.538574,4479.102539,4487.820313,4338.205078,4422.436035,3249,3,56,,,,0,4,4,4,4,4,4,4,4,4,4,4,4,4,4,100,,,,,,,,,,,,,,,,,,,,,,,,,,,,,,,,,,,,,,,,,,,,,,,,,,,,,,,,,,,,,,,,,2.715614,1.466692,0.79496,0.84064,0.946427,2.742429,2.962589,1.004549,1.040934,1.734448,2.61554,1.320553,1.291845,0.661627,0.968932,2.228173,2.344419,0.815379,1.438693,2.383146,2.021282,1.603545,4.536788,9.929522,22.190788,0.674356,0.412006,0.270914,0.326171,0.522112,0.669292,0.805103,1.093992,0.504166,0.959318,0.35333,0.182876,0.327352,0.145877,0.39612,1.06461,0.633497,0.54572,0.383872,0.689817,6.582677,3.012282,1.956931,2.778972,8.274373,7.946686,1.790233,1.830294,0.862832,1.16983,8.960136,2.399058,1.303747,0.897184,1.074975,9.158156,2.693077,2.338377,0.935148,1.453681,8.682438,1.175903,1.365964,1.015602,0.956248
1702361606,1702361606,72,0,4271.922852,4324.871582,4318.077148,4337.692383,4226.794922,4305.641113,4294.358887,4299.743652,4284.102539,4279.487305,4486.282227,4501.922852,4344.102539,4436.025879,4564,3,56,,,,0,4,4,4,4,4,4,4,4,4,4,4,4,4,4,100,,,,,,,,,,,,,,,,,18,0,0.094568,-0.681335,0.217041,-0.692627,0.897082,-0.394579,-0.069833,-22.050268,-4.131467,80.78109,,,,,,,,,,,,,,,,,,,,,,,,,,,,,,,,,,,,,,,,,,,,,,,,,,,,,,,,,,,,,,,,,,,,,,,,,,,,,,,,,,,,,,,,,,,,,,,,,,,,,,,,,,
1702361606,1702361606,73,0,4264.871582,4312.05127,4305.641113,4327.94873,4261.153809,4295.128418,4284.743652,4295,4272.05127,4257.05127,4460.897461,4483.974121,4315.384766,4415.128418,5566,3,56,,,,0,4,4,4,4,4,4,4,4,4,4,4,4,4,4,100,,,,,,,,,,,,,,,,,,,,,,,,,,,,,,,,,,,,,,,,,,,,,,,,,,,,,,,,,,,,,,,,,,,,,,,,,,,,,,,,,,,,,,,,,,,,,,,,,,,,,,,,,,,,,,,,,,,,,,,,,,,,,,,,,,,,,,
1702361606,1702361606,74,0,4248.717773,4302.307617,4289.743652,4311.410156,4287.692383,4290.256348,4276.153809,4291.153809,4258.846191,4252.179688,4445.384766,4466.410156,4306.153809,4397.307617,6008,3,56,,,,0,4,4,4,4,4,4,4,4,4,4,4,4,4,4,100,,,,,,,,,,,,,,,,,,,,,,,,,,,,,,,,,,,,,,,,,,,,,,,,,,,,,,,,,,,,,,,,,,,,,,,,,,,,,,,,,,,,,,,,,,,,,,,,,,,,,,,,,,,,,,,,,,,,,,,,,,,,,,,,,,,,,,
1702361606,1702361606,75,0,4245.512695,4294.487305,4292.94873,4296.666504,4229.743652,4296.922852,4275.897461,4290.256348,4260.512695,4275.128418,4454.358887,4471.410156,4310.769043,4403.974121,6103,3,56,,,,0,4,4,4,4,4,4,4,4,4,4,4,4,4,4,100,,,,,,,,,,,,,,,,,,,,,,,,,,,,,,,,,,,,,,,,,,,,,,,,,,,,,,,,,,,,,,,,,,,,,,,,,,,,,,,,,,,,,,,,,,,,,,,,,,,,,,,,,,,,,,,,,,,,,,,,,,,,,,,,,,,,,,
1702361606,1702361606,76,0,4262.820313,4306.282227,4308.974121,4303.205078,4219.743652,4298.077148,4277.820313,4294.230957,4266.538574,4254.615234,4463.717773,4479.358887,4310.897461,4416.153809,6384,3,56,,,,0,4,4,4,4,4,4,4,4,4,4,4,4,4,4,100,,,,,,,,,,,,,,,,,19,0,0.095028,-0.681213,0.216248,-0.692932,0.894152,-0.386766,-0.067391,-22.061907,-4.018321,80.752975,,,,,,,,,,,,,,,,,,,,,,,,,,,,,,,,,,,,,,,,,,,,,,,,,,,,,,,,,,,,,,,,,,,,,,,,,,,,,,,,,,,,,,,,,,,,,,,,,,,,,,,,,,
1702361606,1702361606,77,0,4269.615234,4318.717773,4313.461426,4315.512695,4307.820313,4285.384766,4270.641113,4296.794922,4266.666504,4243.205078,4464.743652,4482.179688,4325.256348,4421.282227,6546,3,56,,,,0,4,4,4,4,4,4,4,4,4,4,4,4,4,4,100,,,,,,,,,,,,,,,,,,,,,,,,,,,,,,,,,,,,,,,,,,,,,,,,,,,,,,,,,,,,,,,,,,,,,,,,,,,,,,,,,,,,,,,,,,,,,,,,,,,,,,,,,,,,,,,,,,,,,,,,,,,,,,,,,,,,,,
1702361606,1702361606,78,0,4251.666504,4299.358887,4301.794922,4302.05127,4310,4273.846191,4256.794922,4287.179688,4256.922852,4251.794922,4452.05127,4474.743652,4317.307617,4410.641113,6008,3,56,,,,0,4,4,4,4,4,4,4,4,4,4,4,4,4,4,100,,,,,,,,,,,,,,,,,,,,,,,,,,,,,,,,,,,,,,,,,,,,,,,,,,,,,,,,,,,,,,,,,,,,,,,,,,,,,,,,,,,,,,,,,,,,,,,,,,,,,,,,,,,,,,,,,,,,,,,,,,,,,,,,,,,,,,
1702361606,1702361606,79,0,4241.922852,4274.743652,4291.794922,4277.563965,4258.717773,4277.179688,4253.205078,4277.05127,4247.05127,4236.666504,4438.717773,4458.589844,4296.666504,4397.307617,6103,3,56,,,,0,4,4,4,4,4,4,4,4,4,4,4,4,4,4,100,,,,,,,,,,,,,,,,,,,,,,,,,,,,,,,,,,,,,,,,,,,,,,,,,,,,,,,,,,,,,,,,,,,,,,,,,,,,,,,,,,,,,,,,,,,,,,,,,,,,,,,,,,,,,,,,,,,,,,,,,,,,,,,,,,,,,,
1702361606,1702361606,80,0,4247.436035,4280.384766,4293.461426,4275.769043,4282.05127,4280.512695,4262.820313,4279.102539,4248.846191,4245.641113,4442.94873,4459.358887,4304.871582,4397.436035,6384,3,56,,,,0,4,4,4,4,4,4,4,4,4,4,4,4,4,4,100,,,,,,,,,,,,,,,,,20,0,0.094757,-0.681091,0.215576,-0.693298,0.901477,-0.391649,-0.070321,-22.005716,-3.933155,80.577682,,,,,,,,,,,,,,,,,,,,,,,,,,,,,,,,,,,,,,,,,,,,,,,,,,,,,,,,,,,,,,,,,,,,,,,,,,,,,,,,,,,,,,,,,,,,,,,,,,,,,,,,,,
1702361606,1702361606,81,0,4255.769043,4304.230957,4303.589844,4303.717773,4247.94873,4279.615234,4275.641113,4287.692383,4255.512695,4243.077148,4451.153809,4476.282227,4307.436035,4407.436035,6546,3,56,,,,0,4,4,4,4,4,4,4,4,4,4,4,4,4,4,100,,,,,,,,,,,,,,,,,,,,,,,,,,,,,,,,,,,,,,,,,,,,,,,,,,,,,,,,,,,,,,,,,,,,,,,,,,,,,,,,,,,,,,,,,,,,,,,,,,,,,,,,,,,,,,,,,,,,,,,,,,,,,,,,,,,,,,
1702361606,1702361606,82,0,4255.128418,4315,4301.025879,4313.333496,4205.128418,4276.666504,4272.820313,4284.230957,4253.333496,4220.641113,4442.436035,4470.128418,4293.077148,4407.692383,6008,3,56,,,,0,4,4,4,4,4,4,4,4,4,4,4,4,4,4,100,,,,,,,,,,,,,,,,,,,,,,,,,,,,,,,,,,,,,,,,,,,,,,,,,,,,,,,,,,,,,,,,,,,,,,,,,,,,,,,,,,,,,,,,,,,,,,,,,,,,,,,,,,,,,,,,,,,,,,,,,,,,,,,,,,,,,,
1702361606,1702361606,83,0,4238.333496,4295.897461,4280.384766,4285.512695,4283.589844,4268.717773,4255.769043,4269.358887,4243.461426,4217.05127,4423.461426,4445.512695,4287.692383,4389.871582,6103,3,56,,,,0,4,4,4,4,4,4,4,4,4,4,4,4,4,4,100,,,,,,,,,,,,,,,,,,,,,,,,,,,,,,,,,,,,,,,,,,,,,,,,,,,,,,,,,,,,,,,,,,,,,,,,,,,,,,,,,,,,,,,,,,,,,,,,,,,,,,,,,,,,,,,,,,,,,,,,,,,,,,,,,,,,,,
1702361606,1702361606,84,0,4215.384766,4272.563965,4258.589844,4258.205078,4308.846191,4263.974121,4244.615234,4261.922852,4235.769043,4229.102539,4404.871582,4425.897461,4271.794922,4363.589844,6384,3,56,,,,0,4,4,4,4,4,4,4,4,4,4,4,4,4,4,100,,,,,,,,,,,,,,,,,21,0,0.094804,-0.681091,0.214966,-0.693481,0.903919,-0.391649,-0.063484,-22.088478,-3.93984,80.503242,,,,,,,,,,,,,,,,,,,,,,,,,,,,,,,,,,,,,,,,,,,,,,,,,,,,,,,,,,,,,,,,,,,,,,,,,,,,,,,,,,,,,,,,,,,,,,,,,,,,,,,,,,
1702361606,1702361606,85,0,4202.820313,4279.871582,4249.230957,4253.717773,4236.282227,4263.205078,4239.358887,4262.94873,4232.563965,4237.820313,4401.025879,4412.436035,4255.641113,4351.282227,6546,3,56,,,,0,4,4,4,4,4,4,4,4,4,4,4,4,4,4,100,,,,,,,,,,,,,,,,,,,,,,,,,,,,,,,,,,,,,,,,,,,,,,,,,,,,,,,,,,,,,,,,,,,,,,,,,,,,,,,,,,,,,,,,,,,,,,,,,,,,,,,,,,,,,,,,,,,,,,,,,,,,,,,,,,,,,,
1702361606,1702361606,86,0,4200.512695,4280,4247.307617,4248.974121,4269.487305,4260.641113,4229.615234,4262.94873,4228.077148,4212.179688,4405.641113,4407.820313,4262.563965,4354.615234,6008,3,56,,,,0,4,4,4,4,4,4,4,4,4,4,4,4,4,4,100,,,,,,,,,,,,,,,,,,,,,,,,,,,,,,,,,,,,,,,,,,,,,,,,,,,,,,,,,,,,,,,,,,,,,,,,,,,,,,,,,,,,,,,,,,,,,,,,,,,,,,,,,,,,,,,,,,,,,,,,,,,,,,,,,,,,,,
1702361606,1702361606,87,0,4197.05127,4254.871582,4245.256348,4233.205078,4298.077148,4263.461426,4231.666504,4261.282227,4224.743652,4178.333496,4395,4406.922852,4257.94873,4349.615234,6103,3,56,,,,0,4,4,4,4,4,4,4,4,4,4,4,4,4,4,100,,,,,,,,,,,,,,,,,,,,,,,,,,,,,,,,,,,,,,,,,,,,,,,,,,,,,,,,,,,,,,,,,3.345393,1.873632,0.898649,0.724069,1.040481,2.815106,3.736411,1.073724,0.955344,1.549913,3.184566,1.692394,1.291833,0.536726,1.093313,2.147871,2.470201,1.006781,1.233336,2.57371,2.035519,1.826644,4.477874,10.440685,21.729429,0.746849,0.436415,0.284099,0.299577,0.543976,0.725513,0.960565,1.186533,0.440978,1.063991,0.356493,0.256302,0.302653,0.128333,0.425828,1.101773,0.852207,0.493569,0.313949,0.740611,5.830288,3.120843,1.864975,2.347708,8.791206,9.629001,2.114981,1.708248,0.816812,1.347466,11.645234,3.260148,1.253834,0.813152,1.273059,11.260695,3.138013,2.301658,0.933077,1.602366,9.589392,1.579016,1.456008,0.904867,1.064147
1702361606,1702361606,88,0,4201.922852,4257.94873,4253.077148,4231.410156,4207.307617,4265.512695,4245.384766,4263.589844,4230.384766,4208.589844,4392.05127,4409.615234,4254.487305,4346.794922,6384,3,56,,,,0,4,4,4,4,4,4,4,4,4,4,4,4,4,4,100,,,,,,,,,,,,,,,,,22,0,0.094926,-0.680969,0.214905,-0.693604,0.911244,-0.399951,-0.068368,-22.162964,-3.945856,80.469589,,,,,,,,,,,,,,,,,,,,,,,,,,,,,,,,,,,,,,,,,,,,,,,,,,,,,,,,,,,,,,,,,,,,,,,,,,,,,,,,,,,,,,,,,,,,,,,,,,,,,,,,,,
1702361606,1702361606,89,0,4203.846191,4273.589844,4255.641113,4227.563965,4202.307617,4251.922852,4238.077148,4264.358887,4232.94873,4250.512695,4397.94873,4412.05127,4261.153809,4342.563965,6546,3,56,,,,0,4,4,4,4,4,4,4,4,4,4,4,4,4,4,100,,,,,,,,,,,,,,,,,,,,,,,,,,,,,,,,,,,,,,,,,,,,,,,,,,,,,,,,,,,,,,,,,,,,,,,,,,,,,,,,,,,,,,,,,,,,,,,,,,,,,,,,,,,,,,,,,,,,,,,,,,,,,,,,,,,,,,
1702361606,1702361606,90,0,4196.282227,4265.897461,4248.589844,4212.05127,4289.102539,4243.974121,4228.717773,4263.846191,4232.436035,4211.794922,4395.256348,4410.128418,4259.230957,4335.128418,6008,3,56,,,,0,4,4,4,4,4,4,4,4,4,4,4,4,4,4,100,,,,,,,,,,,,,,,,,,,,,,,,,,,,,,,,,,,,,,,,,,,,,,,,,,,,,,,,,,,,,,,,,,,,,,,,,,,,,,,,,,,,,,,,,,,,,,,,,,,,,,,,,,,,,,,,,,,,,,,,,,,,,,,,,,,,,,
1702361606,1702361606,91,0,4209.102539,4269.102539,4258.717773,4223.589844,4271.794922,4257.436035,4245,4267.179688,4235.256348,4183.717773,4402.05127,4415.256348,4276.153809,4348.461426,6103,3,56,,,,0,4,4,4,4,4,4,4,4,4,4,4,4,4,4,100,,,,,,,,,,,,,,,,,,,,,,,,,,,,,,,,,,,,,,,,,,,,,,,,,,,,,,,,,,,,,,,,,,,,,,,,,,,,,,,,,,,,,,,,,,,,,,,,,,,,,,,,,,,,,,,,,,,,,,,,,,,,,,,,,,,,,,
1702361606,1702361606,92,0,4220.512695,4275.384766,4266.666504,4235.128418,4204.743652,4254.102539,4242.820313,4263.205078,4226.922852,4213.717773,4403.589844,4418.333496,4279.358887,4354.102539,6384,3,56,,,,0,4,4,4,4,4,4,4,4,4,4,4,4,4,4,100,,,,,,,,,,,,,,,,,23,0,0.09434,-0.680969,0.214966,-0.693665,0.914174,-0.392138,-0.072763,-22.063334,-3.834604,80.40596,,,,,,,,,,,,,,,,,,,,,,,,,,,,,,,,,,,,,,,,,,,,,,,,,,,,,,,,,,,,,,,,,,,,,,,,,,,,,,,,,,,,,,,,,,,,,,,,,,,,,,,,,,
1702361606,1702361606,93,0,4194.102539,4249.487305,4238.974121,4194.871582,4272.436035,4225,4205.769043,4248.333496,4208.846191,4184.871582,4370.769043,4396.025879,4233.846191,4323.846191,6546,3,56,,,,0,4,4,4,4,4,4,4,4,4,4,4,4,4,4,100,,,,,,,,,,,,,,,,,,,,,,,,,,,,,,,,,,,,,,,,,,,,,,,,,,,,,,,,,,,,,,,,,,,,,,,,,,,,,,,,,,,,,,,,,,,,,,,,,,,,,,,,,,,,,,,,,,,,,,,,,,,,,,,,,,,,,,
1702361606,1702361606,94,0,4180.384766,4237.94873,4223.717773,4172.692383,4349.102539,4226.538574,4202.05127,4246.538574,4211.025879,4161.410156,4356.666504,4385.512695,4225,4312.179688,6008,3,56,,,,0,4,4,4,4,4,4,4,4,4,4,4,4,4,4,100,,,,,,,,,,,,,,,,,,,,,,,,,,,,,,,,,,,,,,,,,,,,,,,,,,,,,,,,,,,,,,,,,,,,,,,,,,,,,,,,,,,,,,,,,,,,,,,,,,,,,,,,,,,,,,,,,,,,,,,,,,,,,,,,,,,,,,
1702361606,1702361606,95,0,4207.94873,4257.94873,4251.025879,4216.282227,4254.743652,4253.717773,4237.692383,4261.922852,4224.487305,4216.794922,4392.179688,4409.102539,4275.256348,4341.410156,6103,3,56,,,,0,4,4,4,4,4,4,4,4,4,4,4,4,4,4,100,,,,,,,,,,,,,,,,,,,,,,,,,,,,,,,,,,,,,,,,,,,,,,,,,,,,,,,,,,,,,,,,,,,,,,,,,,,,,,,,,,,,,,,,,,,,,,,,,,,,,,,,,,,,,,,,,,,,,,,,,,,,,,,,,,,,,,
1702361606,1702361606,96,0,4206.153809,4251.538574,4252.820313,4224.871582,4149.615234,4245.384766,4237.692383,4265.128418,4216.922852,4206.282227,4398.205078,4407.307617,4274.871582,4338.717773,6384,3,56,,,,0,4,4,4,4,4,4,4,4,4,4,4,4,4,4,100,,,,,,,,,,,,,,,,,24,0,0.094851,-0.681213,0.215149,-0.693298,0.898059,-0.390184,-0.059578,-21.957001,-3.86781,80.415367,,,,,,,,,,,,,,,,,,,,,,,,,,,,,,,,,,,,,,,,,,,,,,,,,,,,,,,,,,,,,,,,,,,,,,,,,,,,,,,,,,,,,,,,,,,,,,,,,,,,,,,,,,
1702361606,1702361606,97,0,4175.769043,4236.153809,4223.589844,4183.974121,4232.179688,4223.461426,4211.666504,4257.179688,4207.436035,4152.563965,4364.358887,4380.384766,4230.897461,4305.769043,6546,3,56,,,,0,4,4,4,4,4,4,4,4,4,4,4,4,4,4,100,,,,,,,,,,,,,,,,,,,,,,,,,,,,,,,,,,,,,,,,,,,,,,,,,,,,,,,,,,,,,,,,,,,,,,,,,,,,,,,,,,,,,,,,,,,,,,,,,,,,,,,,,,,,,,,,,,,,,,,,,,,,,,,,,,,,,,
1702361606,1702361606,98,0,4187.436035,4248.333496,4230.256348,4184.743652,4321.410156,4237.05127,4218.205078,4260.897461,4221.153809,4212.307617,4376.282227,4393.461426,4253.461426,4320.256348,6008,3,56,,,,0,4,4,4,4,4,4,4,4,4,4,4,4,4,4,100,,,,,,,,,,,,,,,,,,,,,,,,,,,,,,,,,,,,,,,,,,,,,,,,,,,,,,,,,,,,,,,,,,,,,,,,,,,,,,,,,,,,,,,,,,,,,,,,,,,,,,,,,,,,,,,,,,,,,,,,,,,,,,,,,,,,,,
1702361606,1702361606,99,0,4210.641113,4252.05127,4254.615234,4211.025879,4230.641113,4251.153809,4237.94873,4267.436035,4231.025879,4248.589844,4410,4417.94873,4290.641113,4349.102539,6103,3,56,,,,0,4,4,4,4,4,4,4,4,4,4,4,4,4,4,100,,,,,,,,,,,,,,,,,,,,,,,,,,,,,,,,,,,,,,,,,,,,,,,,,,,,,,,,,,,,,,,,,,,,,,,,,,,,,,,,,,,,,,,,,,,,,,,,,,,,,,,,,,,,,,,,,,,,,,,,,,,,,,,,,,,,,,
1702361606,1702361606,100,0,4197.563965,4240,4247.05127,4200.512695,4183.205078,4234.487305,4230.128418,4263.846191,4215.256348,4147.563965,4391.282227,4398.589844,4260,4327.436035,6384,3,56,,,,0,4,4,4,4,4,4,4,4,4,4,4,4,4,4,100,,,,,,,,,,,,,,,,,25,0,0.095319,-0.681396,0.215149,-0.693054,0.903431,-0.391161,-0.066414,-21.9613,-3.881029,80.440498,,,,,,,,,,,,,,,,,,,,,,,,,,,,,,,,,,,,,,,,,,,,,,,,,,,,,,,,,,,,,,,,,,,,,,,,,,,,,,,,,,,,,,,,,,,,,,,,,,,,,,,,,,
1702361606,1702361606,101,0,4190,4246.153809,4238.205078,4190.384766,4247.05127,4225.128418,4218.717773,4260.897461,4210,4140.128418,4368.333496,4382.179688,4235.128418,4306.153809,6546,3,56,,,,0,4,4,4,4,4,4,4,4,4,4,4,4,4,4,100,,,,,,,,,,,,,,,,,,,,,,,,,,,,,,,,,,,,,,,,,,,,,,,,,,,,,,,,,,,,,,,,,,,,,,,,,,,,,,,,,,,,,,,,,,,,,,,,,,,,,,,,,,,,,,,,,,,,,,,,,,,,,,,,,,,,,,
1702361606,1702361606,102,0,4202.436035,4250.897461,4247.820313,4203.974121,4248.461426,4232.820313,4220.384766,4263.333496,4230.256348,4267.436035,4384.615234,4396.153809,4250.384766,4317.436035,6008,3,56,,,,0,4,4,4,4,4,4,4,4,4,4,4,4,4,4,100,,,,,,,,,,,,,,,,,,,,,,,,,,,,,,,,,,,,,,,,,,,,,,,,,,,,,,,,,,,,,,,,,,,,,,,,,,,,,,,,,,,,,,,,,,,,,,,,,,,,,,,,,,,,,,,,,,,,,,,,,,,,,,,,,,,,,,
1702361606,1702361606,103,0,4192.692383,4227.436035,4240.512695,4192.05127,4227.94873,4228.846191,4218.589844,4261.153809,4227.563965,4247.307617,4381.282227,4389.230957,4235.256348,4305.769043,6103,3,56,,,,0,4,4,4,4,4,4,4,4,4,4,4,4,4,4,100,,,,,,,,,,,,,,,,,,,,,,,,,,,,,,,,,,,,,,,,,,,,,,,,,,,,,,,,,,,,,,,,,4.354353,2.397921,1.140083,0.68767,1.116466,3.783359,4.437716,1.341655,0.915627,1.392896,3.788358,2.219661,1.3284,0.495988,1.192908,2.122051,2.647558,1.326926,1.120291,2.729156,1.983387,2.118898,4.347322,11.599666,21.793112,0.768251,0.422257,0.287364,0.279936,0.552104,0.788705,1.054884,1.205829,0.409874,1.136269,0.357481,0.321644,0.293985,0.120992,0.441036,1.113058,1.031075,0.502154,0.280727,0.764432,4.941381,3.019884,1.785535,2.272303,9.051035,10.586862,2.486411,1.641379,0.893249,1.480951,13.720251,4.162148,1.278047,0.806008,1.428431,12.690397,3.632519,2.241965,1.039604,1.700734,10.314692,2.081843,1.621345,0.88554,1.150505
1702361606,1702361606,104,0,4187.436035,4237.94873,4236.922852,4188.974121,4266.410156,4229.230957,4226.282227,4259.230957,4210.641113,4145.384766,4367.179688,4380.384766,4213.077148,4295.512695,6384,3,56,,,,0,4,4,4,4,4,4,4,4,4,4,4,4,4,4,100,,,,,,,,,,,,,,,,,26,0,0.095914,-0.681274,0.215271,-0.693054,0.89171,-0.406788,-0.062019,-22.048504,-3.976259,80.463112,,,,,,,,,,,,,,,,,,,,,,,,,,,,,,,,,,,,,,,,,,,,,,,,,,,,,,,,,,,,,,,,,,,,,,,,,,,,,,,,,,,,,,,,,,,,,,,,,,,,,,,,,,
1702361606,1702361606,105,0,4214.487305,4272.563965,4266.282227,4227.436035,4253.077148,4246.153809,4245.897461,4268.077148,4225.128418,4188.461426,4385.897461,4410.512695,4234.230957,4324.102539,6546,3,56,,,,0,4,4,4,4,4,4,4,4,4,4,4,4,4,4,100,,,,,,,,,,,,,,,,,,,,,,,,,,,,,,,,,,,,,,,,,,,,,,,,,,,,,,,,,,,,,,,,,,,,,,,,,,,,,,,,,,,,,,,,,,,,,,,,,,,,,,,,,,,,,,,,,,,,,,,,,,,,,,,,,,,,,,
1702361606,1702361606,106,0,4218.846191,4252.820313,4270.897461,4227.436035,4222.563965,4241.282227,4238.589844,4266.538574,4233.333496,4232.94873,4390.769043,4420.769043,4239.230957,4328.333496,6008,3,56,,,,0,4,4,4,4,4,4,4,4,4,4,4,4,4,4,100,,,,,,,,,,,,,,,,,,,,,,,,,,,,,,,,,,,,,,,,,,,,,,,,,,,,,,,,,,,,,,,,,,,,,,,,,,,,,,,,,,,,,,,,,,,,,,,,,,,,,,,,,,,,,,,,,,,,,,,,,,,,,,,,,,,,,,
1702361607,1702361607,107,0,4203.077148,4230.641113,4245.769043,4191.666504,4268.589844,4215.128418,4208.974121,4253.077148,4215,4194.230957,4378.333496,4396.410156,4227.820313,4305.897461,6103,3,56,,,,0,4,4,4,4,4,4,4,4,4,4,4,4,4,4,100,,,,,,,,,,,,,,,,,,,,,,,,,,,,,,,,,,,,,,,,,,,,,,,,,,,,,,,,,,,,,,,,,,,,,,,,,,,,,,,,,,,,,,,,,,,,,,,,,,,,,,,,,,,,,,,,,,,,,,,,,,,,,,,,,,,,,,
1702361607,1702361607,108,0,4208.846191,4242.436035,4251.282227,4198.589844,4274.871582,4217.05127,4205.384766,4254.487305,4218.461426,4216.794922,4391.025879,4401.282227,4243.077148,4313.461426,6384,3,56,,,,0,4,4,4,4,4,4,4,4,4,4,4,4,4,4,100,,,,,,,,,,,,,,,,,27,0,0.096882,-0.680908,0.21521,-0.693298,0.89171,-0.381394,-0.0796,-22.143654,-3.8453,80.383469,,,,,,,,,,,,,,,,,,,,,,,,,,,,,,,,,,,,,,,,,,,,,,,,,,,,,,,,,,,,,,,,,,,,,,,,,,,,,,,,,,,,,,,,,,,,,,,,,,,,,,,,,,
1702361607,1702361607,109,0,4210.769043,4240.897461,4264.615234,4220.769043,4246.282227,4239.615234,4220.128418,4258.461426,4226.794922,4211.666504,4390.128418,4413.461426,4239.230957,4316.922852,6546,3,56,,,,0,4,4,4,4,4,4,4,4,4,4,4,4,4,4,100,,,,,,,,,,,,,,,,,,,,,,,,,,,,,,,,,,,,,,,,,,,,,,,,,,,,,,,,,,,,,,,,,,,,,,,,,,,,,,,,,,,,,,,,,,,,,,,,,,,,,,,,,,,,,,,,,,,,,,,,,,,,,,,,,,,,,,
1702361607,1702361607,110,0,4201.282227,4240,4252.94873,4220.769043,4212.820313,4235.128418,4220.384766,4249.743652,4209.743652,4127.692383,4361.922852,4397.94873,4210.769043,4295.641113,6008,3,56,,,,0,4,4,4,4,4,4,4,4,4,4,4,4,4,4,100,,,,,,,,,,,,,,,,,,,,,,,,,,,,,,,,,,,,,,,,,,,,,,,,,,,,,,,,,,,,,,,,,,,,,,,,,,,,,,,,,,,,,,,,,,,,,,,,,,,,,,,,,,,,,,,,,,,,,,,,,,,,,,,,,,,,,,
1702361607,1702361607,111,0,4201.538574,4243.333496,4244.102539,4211.410156,4204.230957,4211.922852,4210.384766,4244.743652,4201.794922,4161.538574,4356.794922,4388.461426,4212.307617,4291.025879,6103,3,56,,,,0,4,4,4,4,4,4,4,4,4,4,4,4,4,4,100,,,,,,,,,,,,,,,,,,,,,,,,,,,,,,,,,,,,,,,,,,,,,,,,,,,,,,,,,,,,,,,,,,,,,,,,,,,,,,,,,,,,,,,,,,,,,,,,,,,,,,,,,,,,,,,,,,,,,,,,,,,,,,,,,,,,,,
1702361607,1702361607,112,0,4202.436035,4223.974121,4246.922852,4198.974121,4275,4212.563965,4209.743652,4246.282227,4207.820313,4239.102539,4363.589844,4392.94873,4220.256348,4297.563965,6384,3,56,,,,0,4,4,4,4,4,4,4,4,4,4,4,4,4,4,100,,,,,,,,,,,,,,,,,28,0,0.096999,-0.680542,0.215332,-0.693604,0.904896,-0.418508,-0.063484,-22.162621,-3.777437,80.328453,,,,,,,,,,,,,,,,,,,,,,,,,,,,,,,,,,,,,,,,,,,,,,,,,,,,,,,,,,,,,,,,,,,,,,,,,,,,,,,,,,,,,,,,,,,,,,,,,,,,,,,,,,
1702361607,1702361607,113,0,4208.461426,4231.538574,4259.358887,4220.512695,4273.333496,4235,4227.94873,4253.846191,4210.512695,4192.94873,4366.153809,4401.794922,4214.743652,4304.743652,6546,3,56,,,,0,4,4,4,4,4,4,4,4,4,4,4,4,4,4,100,,,,,,,,,,,,,,,,,,,,,,,,,,,,,,,,,,,,,,,,,,,,,,,,,,,,,,,,,,,,,,,,,,,,,,,,,,,,,,,,,,,,,,,,,,,,,,,,,,,,,,,,,,,,,,,,,,,,,,,,,,,,,,,,,,,,,,
1702361607,1702361607,114,0,4225,4258.717773,4277.307617,4257.179688,4188.461426,4239.102539,4240.897461,4263.974121,4219.743652,4156.410156,4389.487305,4419.871582,4232.436035,4318.846191,6008,3,56,,,,0,4,4,4,4,4,4,4,4,4,4,4,4,4,4,100,,,,,,,,,,,,,,,,,,,,,,,,,,,,,,,,,,,,,,,,,,,,,,,,,,,,,,,,,,,,,,,,,,,,,,,,,,,,,,,,,,,,,,,,,,,,,,,,,,,,,,,,,,,,,,,,,,,,,,,,,,,,,,,,,,,,,,
1702361607,1702361607,115,0,4217.563965,4230.128418,4268.205078,4235.897461,4212.563965,4222.436035,4225.512695,4257.307617,4215.512695,4196.922852,4391.282227,4413.974121,4239.871582,4309.743652,6103,3,56,,,,0,4,4,4,4,4,4,4,4,4,4,4,4,4,4,100,,,,,,,,,,,,,,,,,,,,,,,,,,,,,,,,,,,,,,,,,,,,,,,,,,,,,,,,,,,,,,,,,,,,,,,,,,,,,,,,,,,,,,,,,,,,,,,,,,,,,,,,,,,,,,,,,,,,,,,,,,,,,,,,,,,,,,
1702361607,1702361607,116,0,4200.897461,4211.666504,4242.05127,4208.717773,4280,4218.974121,4207.94873,4244.487305,4199.487305,4207.307617,4357.563965,4386.282227,4212.436035,4285.641113,6384,3,56,,,,0,4,4,4,4,4,4,4,4,4,4,4,4,4,4,100,,,,,,,,,,,,,,,,,29,0,0.096996,-0.680298,0.215515,-0.693787,0.88585,-0.402393,-0.073739,-22.213026,-3.699693,80.295609,,,,,,,,,,,,,,,,,,,,,,,,,,,,,,,,,,,,,,,,,,,,,,,,,,,,,,,,,,,,,,,,,,,,,,,,,,,,,,,,,,,,,,,,,,,,,,,,,,,,,,,,,,
1702361607,1702361607,117,0,4213.333496,4244.230957,4247.05127,4237.692383,4193.333496,4228.461426,4215.641113,4249.487305,4209.871582,4190.641113,4363.589844,4396.153809,4216.922852,4297.692383,6546,3,56,,,,0,4,4,4,4,4,4,4,4,4,4,4,4,4,4,100,,,,,,,,,,,,,,,,,,,,,,,,,,,,,,,,,,,,,,,,,,,,,,,,,,,,,,,,,,,,,,,,,,,,,,,,,,,,,,,,,,,,,,,,,,,,,,,,,,,,,,,,,,,,,,,,,,,,,,,,,,,,,,,,,,,,,,
1702361607,1702361607,118,0,4224.871582,4242.820313,4257.05127,4242.179688,4144.102539,4223.205078,4218.333496,4254.487305,4221.282227,4186.410156,4389.230957,4412.820313,4236.922852,4311.794922,6008,3,56,,,,0,4,4,4,4,4,4,4,4,4,4,4,4,4,4,100,,,,,,,,,,,,,,,,,,,,,,,,,,,,,,,,,,,,,,,,,,,,,,,,,,,,,,,,,,,,,,,,,,,,,,,,,,,,,,,,,,,,,,,,,,,,,,,,,,,,,,,,,,,,,,,,,,,,,,,,,,,,,,,,,,,,,,
1702361607,1702361607,119,0,4207.307617,4209.102539,4236.538574,4187.94873,4245,4212.692383,4203.589844,4247.436035,4207.05127,4184.743652,4370.769043,4390,4213.974121,4291.794922,6103,3,56,,,,0,4,4,4,4,4,4,4,4,4,4,4,4,4,4,100,1,16.666666,4,3,3,1,0,3,3,4,4,1,4,3,3,3,,,,,,,,,,,,,,,,,,,,,,,,,,,,,,,,,,,,,,,,,,,,,,,,,5.464168,2.985137,1.475032,0.751838,1.17936,5.561599,4.959003,1.778899,0.96729,1.30605,4.223156,2.838058,1.388013,0.560572,1.270234,2.124102,2.862265,1.730936,1.16448,2.837784,1.795788,2.447681,4.471063,13.468975,22.619133,0.74953,0.390557,0.302117,0.282206,0.552059,0.837324,1.077452,1.214802,0.435066,1.170278,0.333767,0.363203,0.31361,0.129999,0.44107,1.05475,1.120794,0.587425,0.283,0.763465,4.023344,2.752236,1.790852,2.499665,8.999877,10.476549,2.909878,1.659708,1.090597,1.545932,14.423662,4.956234,1.379428,0.874594,1.526763,13.15712,4.215626,2.211676,1.270902,1.740609,10.351201,2.667965,1.82404,0.992541,1.22215
1702361607,1702361607,120,0,4181.282227,4191.922852,4211.922852,4136.922852,4277.94873,4212.94873,4194.487305,4237.05127,4197.05127,4178.974121,4340.512695,4362.820313,4182.692383,4266.794922,6384,3,56,,,,0,4,4,4,4,4,4,4,4,4,4,4,4,4,4,100,,,,,,,,,,,,,,,,,30,0,0.096864,-0.680115,0.215759,-0.693909,0.884874,-0.399951,-0.065438,-21.991724,-3.713057,80.316048,,,,,,,,,,,,,,,,,,,,,,,,,,,,,,,,,,,,,,,,,,,,,,,,,,,,,,,,,,,,,,,,,,,,,,,,,,,,,,,,,,,,,,,,,,,,,,,,,,,,,,,,,,
1702361607,1702361607,121,0,4180.256348,4200,4213.333496,4122.692383,4253.205078,4215.769043,4195.256348,4230.769043,4199.487305,4180,4340.641113,4361.666504,4188.589844,4263.846191,6546,3,56,,,,0,4,4,4,4,4,4,4,4,4,4,4,4,4,4,100,,,,,,,,,,,,,,,,,,,,,,,,,,,,,,,,,,,,,,,,,,,,,,,,,,,,,,,,,,,,,,,,,,,,,,,,,,,,,,,,,,,,,,,,,,,,,,,,,,,,,,,,,,,,,,,,,,,,,,,,,,,,,,,,,,,,,,
1702361607,1702361607,122,0,4215.769043,4232.436035,4240,4142.307617,4242.820313,4225.128418,4208.461426,4239.487305,4202.436035,4199.358887,4366.025879,4383.589844,4221.153809,4292.307617,6008,3,56,,,,0,4,4,4,4,4,4,4,4,4,4,4,4,4,4,100,,,,,,,,,,,,,,,,,,,,,,,,,,,,,,,,,,,,,,,,,,,,,,,,,,,,,,,,,,,,,,,,,,,,,,,,,,,,,,,,,,,,,,,,,,,,,,,,,,,,,,,,,,,,,,,,,,,,,,,,,,,,,,,,,,,,,,
1702361607,1702361607,123,0,4238.974121,4253.717773,4260,4157.563965,4172.94873,4232.05127,4220.897461,4249.102539,4201.282227,4203.333496,4378.461426,4401.025879,4227.94873,4316.794922,6103,3,56,,,,0,4,4,4,4,4,4,4,4,4,4,4,4,4,4,100,,,,,,,,,,,,,,,,,,,,,,,,,,,,,,,,,,,,,,,,,,,,,,,,,,,,,,,,,,,,,,,,,,,,,,,,,,,,,,,,,,,,,,,,,,,,,,,,,,,,,,,,,,,,,,,,,,,,,,,,,,,,,,,,,,,,,,
1702361607,1702361607,124,0,4223.461426,4246.153809,4255.897461,4141.282227,4131.538574,4223.846191,4213.846191,4247.436035,4201.410156,4206.025879,4362.05127,4393.717773,4196.538574,4302.179688,6384,3,56,,,,0,4,4,4,4,4,4,4,4,4,4,4,4,4,4,100,,,,,,,,,,,,,,,,,31,0,0.096985,-0.67981,0.215881,-0.694153,0.881944,-0.390673,-0.058601,-22.09255,-3.525085,80.167778,,,,,,,,,,,,,,,,,,,,,,,,,,,,,,,,,,,,,,,,,,,,,,,,,,,,,,,,,,,,,,,,,,,,,,,,,,,,,,,,,,,,,,,,,,,,,,,,,,,,,,,,,,
1702361607,1702361607,125,0,4213.974121,4242.94873,4244.487305,4119.102539,4232.307617,4216.282227,4202.179688,4247.05127,4202.05127,4195.128418,4353.974121,4384.230957,4182.563965,4285,6546,3,56,,,,0,4,4,4,4,4,4,4,4,4,4,4,4,4,4,100,,,,,,,,,,,,,,,,,,,,,,,,,,,,,,,,,,,,,,,,,,,,,,,,,,,,,,,,,,,,,,,,,,,,,,,,,,,,,,,,,,,,,,,,,,,,,,,,,,,,,,,,,,,,,,,,,,,,,,,,,,,,,,,,,,,,,,
1702361607,1702361607,126,0,4216.153809,4231.410156,4234.102539,4096.794922,4325.641113,4217.94873,4195,4241.538574,4192.307617,4140.128418,4353.974121,4378.205078,4185.256348,4284.102539,6008,3,56,,,,0,4,4,4,4,4,4,4,4,4,4,4,4,4,4,100,,,,,,,,,,,,,,,,,,,,,,,,,,,,,,,,,,,,,,,,,,,,,,,,,,,,,,,,,,,,,,,,,,,,,,,,,,,,,,,,,,,,,,,,,,,,,,,,,,,,,,,,,,,,,,,,,,,,,,,,,,,,,,,,,,,,,,
1702361607,1702361607,127,0,4210.256348,4208.717773,4230,4086.410156,4268.077148,4222.05127,4190.769043,4233.205078,4185.128418,4133.589844,4339.358887,4366.410156,4173.974121,4278.717773,56,3,56,,,,0,4,4,4,4,4,4,4,4,4,4,4,4,4,4,100,,,,,,,,,,,,,,,,,,,,,,,,,,,,,,,,,,,,,,,,,,,,,,,,,,,,,,,,,,,,,,,,,,,,,,,,,,,,,,,,,,,,,,,,,,,,,,,,,,,,,,,,,,,,,,,,,,,,,,,,,,,,,,,,,,,,,,
1702361607,1702361607,0,0,4225.384766,4238.717773,4251.025879,4126.538574,4158.974121,4227.436035,4203.461426,4241.025879,4203.846191,4221.922852,4356.025879,4383.461426,4193.846191,4294.871582,5322,3,56,,,,0,4,4,4,4,4,4,4,4,4,4,4,4,4,4,100,,,,,,,,,,,,,,,,,0,0,0.096354,-0.679443,0.215942,-0.69458,0.895129,-0.399463,-0.068368,-21.999962,-3.705909,80.167664,,,,,,,,,,,,,,,,,,,,,,,,,,,,,,,,,,,,,,,,,,,,,,,,,,,,,,,,,,,,,,,,,,,,,,,,,,,,,,,,,,,,,,,,,,,,,,,,,,,,,,,,,,
1702361607,1702361607,1,0,4249.871582,4276.922852,4275.128418,4165.256348,4144.871582,4233.077148,4225.384766,4254.358887,4226.410156,4258.077148,4402.179688,4420,4241.153809,4329.358887,5517,3,56,,,,0,4,4,4,4,4,4,4,4,4,4,4,4,4,4,100,,,,,,,,,,,,,,,,,,,,,,,,,,,,,,,,,,,,,,,,,,,,,,,,,,,,,,,,,,,,,,,,,,,,,,,,,,,,,,,,,,,,,,,,,,,,,,,,,,,,,,,,,,,,,,,,,,,,,,,,,,,,,,,,,,,,,,
1702361607,1702361607,2,0,4234.487305,4238.077148,4257.94873,4134.230957,4237.563965,4233.846191,4220.769043,4251.282227,4216.153809,4184.487305,4394.487305,4407.94873,4226.538574,4316.025879,5469,3,56,,,,0,4,4,4,4,4,4,4,4,4,4,4,4,4,4,100,,,,,,,,,,,,,,,,,,,,,,,,,,,,,,,,,,,,,,,,,,,,,,,,,,,,,,,,,,,,,,,,,,,,,,,,,,,,,,,,,,,,,,,,,,,,,,,,,,,,,,,,,,,,,,,,,,,,,,,,,,,,,,,,,,,,,,
1702361607,1702361607,3,0,4208.974121,4198.974121,4229.487305,4094.871826,4292.179688,4228.461426,4202.436035,4241.282227,4193.846191,4146.282227,4349.487305,4371.282227,4179.871582,4277.179688,5512,3,56,,,,0,4,4,4,4,4,4,4,4,4,4,4,4,4,4,100,,,,,,,,,,,,,,,,,,,,,,,,,,,,,,,,,,,,,,,,,,,,,,,,,,,,,,,,,,,,,,,,,,,,,,,,,,,,,,,,,,,,,,,,,,,,,,,,,,,,,,,,,,,,,,,,,,,,,,,,,,,,,,,,,,,,,,
1702361607,1702361607,4,0,4210.512695,4225.769043,4230.256348,4105.128418,4266.794922,4219.487305,4197.05127,4240.384766,4191.794922,4171.282227,4342.436035,4369.871582,4181.410156,4277.94873,5484,3,56,,,,0,4,4,4,4,4,4,4,4,4,4,4,4,4,4,100,,,,,,,,,,,,,,,,,1,0,0.095923,-0.679321,0.216125,-0.694702,0.907826,-0.398486,-0.048834,-21.7833,-3.818652,80.217567,,,,,,,,,,,,,,,,,,,,,,,,,,,,,,,,,,,,,,,,,,,,,,,,,,,,,,,,,,,,,,,,,,,,,,,,,,,,,,,,,,,,,,,,,,,,,,,,,,,,,,,,,,
1702361607,1702361607,5,0,4225.256348,4251.025879,4247.820313,4138.461426,4227.436035,4222.692383,4199.358887,4243.589844,4199.102539,4186.153809,4363.974121,4391.538574,4201.282227,4301.410156,5494,3,56,,,,0,4,4,4,4,4,4,4,4,4,4,4,4,4,4,100,,,,,,,,,,,,,,,,,,,,,,,,,,,,,,,,,,,,,,,,,,,,,,,,,,,,,,,,,,,,,,,,,,,,,,,,,,,,,,,,,,,,,,,,,,,,,,,,,,,,,,,,,,,,,,,,,,,,,,,,,,,,,,,,,,,,,,
1702361607,1702361607,6,0,4235.897461,4238.846191,4257.820313,4161.794922,4165.128418,4229.743652,4201.794922,4245.769043,4201.922852,4178.333496,4368.461426,4402.692383,4199.743652,4305.128418,5415,3,56,,,,0,4,4,4,4,4,4,4,4,4,4,4,4,4,4,100,,,,,,,,,,,,,,,,,,,,,,,,,,,,,,,,,,,,,,,,,,,,,,,,,,,,,,,,,,,,,,,,,,,,,,,,,,,,,,,,,,,,,,,,,,,,,,,,,,,,,,,,,,,,,,,,,,,,,,,,,,,,,,,,,,,,,,
1702361607,1702361607,7,0,4224.871582,4225.256348,4251.153809,4155.384766,4170,4218.717773,4196.282227,4243.589844,4200.384766,4180.384766,4354.358887,4393.461426,4195.128418,4291.922852,3239,3,56,,,,0,4,4,4,4,4,4,4,4,4,4,4,4,4,4,100,,,,,,,,,,,,,,,,,,,,,,,,,,,,,,,,,,,,,,,,,,,,,,,,,,,,,,,,,,,,,,,,,6.360847,3.531601,1.825428,0.88702,1.239673,7.678378,5.199411,2.281771,1.107423,1.302602,4.360081,3.421301,1.462915,0.70633,1.337409,2.134185,3.073756,2.152695,1.344299,2.915301,1.513856,2.781503,5.085799,15.698824,24.14546,0.709898,0.366888,0.350341,0.309257,0.55619,0.898854,1.035058,1.307581,0.519495,1.176248,0.3077,0.371963,0.371211,0.154327,0.428157,0.939298,1.09677,0.742397,0.304993,0.745613,3.167271,2.373849,1.901047,2.851773,8.692617,9.300561,3.295291,1.766858,1.346651,1.55034,13.522771,5.473085,1.563747,0.980433,1.574725,12.613322,4.81323,2.254691,1.577164,1.749653,9.514971,3.23054,2.014943,1.194761,1.2953
1702361607,1702361607,8,0,4211.025879,4232.307617,4243.846191,4133.846191,4273.974121,4217.436035,4194.487305,4241.922852,4199.487305,4217.179688,4354.102539,4386.282227,4199.358887,4291.410156,4539,3,56,,,,0,4,4,4,4,4,4,4,4,4,4,4,4,4,4,100,,,,,,,,,,,,,,,,,2,0,0.095608,-0.679077,0.216248,-0.694946,0.908802,-0.397998,-0.066903,-21.638304,-3.753453,80.179146,,,,,,,,,,,,,,,,,,,,,,,,,,,,,,,,,,,,,,,,,,,,,,,,,,,,,,,,,,,,,,,,,,,,,,,,,,,,,,,,,,,,,,,,,,,,,,,,,,,,,,,,,,
1702361607,1702361607,9,0,4226.410156,4238.333496,4253.974121,4141.538574,4263.717773,4235.641113,4215,4247.307617,4201.922852,4213.333496,4375.641113,4403.589844,4206.922852,4308.846191,5460,3,56,,,,0,4,4,4,4,4,4,4,4,4,4,4,4,4,4,100,,,,,,,,,,,,,,,,,,,,,,,,,,,,,,,,,,,,,,,,,,,,,,,,,,,,,,,,,,,,,,,,,,,,,,,,,,,,,,,,,,,,,,,,,,,,,,,,,,,,,,,,,,,,,,,,,,,,,,,,,,,,,,,,,,,,,,
1702361607,1702361607,10,0,4236.025879,4214.487305,4267.94873,4167.436035,4197.05127,4237.94873,4231.282227,4251.794922,4206.410156,4167.179688,4384.358887,4417.820313,4215.897461,4316.538574,6030,3,56,,,,0,4,4,4,4,4,4,4,4,4,4,4,4,4,4,100,,,,,,,,,,,,,,,,,,,,,,,,,,,,,,,,,,,,,,,,,,,,,,,,,,,,,,,,,,,,,,,,,,,,,,,,,,,,,,,,,,,,,,,,,,,,,,,,,,,,,,,,,,,,,,,,,,,,,,,,,,,,,,,,,,,,,,
1702361607,1702361607,11,0,4222.692383,4206.922852,4262.820313,4171.153809,4250.641113,4231.794922,4224.871582,4249.230957,4203.846191,4168.461426,4366.282227,4404.615234,4212.307617,4308.461426,6110,3,56,,,,0,4,4,4,4,4,4,4,4,4,4,4,4,4,4,100,,,,,,,,,,,,,,,,,,,,,,,,,,,,,,,,,,,,,,,,,,,,,,,,,,,,,,,,,,,,,,,,,,,,,,,,,,,,,,,,,,,,,,,,,,,,,,,,,,,,,,,,,,,,,,,,,,,,,,,,,,,,,,,,,,,,,,
1702361607,1702361607,12,0,4221.282227,4237.820313,4250.512695,4163.974121,4279.230957,4233.461426,4213.205078,4245.256348,4196.922852,4196.282227,4350.769043,4391.538574,4191.025879,4303.333496,6399,3,56,,,,0,4,4,4,4,4,4,4,4,4,4,4,4,4,4,100,,,,,,,,,,,,,,,,,3,0,0.095322,-0.679199,0.216187,-0.694885,0.907826,-0.386278,-0.059089,-21.624474,-3.661441,80.177895,,,,,,,,,,,,,,,,,,,,,,,,,,,,,,,,,,,,,,,,,,,,,,,,,,,,,,,,,,,,,,,,,,,,,,,,,,,,,,,,,,,,,,,,,,,,,,,,,,,,,,,,,,
1702361607,1702361607,13,0,4231.538574,4241.410156,4252.820313,4173.333496,4208.333496,4234.743652,4218.205078,4248.205078,4204.230957,4176.538574,4363.717773,4402.692383,4191.410156,4309.358887,6541,3,56,,,,0,4,4,4,4,4,4,4,4,4,4,4,4,4,4,100,,,,,,,,,,,,,,,,,,,,,,,,,,,,,,,,,,,,,,,,,,,,,,,,,,,,,,,,,,,,,,,,,,,,,,,,,,,,,,,,,,,,,,,,,,,,,,,,,,,,,,,,,,,,,,,,,,,,,,,,,,,,,,,,,,,,,,
1702361607,1702361607,14,0,4234.743652,4224.230957,4261.794922,4191.794922,4175.128418,4238.461426,4229.871582,4252.179688,4219.615234,4190.256348,4385.512695,4417.307617,4218.205078,4315.897461,6030,3,56,,,,0,4,4,4,4,4,4,4,4,4,4,4,4,4,4,100,,,,,,,,,,,,,,,,,,,,,,,,,,,,,,,,,,,,,,,,,,,,,,,,,,,,,,,,,,,,,,,,,,,,,,,,,,,,,,,,,,,,,,,,,,,,,,,,,,,,,,,,,,,,,,,,,,,,,,,,,,,,,,,,,,,,,,
1702361607,1702361607,15,0,4230.769043,4224.102539,4259.615234,4187.692383,4207.94873,4235.512695,4222.563965,4252.179688,4216.794922,4206.666504,4375.641113,4410,4214.358887,4309.615234,6110,3,56,,,,0,4,4,4,4,4,4,4,4,4,4,4,4,4,4,100,,,,,,,,,,,,,,,,,,,,,,,,,,,,,,,,,,,,,,,,,,,,,,,,,,,,,,,,,,,,,,,,,,,,,,,,,,,,,,,,,,,,,,,,,,,,,,,,,,,,,,,,,,,,,,,,,,,,,,,,,,,,,,,,,,,,,,
1702361607,1702361607,16,0,4216.538574,4209.230957,4241.410156,4164.230957,4245.384766,4222.692383,4202.563965,4244.230957,4197.692383,4132.436035,4345.256348,4384.743652,4182.692383,4288.974121,0,3,56,,,,0,4,4,4,4,4,4,4,4,4,4,4,4,4,4,100,,,,,,,,,,,,,,,,,4,0,0.094964,-0.679443,0.215576,-0.694885,0.898547,-0.390673,-0.063484,-21.662025,-3.661964,80.060104,,,,,,,,,,,,,,,,,,,,,,,,,,,,,,,,,,,,,,,,,,,,,,,,,,,,,,,,,,,,,,,,,,,,,,,,,,,,,,,,,,,,,,,,,,,,,,,,,,,,,,,,,,
1702361607,1702361607,17,0,4206.025879,4200.641113,4231.922852,4170.256348,4270,4223.461426,4195,4231.538574,4190.128418,4103.846191,4341.794922,4369.871582,4182.94873,4278.846191,0,3,56,,,,0,4,4,4,4,4,4,4,4,4,4,4,4,4,4,100,,,,,,,,,,,,,,,,,,,,,,,,,,,,,,,,,,,,,,,,,,,,,,,,,,,,,,,,,,,,,,,,,,,,,,,,,,,,,,,,,,,,,,,,,,,,,,,,,,,,,,,,,,,,,,,,,,,,,,,,,,,,,,,,,,,,,,
1702361607,1702361607,18,0,4221.794922,4230.384766,4244.487305,4201.666504,4222.820313,4234.615234,4203.846191,4236.410156,4201.794922,4183.333496,4363.333496,4383.461426,4211.153809,4298.974121,0,3,56,,,,0,4,4,4,4,4,4,4,4,4,4,4,4,4,4,100,,,,,,,,,,,,,,,,,,,,,,,,,,,,,,,,,,,,,,,,,,,,,,,,,,,,,,,,,,,,,,,,,,,,,,,,,,,,,,,,,,,,,,,,,,,,,,,,,,,,,,,,,,,,,,,,,,,,,,,,,,,,,,,,,,,,,,
1702361607,1702361607,19,0,4221.666504,4228.589844,4245.384766,4194.487305,4182.179688,4235.384766,4205.512695,4247.692383,4207.692383,4224.230957,4356.410156,4390.128418,4202.307617,4301.922852,0,3,56,,,,0,4,4,4,4,4,4,4,4,4,4,4,4,4,4,100,,,,,,,,,,,,,,,,,,,,,,,,,,,,,,,,,,,,,,,,,,,,,,,,,,,,,,,,,,,,,,,,,,,,,,,,,,,,,,,,,,,,,,,,,,,,,,,,,,,,,,,,,,,,,,,,,,,,,,,,,,,,,,,,,,,,,,
1702361607,1702361607,20,0,4195.641113,4193.461426,4224.358887,4166.666504,4213.461426,4229.102539,4196.794922,4237.307617,4194.358887,4171.666504,4329.230957,4370.641113,4172.05127,4272.563965,0,3,56,,,,0,4,4,4,4,4,4,4,4,4,4,4,4,4,4,100,,,,,,,,,,,,,,,,,5,0,0.09415,-0.679688,0.214966,-0.694946,0.898547,-0.391649,-0.074716,-21.762489,-3.629101,80.137428,,,,,,,,,,,,,,,,,,,,,,,,,,,,,,,,,,,,,,,,,,,,,,,,,,,,,,,,,,,,,,,,,,,,,,,,,,,,,,,,,,,,,,,,,,,,,,,,,,,,,,,,,,
1702361607,1702361607,21,0,4208.846191,4197.820313,4230.769043,4188.717773,4176.666504,4228.589844,4203.589844,4231.282227,4190,4124.487305,4347.692383,4375.897461,4200.897461,4285.256348,0,3,56,,,,0,4,4,4,4,4,4,4,4,4,4,4,4,4,4,100,,,,,,,,,,,,,,,,,,,,,,,,,,,,,,,,,,,,,,,,,,,,,,,,,,,,,,,,,,,,,,,,,,,,,,,,,,,,,,,,,,,,,,,,,,,,,,,,,,,,,,,,,,,,,,,,,,,,,,,,,,,,,,,,,,,,,,
1702361607,1702361607,22,0,4241.025879,4206.794922,4255.384766,4213.717773,4154.615234,4231.922852,4216.153809,4245.384766,4200.897461,4145.897461,4388.205078,4406.025879,4255.512695,4332.307617,0,3,56,,,,0,4,4,4,4,4,4,4,4,4,4,4,4,4,4,100,,,,,,,,,,,,,,,,,,,,,,,,,,,,,,,,,,,,,,,,,,,,,,,,,,,,,,,,,,,,,,,,,,,,,,,,,,,,,,,,,,,,,,,,,,,,,,,,,,,,,,,,,,,,,,,,,,,,,,,,,,,,,,,,,,,,,,
1702361607,1702361607,23,0,4233.974121,4182.692383,4243.717773,4189.487305,4230.256348,4234.358887,4214.615234,4249.743652,4203.974121,4172.692383,4386.538574,4404.871582,4255.641113,4329.358887,0,3,56,,,,0,4,4,4,4,4,4,4,4,4,4,4,4,4,4,100,,,,,,,,,,,,,,,,,,,,,,,,,,,,,,,,,,,,,,,,,,,,,,,,,,,,,,,,,,,,,,,,,6.776391,3.931224,2.107274,1.030646,1.30416,9.555725,5.086662,2.709607,1.28662,1.37164,4.20083,3.844876,1.548865,0.873658,1.406029,2.523074,3.267846,2.526232,1.568518,2.991081,1.196131,3.091515,6.184891,17.54501,25.982868,0.680106,0.369055,0.440853,0.348901,0.580541,0.933616,0.964315,1.558968,0.637029,1.173973,0.296933,0.354955,0.464534,0.18581,0.40688,0.791318,0.981074,0.931126,0.327206,0.721693,2.462632,1.951894,2.066874,3.152934,8.316586,7.449669,3.546292,1.936668,1.575122,1.530989,11.339595,5.615728,1.813205,1.071458,1.59469,11.300943,5.28061,2.392924,1.87269,1.777241,7.996955,3.653004,2.15144,1.414773,1.385046
1702361607,1702361607,24,0,4221.282227,4173.077148,4228.589844,4178.205078,4241.153809,4232.05127,4210.897461,4243.846191,4201.922852,4164.743652,4371.666504,4391.410156,4245.384766,4308.974121,0,3,56,,,,0,4,4,4,4,4,4,4,4,4,4,4,4,4,4,100,,,,,,,,,,,,,,,,,6,0,0.094267,-0.679749,0.214722,-0.694946,0.909779,-0.394091,-0.065438,-21.73624,-3.832857,80.073685,,,,,,,,,,,,,,,,,,,,,,,,,,,,,,,,,,,,,,,,,,,,,,,,,,,,,,,,,,,,,,,,,,,,,,,,,,,,,,,,,,,,,,,,,,,,,,,,,,,,,,,,,,
1702361607,1702361607,25,0,4232.563965,4187.436035,4240.256348,4201.538574,4192.307617,4234.615234,4216.538574,4246.282227,4203.589844,4163.974121,4380.897461,4398.589844,4268.333496,4320.641113,0,3,56,,,,0,4,4,4,4,4,4,4,4,4,4,4,4,4,4,100,,,,,,,,,,,,,,,,,,,,,,,,,,,,,,,,,,,,,,,,,,,,,,,,,,,,,,,,,,,,,,,,,,,,,,,,,,,,,,,,,,,,,,,,,,,,,,,,,,,,,,,,,,,,,,,,,,,,,,,,,,,,,,,,,,,,,,
1702361607,1702361607,26,0,4235.128418,4184.102539,4242.179688,4208.974121,4187.05127,4232.307617,4209.871582,4246.794922,4203.333496,4181.153809,4384.102539,4397.94873,4269.487305,4321.153809,0,3,56,,,,0,4,4,4,4,4,4,4,4,4,4,4,4,4,4,100,,,,,,,,,,,,,,,,,,,,,,,,,,,,,,,,,,,,,,,,,,,,,,,,,,,,,,,,,,,,,,,,,,,,,,,,,,,,,,,,,,,,,,,,,,,,,,,,,,,,,,,,,,,,,,,,,,,,,,,,,,,,,,,,,,,,,,
1702361607,1702361607,27,0,4223.205078,4163.205078,4230.384766,4195.128418,4160,4219.230957,4197.436035,4243.846191,4200.384766,4182.692383,4376.025879,4388.077148,4251.282227,4308.974121,0,3,56,,,,0,4,4,4,4,4,4,4,4,4,4,4,4,4,4,100,,,,,,,,,,,,,,,,,,,,,,,,,,,,,,,,,,,,,,,,,,,,,,,,,,,,,,,,,,,,,,,,,,,,,,,,,,,,,,,,,,,,,,,,,,,,,,,,,,,,,,,,,,,,,,,,,,,,,,,,,,,,,,,,,,,,,,
1702361607,1702361607,28,0,4219.743652,4161.410156,4233.717773,4193.974121,4130.256348,4223.974121,4208.974121,4247.179688,4204.743652,4179.743652,4379.102539,4393.205078,4262.179688,4319.102539,0,3,56,,,,0,4,4,4,4,4,4,4,4,4,4,4,4,4,4,100,,,,,,,,,,,,,,,,,7,0,0.093705,-0.679932,0.214783,-0.694824,0.896105,-0.391649,-0.072274,-21.912617,-3.782905,80.066315,,,,,,,,,,,,,,,,,,,,,,,,,,,,,,,,,,,,,,,,,,,,,,,,,,,,,,,,,,,,,,,,,,,,,,,,,,,,,,,,,,,,,,,,,,,,,,,,,,,,,,,,,,
1702361607,1702361607,29,0,4221.410156,4169.871582,4236.922852,4199.615234,4216.538574,4233.077148,4217.436035,4247.692383,4203.205078,4157.820313,4375.897461,4391.538574,4265,4323.077148,0,3,56,,,,0,4,4,4,4,4,4,4,4,4,4,4,4,4,4,100,,,,,,,,,,,,,,,,,,,,,,,,,,,,,,,,,,,,,,,,,,,,,,,,,,,,,,,,,,,,,,,,,,,,,,,,,,,,,,,,,,,,,,,,,,,,,,,,,,,,,,,,,,,,,,,,,,,,,,,,,,,,,,,,,,,,,,
1702361607,1702361607,30,0,4224.487305,4168.461426,4228.205078,4200.256348,4257.692383,4229.615234,4208.717773,4245.897461,4198.846191,4153.205078,4369.743652,4381.794922,4255.512695,4316.025879,0,3,56,,,,0,4,4,4,4,4,4,4,4,4,4,4,4,4,4,100,,,,,,,,,,,,,,,,,,,,,,,,,,,,,,,,,,,,,,,,,,,,,,,,,,,,,,,,,,,,,,,,,,,,,,,,,,,,,,,,,,,,,,,,,,,,,,,,,,,,,,,,,,,,,,,,,,,,,,,,,,,,,,,,,,,,,,
1702361607,1702361607,31,0,4237.692383,4178.717773,4243.717773,4224.743652,4137.05127,4238.077148,4214.102539,4249.743652,4213.589844,4206.922852,4391.153809,4400,4276.666504,4333.333496,0,3,56,,,,0,4,4,4,4,4,4,4,4,4,4,4,4,4,4,100,,,,,,,,,,,,,,,,,,,,,,,,,,,,,,,,,,,,,,,,,,,,,,,,,,,,,,,,,,,,,,,,,,,,,,,,,,,,,,,,,,,,,,,,,,,,,,,,,,,,,,,,,,,,,,,,,,,,,,,,,,,,,,,,,,,,,,
1702361607,1702361607,32,0,4251.282227,4192.94873,4265.769043,4250.384766,4125.256348,4243.717773,4223.077148,4250,4218.974121,4202.94873,4402.05127,4417.179688,4288.333496,4347.179688,0,3,56,,,,0,4,4,4,4,4,4,4,4,4,4,4,4,4,4,100,,,,,,,,,,,,,,,,,8,0,0.093789,-0.680054,0.215149,-0.69458,0.901966,-0.381394,-0.070809,-21.754688,-3.771281,80.12635,,,,,,,,,,,,,,,,,,,,,,,,,,,,,,,,,,,,,,,,,,,,,,,,,,,,,,,,,,,,,,,,,,,,,,,,,,,,,,,,,,,,,,,,,,,,,,,,,,,,,,,,,,
1702361607,1702361607,33,0,4251.410156,4187.436035,4259.487305,4233.461426,4272.820313,4230.641113,4214.487305,4245.769043,4206.025879,4166.794922,4388.717773,4407.820313,4276.794922,4340.128418,0,3,56,,,,0,4,4,4,4,4,4,4,4,4,4,4,4,4,4,100,,,,,,,,,,,,,,,,,,,,,,,,,,,,,,,,,,,,,,,,,,,,,,,,,,,,,,,,,,,,,,,,,,,,,,,,,,,,,,,,,,,,,,,,,,,,,,,,,,,,,,,,,,,,,,,,,,,,,,,,,,,,,,,,,,,,,,
1702361607,1702361607,34,0,4246.153809,4181.410156,4253.077148,4218.333496,4263.333496,4233.205078,4215.769043,4247.179688,4208.974121,4206.922852,4391.922852,4406.282227,4275.769043,4339.615234,0,3,56,,,,0,4,4,4,4,4,4,4,4,4,4,4,4,4,4,100,,,,,,,,,,,,,,,,,,,,,,,,,,,,,,,,,,,,,,,,,,,,,,,,,,,,,,,,,,,,,,,,,,,,,,,,,,,,,,,,,,,,,,,,,,,,,,,,,,,,,,,,,,,,,,,,,,,,,,,,,,,,,,,,,,,,,,
1702361607,1702361607,35,0,4251.153809,4196.282227,4267.436035,4246.282227,4120.641113,4247.436035,4234.102539,4251.410156,4218.717773,4207.692383,4400.512695,4415.384766,4272.820313,4344.358887,0,3,56,,,,0,4,4,4,4,4,4,4,4,4,4,4,4,4,4,100,,,,,,,,,,,,,,,,,,,,,,,,,,,,,,,,,,,,,,,,,,,,,,,,,,,,,,,,,,,,,,,,,,,,,,,,,,,,,,,,,,,,,,,,,,,,,,,,,,,,,,,,,,,,,,,,,,,,,,,,,,,,,,,,,,,,,,
1702361607,1702361607,36,0,4249.102539,4197.179688,4267.05127,4260.512695,4151.282227,4240.769043,4233.461426,4248.077148,4206.666504,4156.922852,4390.128418,4407.563965,4265.769043,4339.487305,0,3,56,,,,0,4,4,4,4,4,4,4,4,4,4,4,4,4,4,100,,,,,,,,,,,,,,,,,9,0,0.09384,-0.680176,0.215332,-0.694397,0.914174,-0.387743,-0.069833,-21.812553,-3.71082,80.063713,,,,,,,,,,,,,,,,,,,,,,,,,,,,,,,,,,,,,,,,,,,,,,,,,,,,,,,,,,,,,,,,,,,,,,,,,,,,,,,,,,,,,,,,,,,,,,,,,,,,,,,,,,
1702361607,1702361607,37,0,4232.692383,4171.538574,4248.205078,4242.820313,4213.589844,4239.358887,4226.794922,4242.563965,4198.205078,4179.615234,4385.256348,4393.205078,4271.410156,4331.153809,0,3,56,,,,0,4,4,4,4,4,4,4,4,4,4,4,4,4,4,100,,,,,,,,,,,,,,,,,,,,,,,,,,,,,,,,,,,,,,,,,,,,,,,,,,,,,,,,,,,,,,,,,,,,,,,,,,,,,,,,,,,,,,,,,,,,,,,,,,,,,,,,,,,,,,,,,,,,,,,,,,,,,,,,,,,,,,
1702361607,1702361607,38,0,4235.256348,4174.487305,4252.179688,4244.615234,4154.102539,4252.436035,4243.205078,4244.230957,4210.512695,4201.794922,4395.128418,4399.358887,4275.512695,4337.692383,0,3,56,,,,0,4,4,4,4,4,4,4,4,4,4,4,4,4,4,100,,,,,,,,,,,,,,,,,,,,,,,,,,,,,,,,,,,,,,,,,,,,,,,,,,,,,,,,,,,,,,,,,,,,,,,,,,,,,,,,,,,,,,,,,,,,,,,,,,,,,,,,,,,,,,,,,,,,,,,,,,,,,,,,,,,,,,
1702361607,1702361607,39,0,4251.153809,4191.538574,4263.205078,4252.307617,4182.692383,4252.436035,4249.743652,4244.358887,4211.794922,4164.487305,4386.666504,4403.077148,4263.205078,4342.692383,0,3,56,,,,0,4,4,4,4,4,4,4,4,4,4,4,4,4,4,100,,,,,,,,,,,,,,,,,,,,,,,,,,,,,,,,,,,,,,,,,,,,,,,,,,,,,,,,,,,,,,,,,6.49854,4.09477,2.261146,1.143564,1.372229,10.403858,4.636991,2.940934,1.467152,1.495975,3.830234,4.024213,1.642151,1.023353,1.480999,3.575694,3.45875,2.795991,1.7944,3.092577,0.985183,3.331811,7.401106,18.644854,27.592113,0.660667,0.394281,0.559975,0.382054,0.633354,0.939746,0.91155,1.957234,0.754177,1.180204,0.333181,0.329064,0.573622,0.218204,0.38331,0.665365,0.821413,1.092715,0.345615,0.702254,1.995596,1.534468,2.190935,3.403276,8.116273,5.482721,3.545254,2.123701,1.734078,1.538634,8.550538,5.344312,2.08164,1.13307,1.614654,9.629723,5.400366,2.603693,2.107843,1.868564,6.16734,3.814413,2.213609,1.596061,1.497391
1702361607,1702361607,40,0,4249.358887,4192.179688,4258.974121,4242.94873,4270.512695,4249.487305,4233.846191,4241.666504,4207.436035,4202.436035,4375.128418,4398.717773,4257.692383,4334.615234,0,3,56,,,,0,4,4,4,4,4,4,4,4,4,4,4,4,4,4,100,,,,,,,,,,,,,,,,,10,0,0.094286,-0.680359,0.215149,-0.694214,0.916127,-0.394579,-0.072763,-21.914631,-3.656404,79.957344,,,,,,,,,,,,,,,,,,,,,,,,,,,,,,,,,,,,,,,,,,,,,,,,,,,,,,,,,,,,,,,,,,,,,,,,,,,,,,,,,,,,,,,,,,,,,,,,,,,,,,,,,,
1702361607,1702361607,41,0,4240.897461,4195.641113,4264.102539,4250.128418,4233.589844,4249.871582,4227.820313,4248.333496,4216.922852,4231.410156,4392.05127,4410.641113,4264.102539,4336.282227,0,3,56,,,,0,4,4,4,4,4,4,4,4,4,4,4,4,4,4,100,,,,,,,,,,,,,,,,,,,,,,,,,,,,,,,,,,,,,,,,,,,,,,,,,,,,,,,,,,,,,,,,,,,,,,,,,,,,,,,,,,,,,,,,,,,,,,,,,,,,,,,,,,,,,,,,,,,,,,,,,,,,,,,,,,,,,,
1702361607,1702361607,42,0,4252.820313,4208.461426,4278.846191,4273.974121,4178.717773,4245.897461,4233.589844,4251.794922,4216.025879,4144.615234,4400,4421.153809,4260.256348,4346.410156,0,3,56,,,,0,4,4,4,4,4,4,4,4,4,4,4,4,4,4,100,,,,,,,,,,,,,,,,,,,,,,,,,,,,,,,,,,,,,,,,,,,,,,,,,,,,,,,,,,,,,,,,,,,,,,,,,,,,,,,,,,,,,,,,,,,,,,,,,,,,,,,,,,,,,,,,,,,,,,,,,,,,,,,,,,,,,,
1702361607,1702361607,43,0,4272.05127,4216.410156,4285.512695,4288.589844,4195.256348,4251.794922,4240.641113,4248.846191,4206.922852,4121.025879,4395.641113,4421.794922,4265.769043,4355,0,3,56,,,,0,4,4,4,4,4,4,4,4,4,4,4,4,4,4,100,,,,,,,,,,,,,,,,,,,,,,,,,,,,,,,,,,,,,,,,,,,,,,,,,,,,,,,,,,,,,,,,,,,,,,,,,,,,,,,,,,,,,,,,,,,,,,,,,,,,,,,,,,,,,,,,,,,,,,,,,,,,,,,,,,,,,,
1702361607,1702361607,44,0,4266.922852,4210.897461,4282.436035,4283.846191,4216.538574,4257.820313,4246.666504,4257.179688,4214.102539,4226.025879,4415,4431.025879,4295.769043,4366.025879,0,3,56,,,,0,4,4,4,4,4,4,4,4,4,4,4,4,4,4,100,,,,,,,,,,,,,,,,,11,0,0.095362,-0.680603,0.214294,-0.694092,0.905384,-0.405811,-0.068856,-21.939835,-3.674097,80.011612,,,,,,,,,,,,,,,,,,,,,,,,,,,,,,,,,,,,,,,,,,,,,,,,,,,,,,,,,,,,,,,,,,,,,,,,,,,,,,,,,,,,,,,,,,,,,,,,,,,,,,,,,,
1702361607,1702361607,45,0,4252.05127,4204.615234,4278.077148,4274.358887,4238.846191,4250.512695,4245.256348,4263.461426,4223.589844,4271.538574,4421.538574,4437.436035,4292.94873,4362.692383,0,3,56,,,,0,4,4,4,4,4,4,4,4,4,4,4,4,4,4,100,,,,,,,,,,,,,,,,,,,,,,,,,,,,,,,,,,,,,,,,,,,,,,,,,,,,,,,,,,,,,,,,,,,,,,,,,,,,,,,,,,,,,,,,,,,,,,,,,,,,,,,,,,,,,,,,,,,,,,,,,,,,,,,,,,,,,,
1702361607,1702361607,46,0,4256.153809,4210.897461,4277.563965,4282.820313,4235.641113,4252.692383,4243.205078,4251.153809,4216.922852,4187.563965,4391.794922,4424.871582,4257.307617,4344.743652,0,3,56,,,,0,4,4,4,4,4,4,4,4,4,4,4,4,4,4,100,,,,,,,,,,,,,,,,,,,,,,,,,,,,,,,,,,,,,,,,,,,,,,,,,,,,,,,,,,,,,,,,,,,,,,,,,,,,,,,,,,,,,,,,,,,,,,,,,,,,,,,,,,,,,,,,,,,,,,,,,,,,,,,,,,,,,,
1702361607,1702361607,47,0,4268.205078,4219.230957,4281.922852,4297.692383,4153.717773,4261.794922,4249.487305,4250.128418,4215.128418,4150,4388.205078,4419.743652,4266.282227,4348.589844,0,3,56,,,,0,4,4,4,4,4,4,4,4,4,4,4,4,4,4,100,,,,,,,,,,,,,,,,,,,,,,,,,,,,,,,,,,,,,,,,,,,,,,,,,,,,,,,,,,,,,,,,,,,,,,,,,,,,,,,,,,,,,,,,,,,,,,,,,,,,,,,,,,,,,,,,,,,,,,,,,,,,,,,,,,,,,,
1702361607,1702361607,48,0,4251.153809,4196.025879,4271.153809,4266.282227,4124.871582,4252.307617,4245.769043,4261.025879,4221.410156,4205.256348,4405.512695,4419.102539,4277.94873,4346.794922,0,3,56,,,,0,4,4,4,4,4,4,4,4,4,4,4,4,4,4,100,,,,,,,,,,,,,,,,,12,0,0.095935,-0.680786,0.213257,-0.694153,0.903431,-0.381394,-0.063484,-21.795851,-3.856688,80.060448,,,,,,,,,,,,,,,,,,,,,,,,,,,,,,,,,,,,,,,,,,,,,,,,,,,,,,,,,,,,,,,,,,,,,,,,,,,,,,,,,,,,,,,,,,,,,,,,,,,,,,,,,,
1702361607,1702361607,49,0,4224.743652,4173.846191,4248.589844,4204.358887,4243.461426,4243.077148,4230.512695,4254.358887,4217.179688,4223.846191,4391.794922,4404.871582,4248.077148,4319.102539,0,3,56,,,,0,4,4,4,4,4,4,4,4,4,4,4,4,4,4,100,,,,,,,,,,,,,,,,,,,,,,,,,,,,,,,,,,,,,,,,,,,,,,,,,,,,,,,,,,,,,,,,,,,,,,,,,,,,,,,,,,,,,,,,,,,,,,,,,,,,,,,,,,,,,,,,,,,,,,,,,,,,,,,,,,,,,,
1702361607,1702361607,50,0,4239.615234,4198.205078,4254.102539,4200.641113,4292.563965,4251.794922,4232.563965,4252.179688,4218.077148,4206.025879,4381.025879,4405.641113,4245.256348,4321.922852,0,3,56,,,,0,4,4,4,4,4,4,4,4,4,4,4,4,4,4,100,,,,,,,,,,,,,,,,,,,,,,,,,,,,,,,,,,,,,,,,,,,,,,,,,,,,,,,,,,,,,,,,,,,,,,,,,,,,,,,,,,,,,,,,,,,,,,,,,,,,,,,,,,,,,,,,,,,,,,,,,,,,,,,,,,,,,,
1702361607,1702361607,51,0,4267.307617,4218.333496,4268.846191,4227.563965,4178.974121,4250.384766,4237.436035,4260.512695,4218.846191,4185.769043,4385.512695,4415,4258.974121,4342.692383,0,3,56,,,,0,4,4,4,4,4,4,4,4,4,4,4,4,4,4,100,,,,,,,,,,,,,,,,,,,,,,,,,,,,,,,,,,,,,,,,,,,,,,,,,,,,,,,,,,,,,,,,,,,,,,,,,,,,,,,,,,,,,,,,,,,,,,,,,,,,,,,,,,,,,,,,,,,,,,,,,,,,,,,,,,,,,,
1702361607,1702361607,52,0,4278.333496,4231.282227,4266.794922,4221.282227,4184.487305,4244.743652,4230.897461,4254.230957,4205.897461,4156.794922,4384.230957,4414.487305,4244.102539,4347.820313,0,3,56,,,,0,4,4,4,4,4,4,4,4,4,4,4,4,4,4,100,,,,,,,,,,,,,,,,,13,0,0.096323,-0.680969,0.212097,-0.694275,0.884385,-0.388231,-0.061531,-21.899599,-3.837686,79.954407,,,,,,,,,,,,,,,,,,,,,,,,,,,,,,,,,,,,,,,,,,,,,,,,,,,,,,,,,,,,,,,,,,,,,,,,,,,,,,,,,,,,,,,,,,,,,,,,,,,,,,,,,,
1702361607,1702361607,53,0,4292.307617,4253.974121,4271.282227,4217.692383,4307.692383,4253.461426,4231.153809,4244.230957,4202.179688,4165.384766,4389.358887,4421.153809,4244.358887,4360.256348,0,3,56,,,,0,4,4,4,4,4,4,4,4,4,4,4,4,4,4,100,,,,,,,,,,,,,,,,,,,,,,,,,,,,,,,,,,,,,,,,,,,,,,,,,,,,,,,,,,,,,,,,,,,,,,,,,,,,,,,,,,,,,,,,,,,,,,,,,,,,,,,,,,,,,,,,,,,,,,,,,,,,,,,,,,,,,,
1702361607,1702361607,54,0,4306.666504,4260.897461,4285.512695,4237.179688,4266.153809,4265,4245.256348,4252.05127,4213.846191,4215.769043,4394.487305,4434.230957,4256.922852,4375.384766,0,3,56,,,,0,4,4,4,4,4,4,4,4,4,4,4,4,4,4,100,,,,,,,,,,,,,,,,,,,,,,,,,,,,,,,,,,,,,,,,,,,,,,,,,,,,,,,,,,,,,,,,,,,,,,,,,,,,,,,,,,,,,,,,,,,,,,,,,,,,,,,,,,,,,,,,,,,,,,,,,,,,,,,,,,,,,,
1702361607,1702361607,55,0,4298.333496,4246.410156,4286.666504,4240.897461,4169.871582,4265.256348,4255.384766,4260.512695,4212.563965,4194.102539,4378.205078,4426.794922,4232.94873,4364.230957,0,3,56,,,,0,4,4,4,4,4,4,4,4,4,4,4,4,4,4,100,1,16.666666,4,4,3,1,0,3,3,4,4,1,4,3,3,3,,,,,,,,,,,,,,,,,,,,,,,,,,,,,,,,,,,,,,,,,,,,,,,,,5.685568,3.995924,2.261225,1.215366,1.434816,10.095124,3.944054,2.921179,1.634925,1.657172,3.484702,3.963295,1.720353,1.139745,1.553692,6.043385,3.64263,2.91361,2.031064,3.222881,0.94717,3.429594,8.205098,19.097269,28.489523,0.637181,0.424924,0.677476,0.39493,0.707178,0.912403,0.911505,2.39359,0.842075,1.198386,0.419881,0.313778,0.666186,0.245845,0.362991,0.595258,0.676502,1.169586,0.368583,0.694171,1.825078,1.174624,2.216918,3.716831,8.279483,3.871873,3.28028,2.267819,1.826093,1.613107,5.993144,4.766134,2.296603,1.177366,1.653562,7.996665,5.067804,2.811691,2.278793,2.037572,4.499053,3.705592,2.1944,1.716668,1.625567
1702361607,1702361607,56,0,4291.922852,4245.128418,4285.897461,4237.179688,4213.717773,4263.077148,4258.589844,4261.153809,4207.307617,4141.282227,4375.641113,4420.384766,4223.333496,4357.436035,0,3,56,,,,0,4,4,4,4,4,4,4,4,4,4,4,4,4,4,100,,,,,,,,,,,,,,,,,14,0,0.097156,-0.681335,0.210938,-0.694153,0.89464,-0.408253,-0.071298,-21.892973,-3.720584,79.925629,,,,,,,,,,,,,,,,,,,,,,,,,,,,,,,,,,,,,,,,,,,,,,,,,,,,,,,,,,,,,,,,,,,,,,,,,,,,,,,,,,,,,,,,,,,,,,,,,,,,,,,,,,
1702361607,1702361607,57,0,4308.333496,4266.666504,4298.846191,4254.871582,4213.846191,4271.922852,4267.563965,4269.230957,4230.384766,4201.922852,4412.94873,4444.230957,4267.179688,4382.94873,0,3,56,,,,0,4,4,4,4,4,4,4,4,4,4,4,4,4,4,100,,,,,,,,,,,,,,,,,,,,,,,,,,,,,,,,,,,,,,,,,,,,,,,,,,,,,,,,,,,,,,,,,,,,,,,,,,,,,,,,,,,,,,,,,,,,,,,,,,,,,,,,,,,,,,,,,,,,,,,,,,,,,,,,,,,,,,
1702361607,1702361607,58,0,4311.025879,4271.538574,4298.974121,4264.358887,4140.256348,4273.461426,4268.333496,4268.589844,4240.384766,4258.974121,4422.563965,4449.615234,4276.666504,4386.025879,0,3,56,,,,0,4,4,4,4,4,4,4,4,4,4,4,4,4,4,100,,,,,,,,,,,,,,,,,,,,,,,,,,,,,,,,,,,,,,,,,,,,,,,,,,,,,,,,,,,,,,,,,,,,,,,,,,,,,,,,,,,,,,,,,,,,,,,,,,,,,,,,,,,,,,,,,,,,,,,,,,,,,,,,,,,,,,
1702361607,1702361607,59,0,4290.641113,4250.769043,4278.974121,4244.102539,4193.333496,4261.282227,4248.974121,4249.743652,4206.666504,4170.769043,4374.615234,4412.436035,4225.641113,4345.897461,0,3,56,,,,0,4,4,4,4,4,4,4,4,4,4,4,4,4,4,100,,,,,,,,,,,,,,,,,,,,,,,,,,,,,,,,,,,,,,,,,,,,,,,,,,,,,,,,,,,,,,,,,,,,,,,,,,,,,,,,,,,,,,,,,,,,,,,,,,,,,,,,,,,,,,,,,,,,,,,,,,,,,,,,,,,,,,
1702361607,1702361607,60,0,4285.128418,4250,4272.436035,4235.641113,4310.256348,4264.487305,4240.256348,4243.846191,4199.230957,4123.589844,4366.410156,4406.282227,4227.05127,4339.358887,0,3,56,,,,0,4,4,4,4,4,4,4,4,4,4,4,4,4,4,100,,,,,,,,,,,,,,,,,15,0,0.097046,-0.681396,0.210388,-0.694275,0.902942,-0.407765,-0.056159,-21.853676,-3.465192,79.949738,,,,,,,,,,,,,,,,,,,,,,,,,,,,,,,,,,,,,,,,,,,,,,,,,,,,,,,,,,,,,,,,,,,,,,,,,,,,,,,,,,,,,,,,,,,,,,,,,,,,,,,,,,
1702361607,1702361607,61,0,4302.179688,4278.846191,4286.538574,4267.563965,4270,4278.077148,4257.692383,4260,4231.794922,4215.769043,4415.897461,4444.102539,4282.563965,4381.025879,0,3,56,,,,0,4,4,4,4,4,4,4,4,4,4,4,4,4,4,100,,,,,,,,,,,,,,,,,,,,,,,,,,,,,,,,,,,,,,,,,,,,,,,,,,,,,,,,,,,,,,,,,,,,,,,,,,,,,,,,,,,,,,,,,,,,,,,,,,,,,,,,,,,,,,,,,,,,,,,,,,,,,,,,,,,,,,
1702361607,1702361607,62,0,4296.025879,4269.615234,4281.282227,4280.256348,4185.256348,4269.358887,4259.102539,4263.589844,4231.666504,4250.256348,4413.333496,4438.461426,4268.717773,4375,0,3,56,,,,0,4,4,4,4,4,4,4,4,4,4,4,4,4,4,100,,,,,,,,,,,,,,,,,,,,,,,,,,,,,,,,,,,,,,,,,,,,,,,,,,,,,,,,,,,,,,,,,,,,,,,,,,,,,,,,,,,,,,,,,,,,,,,,,,,,,,,,,,,,,,,,,,,,,,,,,,,,,,,,,,,,,,
1702361607,1702361607,63,0,4285.384766,4247.05127,4272.05127,4270.769043,4181.410156,4266.282227,4253.077148,4259.358887,4218.077148,4188.717773,4384.230957,4417.179688,4241.410156,4349.615234,0,3,56,,,,0,4,4,4,4,4,4,4,4,4,4,4,4,4,4,100,,,,,,,,,,,,,,,,,,,,,,,,,,,,,,,,,,,,,,,,,,,,,,,,,,,,,,,,,,,,,,,,,,,,,,,,,,,,,,,,,,,,,,,,,,,,,,,,,,,,,,,,,,,,,,,,,,,,,,,,,,,,,,,,,,,,,,
1702361607,1702361607,64,0,4296.282227,4268.846191,4279.102539,4277.05127,4203.333496,4279.358887,4259.615234,4260.769043,4226.666504,4193.974121,4396.922852,4427.94873,4268.589844,4363.077148,5328,3,56,,,,0,4,4,4,4,4,4,4,4,4,4,4,4,4,4,100,,,,,,,,,,,,,,,,,16,0,0.097582,-0.681458,0.210144,-0.694214,0.906361,-0.411183,-0.062508,-21.951641,-3.485339,79.854759,,,,,,,,,,,,,,,,,,,,,,,,,,,,,,,,,,,,,,,,,,,,,,,,,,,,,,,,,,,,,,,,,,,,,,,,,,,,,,,,,,,,,,,,,,,,,,,,,,,,,,,,,,
1702361607,1702361607,65,0,4287.436035,4271.410156,4267.307617,4270.384766,4249.615234,4270.128418,4251.538574,4253.717773,4221.025879,4209.358887,4403.333496,4422.179688,4269.743652,4362.05127,5527,3,56,,,,0,4,4,4,4,4,4,4,4,4,4,4,4,4,4,100,,,,,,,,,,,,,,,,,,,,,,,,,,,,,,,,,,,,,,,,,,,,,,,,,,,,,,,,,,,,,,,,,,,,,,,,,,,,,,,,,,,,,,,,,,,,,,,,,,,,,,,,,,,,,,,,,,,,,,,,,,,,,,,,,,,,,,
1702361607,1702361607,66,0,4275.897461,4242.563965,4257.820313,4267.436035,4247.436035,4258.846191,4249.871582,4256.410156,4218.974121,4176.410156,4399.743652,4414.487305,4257.436035,4354.743652,5472,3,56,,,,0,4,4,4,4,4,4,4,4,4,4,4,4,4,4,100,,,,,,,,,,,,,,,,,,,,,,,,,,,,,,,,,,,,,,,,,,,,,,,,,,,,,,,,,,,,,,,,,,,,,,,,,,,,,,,,,,,,,,,,,,,,,,,,,,,,,,,,,,,,,,,,,,,,,,,,,,,,,,,,,,,,,,
1702361607,1702361607,67,0,4284.487305,4244.230957,4265.256348,4287.179688,4214.102539,4264.743652,4260.512695,4263.846191,4229.230957,4182.179688,4397.307617,4418.589844,4265,4359.743652,5482,3,56,,,,0,4,4,4,4,4,4,4,4,4,4,4,4,4,4,100,,,,,,,,,,,,,,,,,,,,,,,,,,,,,,,,,,,,,,,,,,,,,,,,,,,,,,,,,,,,,,,,,,,,,,,,,,,,,,,,,,,,,,,,,,,,,,,,,,,,,,,,,,,,,,,,,,,,,,,,,,,,,,,,,,,,,,
1702361607,1702361607,68,0,4287.820313,4263.717773,4260.384766,4286.794922,4268.077148,4263.333496,4251.922852,4257.05127,4221.666504,4234.358887,4384.743652,4408.846191,4260.128418,4352.94873,5232,3,56,,,,0,4,4,4,4,4,4,4,4,4,4,4,4,4,4,100,,,,,,,,,,,,,,,,,17,0,0.096937,-0.681274,0.210632,-0.694336,0.893664,-0.405811,-0.058113,-21.989811,-3.503472,79.935951,,,,,,,,,,,,,,,,,,,,,,,,,,,,,,,,,,,,,,,,,,,,,,,,,,,,,,,,,,,,,,,,,,,,,,,,,,,,,,,,,,,,,,,,,,,,,,,,,,,,,,,,,,
1702361607,1702361607,69,0,4281.538574,4255.256348,4255.128418,4270.512695,4329.230957,4259.871582,4245.769043,4257.05127,4221.922852,4247.563965,4389.615234,4407.436035,4262.05127,4354.102539,5521,3,56,,,,0,4,4,4,4,4,4,4,4,4,4,4,4,4,4,100,,,,,,,,,,,,,,,,,,,,,,,,,,,,,,,,,,,,,,,,,,,,,,,,,,,,,,,,,,,,,,,,,,,,,,,,,,,,,,,,,,,,,,,,,,,,,,,,,,,,,,,,,,,,,,,,,,,,,,,,,,,,,,,,,,,,,,
1702361607,1702361607,70,0,4290.256348,4242.436035,4275.128418,4296.282227,4231.153809,4274.230957,4268.846191,4269.230957,4241.153809,4215.897461,4413.717773,4431.153809,4285.769043,4377.179688,5435,3,56,,,,0,4,4,4,4,4,4,4,4,4,4,4,4,4,4,100,,,,,,,,,,,,,,,,,,,,,,,,,,,,,,,,,,,,,,,,,,,,,,,,,,,,,,,,,,,,,,,,,,,,,,,,,,,,,,,,,,,,,,,,,,,,,,,,,,,,,,,,,,,,,,,,,,,,,,,,,,,,,,,,,,,,,,
1702361607,1702361607,71,0,4306.282227,4251.794922,4290.512695,4327.179688,4110,4286.025879,4284.230957,4268.974121,4241.282227,4215.128418,4421.153809,4441.922852,4294.358887,4387.692383,3251,3,56,,,,0,4,4,4,4,4,4,4,4,4,4,4,4,4,4,100,,,,,,,,,,,,,,,,,,,,,,,,,,,,,,,,,,,,,,,,,,,,,,,,,,,,,,,,,,,,,,,,,4.549427,3.661868,2.127384,1.250225,1.477952,8.568882,3.151738,2.67036,1.785443,1.831954,3.271818,3.713194,1.744871,1.216003,1.60485,9.670489,3.775751,2.829201,2.310632,3.357103,1.101258,3.343432,8.243723,19.405237,28.517235,0.598198,0.43957,0.752584,0.383367,0.779853,0.882666,0.98323,2.701908,0.881293,1.215868,0.531255,0.320408,0.709891,0.26244,0.348244,0.582935,0.581724,1.129278,0.40183,0.697255,1.936942,0.908877,2.116981,4.232783,8.853124,2.864136,2.844052,2.309903,1.867632,1.757343,4.186717,4.053379,2.389225,1.214702,1.707093,6.701653,4.36912,2.914997,2.398265,2.252294,3.292825,3.394424,2.100276,1.77517,1.748472
1702361607,1702361607,72,0,4308.461426,4266.153809,4282.307617,4316.922852,4199.102539,4279.615234,4275.128418,4262.436035,4225.641113,4211.153809,4405.769043,4431.666504,4276.666504,4376.282227,4565,3,56,,,,0,4,4,4,4,4,4,4,4,4,4,4,4,4,4,100,,,,,,,,,,,,,,,,,18,0,0.096498,-0.681396,0.211243,-0.694092,0.923453,-0.398486,-0.068368,-21.990829,-3.219792,79.842354,,,,,,,,,,,,,,,,,,,,,,,,,,,,,,,,,,,,,,,,,,,,,,,,,,,,,,,,,,,,,,,,,,,,,,,,,,,,,,,,,,,,,,,,,,,,,,,,,,,,,,,,,,
1702361607,1702361607,73,0,4286.666504,4255.512695,4263.077148,4292.436035,4326.282227,4265.256348,4265.769043,4263.589844,4220,4174.358887,4379.871582,4415.897461,4247.692383,4351.922852,5526,3,56,,,,0,4,4,4,4,4,4,4,4,4,4,4,4,4,4,100,,,,,,,,,,,,,,,,,,,,,,,,,,,,,,,,,,,,,,,,,,,,,,,,,,,,,,,,,,,,,,,,,,,,,,,,,,,,,,,,,,,,,,,,,,,,,,,,,,,,,,,,,,,,,,,,,,,,,,,,,,,,,,,,,,,,,,
1702361607,1702361607,74,0,4262.179688,4224.487305,4244.358887,4279.871582,4305.512695,4260.256348,4258.717773,4261.538574,4223.974121,4197.436035,4374.871582,4404.871582,4242.692383,4335.384766,6072,3,56,,,,0,4,4,4,4,4,4,4,4,4,4,4,4,4,4,100,,,,,,,,,,,,,,,,,,,,,,,,,,,,,,,,,,,,,,,,,,,,,,,,,,,,,,,,,,,,,,,,,,,,,,,,,,,,,,,,,,,,,,,,,,,,,,,,,,,,,,,,,,,,,,,,,,,,,,,,,,,,,,,,,,,,,,
1702361607,1702361607,75,0,4282.436035,4219.743652,4251.282227,4294.871582,4211.666504,4277.692383,4267.94873,4262.05127,4234.615234,4245.384766,4416.794922,4425.512695,4296.410156,4370.512695,6133,3,56,,,,0,4,4,4,4,4,4,4,4,4,4,4,4,4,4,100,,,,,,,,,,,,,,,,,,,,,,,,,,,,,,,,,,,,,,,,,,,,,,,,,,,,,,,,,,,,,,,,,,,,,,,,,,,,,,,,,,,,,,,,,,,,,,,,,,,,,,,,,,,,,,,,,,,,,,,,,,,,,,,,,,,,,,
1702361607,1702361607,76,0,4314.230957,4238.589844,4266.922852,4315.641113,4184.871582,4283.846191,4278.333496,4263.846191,4235.897461,4228.717773,4449.230957,4448.717773,4340.897461,4412.563965,6432,3,56,,,,0,4,4,4,4,4,4,4,4,4,4,4,4,4,4,100,,,,,,,,,,,,,,,,,19,0,0.096232,-0.68158,0.211975,-0.693726,0.906849,-0.383836,-0.069344,-22.008413,-3.114479,79.858124,,,,,,,,,,,,,,,,,,,,,,,,,,,,,,,,,,,,,,,,,,,,,,,,,,,,,,,,,,,,,,,,,,,,,,,,,,,,,,,,,,,,,,,,,,,,,,,,,,,,,,,,,,
1702361607,1702361607,77,0,4310.641113,4230.128418,4265.769043,4312.436035,4198.974121,4268.846191,4272.692383,4262.94873,4232.179688,4215.641113,4445.384766,4449.230957,4335.256348,4415.128418,6573,3,56,,,,0,4,4,4,4,4,4,4,4,4,4,4,4,4,4,100,,,,,,,,,,,,,,,,,,,,,,,,,,,,,,,,,,,,,,,,,,,,,,,,,,,,,,,,,,,,,,,,,,,,,,,,,,,,,,,,,,,,,,,,,,,,,,,,,,,,,,,,,,,,,,,,,,,,,,,,,,,,,,,,,,,,,,
1702361607,1702361607,78,0,4302.820313,4195.897461,4260.769043,4291.153809,4244.102539,4258.717773,4262.179688,4263.589844,4234.102539,4227.05127,4438.205078,4447.05127,4331.538574,4411.794922,6072,3,56,,,,0,4,4,4,4,4,4,4,4,4,4,4,4,4,4,100,,,,,,,,,,,,,,,,,,,,,,,,,,,,,,,,,,,,,,,,,,,,,,,,,,,,,,,,,,,,,,,,,,,,,,,,,,,,,,,,,,,,,,,,,,,,,,,,,,,,,,,,,,,,,,,,,,,,,,,,,,,,,,,,,,,,,,
1702361607,1702361607,79,0,4324.743652,4193.461426,4269.743652,4288.717773,4311.153809,4262.820313,4257.563965,4261.794922,4228.846191,4222.307617,4445.641113,4455.512695,4350.256348,4431.538574,6133,3,56,,,,0,4,4,4,4,4,4,4,4,4,4,4,4,4,4,100,,,,,,,,,,,,,,,,,,,,,,,,,,,,,,,,,,,,,,,,,,,,,,,,,,,,,,,,,,,,,,,,,,,,,,,,,,,,,,,,,,,,,,,,,,,,,,,,,,,,,,,,,,,,,,,,,,,,,,,,,,,,,,,,,,,,,,
1702361607,1702361607,80,0,4355.897461,4226.538574,4289.743652,4318.461426,4284.230957,4277.692383,4268.589844,4263.846191,4229.358887,4223.333496,4467.94873,4475.897461,4369.358887,4461.666504,6432,3,56,,,,0,4,4,4,4,4,4,4,4,4,4,4,4,4,4,100,,,,,,,,,,,,,,,,,20,0,0.095884,-0.681458,0.212524,-0.693726,0.906361,-0.378953,-0.070321,-21.840904,-3.003031,79.855644,,,,,,,,,,,,,,,,,,,,,,,,,,,,,,,,,,,,,,,,,,,,,,,,,,,,,,,,,,,,,,,,,,,,,,,,,,,,,,,,,,,,,,,,,,,,,,,,,,,,,,,,,,
1702361607,1702361607,81,0,4358.461426,4237.563965,4297.820313,4335.512695,4223.974121,4283.589844,4280.128418,4273.077148,4240,4222.179688,4477.179688,4484.102539,4375.641113,4466.282227,6573,3,56,,,,0,4,4,4,4,4,4,4,4,4,4,4,4,4,4,100,,,,,,,,,,,,,,,,,,,,,,,,,,,,,,,,,,,,,,,,,,,,,,,,,,,,,,,,,,,,,,,,,,,,,,,,,,,,,,,,,,,,,,,,,,,,,,,,,,,,,,,,,,,,,,,,,,,,,,,,,,,,,,,,,,,,,,
1702361607,1702361607,82,0,4344.871582,4230.897461,4292.820313,4325.641113,4226.410156,4270.512695,4280.256348,4279.358887,4249.230957,4240.384766,4471.794922,4478.333496,4379.743652,4449.230957,6072,3,56,,,,0,4,4,4,4,4,4,4,4,4,4,4,4,4,4,100,,,,,,,,,,,,,,,,,,,,,,,,,,,,,,,,,,,,,,,,,,,,,,,,,,,,,,,,,,,,,,,,,,,,,,,,,,,,,,,,,,,,,,,,,,,,,,,,,,,,,,,,,,,,,,,,,,,,,,,,,,,,,,,,,,,,,,
1702361607,1702361607,83,0,4342.179688,4232.692383,4289.743652,4324.743652,4229.615234,4262.307617,4280.641113,4282.05127,4257.563965,4263.974121,4476.922852,4480.897461,4388.974121,4443.717773,6133,3,56,,,,0,4,4,4,4,4,4,4,4,4,4,4,4,4,4,100,,,,,,,,,,,,,,,,,,,,,,,,,,,,,,,,,,,,,,,,,,,,,,,,,,,,,,,,,,,,,,,,,,,,,,,,,,,,,,,,,,,,,,,,,,,,,,,,,,,,,,,,,,,,,,,,,,,,,,,,,,,,,,,,,,,,,,
1702361607,1702361607,84,0,4336.666504,4230.256348,4283.461426,4333.589844,4237.436035,4269.871582,4279.871582,4277.820313,4252.563965,4222.820313,4469.871582,4477.820313,4380.256348,4434.871582,6432,3,56,,,,0,4,4,4,4,4,4,4,4,4,4,4,4,4,4,100,,,,,,,,,,,,,,,,,21,0,0.096245,-0.681335,0.212952,-0.693665,0.910756,-0.40044,-0.069344,-21.990149,-3.102728,79.736748,,,,,,,,,,,,,,,,,,,,,,,,,,,,,,,,,,,,,,,,,,,,,,,,,,,,,,,,,,,,,,,,,,,,,,,,,,,,,,,,,,,,,,,,,,,,,,,,,,,,,,,,,,
1702361607,1702361607,85,0,4313.589844,4213.974121,4265.897461,4315.256348,4285.769043,4263.846191,4265.384766,4266.666504,4233.974121,4211.794922,4446.794922,4455.256348,4359.743652,4408.846191,6573,3,56,,,,0,4,4,4,4,4,4,4,4,4,4,4,4,4,4,100,,,,,,,,,,,,,,,,,,,,,,,,,,,,,,,,,,,,,,,,,,,,,,,,,,,,,,,,,,,,,,,,,,,,,,,,,,,,,,,,,,,,,,,,,,,,,,,,,,,,,,,,,,,,,,,,,,,,,,,,,,,,,,,,,,,,,,
1702361607,1702361607,86,0,4306.410156,4208.205078,4264.230957,4302.563965,4299.871582,4253.589844,4259.743652,4266.666504,4235,4278.846191,4453.333496,4454.871582,4364.743652,4404.871582,6072,3,56,,,,0,4,4,4,4,4,4,4,4,4,4,4,4,4,4,100,,,,,,,,,,,,,,,,,,,,,,,,,,,,,,,,,,,,,,,,,,,,,,,,,,,,,,,,,,,,,,,,,,,,,,,,,,,,,,,,,,,,,,,,,,,,,,,,,,,,,,,,,,,,,,,,,,,,,,,,,,,,,,,,,,,,,,
1702361607,1702361607,87,0,4338.205078,4242.820313,4294.615234,4350.641113,4245.384766,4272.820313,4290.897461,4284.102539,4260.641113,4249.102539,4482.94873,4493.205078,4388.461426,4433.333496,6133,3,56,,,,0,4,4,4,4,4,4,4,4,4,4,4,4,4,4,100,,,,,,,,,,,,,,,,,,,,,,,,,,,,,,,,,,,,,,,,,,,,,,,,,,,,,,,,,,,,,,,,,3.385046,3.189209,1.93915,1.265393,1.490448,6.528918,2.430976,2.306153,1.918556,1.991045,3.200703,3.376379,1.68729,1.255479,1.614151,14.253325,3.901434,2.583474,2.646741,3.457799,1.403504,3.091824,7.631854,20.107948,27.963448,0.53753,0.427726,0.759148,0.353422,0.823732,0.892693,1.123759,2.757253,0.869606,1.210802,0.627791,0.347349,0.684688,0.267442,0.33736,0.606947,0.543459,0.977892,0.445429,0.704811,2.228451,0.741413,1.89585,5.006358,9.744029,2.375071,2.388984,2.227829,1.876373,1.938942,3.190638,3.388325,2.333513,1.246755,1.750877,5.848119,3.518708,2.854388,2.482747,2.456384,2.568827,3.01817,1.967732,1.78409,1.839708
1702361607,1702361607,88,0,4347.820313,4260.897461,4306.025879,4379.230957,4208.205078,4282.94873,4301.794922,4284.871582,4263.461426,4183.077148,4481.025879,4500.256348,4389.102539,4435.384766,6432,3,56,,,,0,4,4,4,4,4,4,4,4,4,4,4,4,4,4,100,,,,,,,,,,,,,,,,,22,0,0.096762,-0.681152,0.213501,-0.693604,0.905384,-0.404835,-0.073251,-21.991133,-3.025789,79.746407,,,,,,,,,,,,,,,,,,,,,,,,,,,,,,,,,,,,,,,,,,,,,,,,,,,,,,,,,,,,,,,,,,,,,,,,,,,,,,,,,,,,,,,,,,,,,,,,,,,,,,,,,,
1702361607,1702361607,89,0,4308.589844,4217.307617,4275.128418,4332.179688,4242.05127,4262.307617,4266.538574,4266.025879,4240.128418,4238.333496,4457.563965,4459.871582,4369.230957,4401.282227,6573,3,56,,,,0,4,4,4,4,4,4,4,4,4,4,4,4,4,4,100,,,,,,,,,,,,,,,,,,,,,,,,,,,,,,,,,,,,,,,,,,,,,,,,,,,,,,,,,,,,,,,,,,,,,,,,,,,,,,,,,,,,,,,,,,,,,,,,,,,,,,,,,,,,,,,,,,,,,,,,,,,,,,,,,,,,,,
1702361607,1702361607,90,0,4291.794922,4199.743652,4260.769043,4314.102539,4279.358887,4255.256348,4255,4264.230957,4236.153809,4278.333496,4447.05127,4444.743652,4355.128418,4380.897461,6072,3,56,,,,0,4,4,4,4,4,4,4,4,4,4,4,4,4,4,100,,,,,,,,,,,,,,,,,,,,,,,,,,,,,,,,,,,,,,,,,,,,,,,,,,,,,,,,,,,,,,,,,,,,,,,,,,,,,,,,,,,,,,,,,,,,,,,,,,,,,,,,,,,,,,,,,,,,,,,,,,,,,,,,,,,,,,
1702361607,1702361607,91,0,4313.333496,4237.692383,4279.743652,4354.487305,4270.897461,4270.256348,4281.666504,4274.230957,4247.436035,4229.230957,4447.692383,4462.179688,4350.769043,4387.05127,6133,3,56,,,,0,4,4,4,4,4,4,4,4,4,4,4,4,4,4,100,,,,,,,,,,,,,,,,,,,,,,,,,,,,,,,,,,,,,,,,,,,,,,,,,,,,,,,,,,,,,,,,,,,,,,,,,,,,,,,,,,,,,,,,,,,,,,,,,,,,,,,,,,,,,,,,,,,,,,,,,,,,,,,,,,,,,,
1702361607,1702361607,92,0,4303.077148,4232.179688,4274.743652,4345.384766,4273.846191,4266.538574,4282.307617,4267.94873,4238.461426,4196.794922,4433.974121,4452.820313,4336.794922,4380.897461,6432,3,56,,,,0,4,4,4,4,4,4,4,4,4,4,4,4,4,4,100,,,,,,,,,,,,,,,,,23,0,0.096669,-0.681213,0.213745,-0.693481,0.894152,-0.381394,-0.068368,-21.99202,-2.92321,79.638428,,,,,,,,,,,,,,,,,,,,,,,,,,,,,,,,,,,,,,,,,,,,,,,,,,,,,,,,,,,,,,,,,,,,,,,,,,,,,,,,,,,,,,,,,,,,,,,,,,,,,,,,,,
1702361607,1702361607,93,0,4271.410156,4187.179688,4251.538574,4301.025879,4329.487305,4251.025879,4261.922852,4259.743652,4226.282227,4214.230957,4422.307617,4430.897461,4330.256348,4365.512695,6573,3,56,,,,0,4,4,4,4,4,4,4,4,4,4,4,4,4,4,100,,,,,,,,,,,,,,,,,,,,,,,,,,,,,,,,,,,,,,,,,,,,,,,,,,,,,,,,,,,,,,,,,,,,,,,,,,,,,,,,,,,,,,,,,,,,,,,,,,,,,,,,,,,,,,,,,,,,,,,,,,,,,,,,,,,,,,
1702361607,1702361607,94,0,4294.102539,4203.333496,4271.666504,4332.94873,4324.615234,4264.743652,4277.436035,4272.307617,4243.461426,4241.666504,4450.512695,4456.922852,4356.538574,4387.307617,6072,3,56,,,,0,4,4,4,4,4,4,4,4,4,4,4,4,4,4,100,,,,,,,,,,,,,,,,,,,,,,,,,,,,,,,,,,,,,,,,,,,,,,,,,,,,,,,,,,,,,,,,,,,,,,,,,,,,,,,,,,,,,,,,,,,,,,,,,,,,,,,,,,,,,,,,,,,,,,,,,,,,,,,,,,,,,,
1702361607,1702361607,95,0,4335.256348,4255.384766,4311.282227,4395.384766,4205.256348,4285.384766,4305.128418,4285,4262.05127,4267.692383,4477.820313,4493.589844,4376.282227,4417.820313,6133,3,56,,,,0,4,4,4,4,4,4,4,4,4,4,4,4,4,4,100,,,,,,,,,,,,,,,,,,,,,,,,,,,,,,,,,,,,,,,,,,,,,,,,,,,,,,,,,,,,,,,,,,,,,,,,,,,,,,,,,,,,,,,,,,,,,,,,,,,,,,,,,,,,,,,,,,,,,,,,,,,,,,,,,,,,,,
1702361607,1702361607,96,0,4321.282227,4254.487305,4304.230957,4380.897461,4187.692383,4276.282227,4291.153809,4279.358887,4250.128418,4235.384766,4464.102539,4484.871582,4359.615234,4406.153809,6432,3,56,,,,0,4,4,4,4,4,4,4,4,4,4,4,4,4,4,100,,,,,,,,,,,,,,,,,24,0,0.09691,-0.68103,0.214417,-0.69342,0.888292,-0.394579,-0.062996,-21.992817,-2.830889,79.691254,,,,,,,,,,,,,,,,,,,,,,,,,,,,,,,,,,,,,,,,,,,,,,,,,,,,,,,,,,,,,,,,,,,,,,,,,,,,,,,,,,,,,,,,,,,,,,,,,,,,,,,,,,
1702361607,1702361607,97,0,4292.563965,4219.230957,4276.922852,4337.436035,4321.153809,4259.230957,4265,4274.487305,4237.307617,4181.153809,4451.025879,4465.769043,4349.487305,4387.692383,6573,3,56,,,,0,4,4,4,4,4,4,4,4,4,4,4,4,4,4,100,,,,,,,,,,,,,,,,,,,,,,,,,,,,,,,,,,,,,,,,,,,,,,,,,,,,,,,,,,,,,,,,,,,,,,,,,,,,,,,,,,,,,,,,,,,,,,,,,,,,,,,,,,,,,,,,,,,,,,,,,,,,,,,,,,,,,,
1702361607,1702361607,98,0,4306.025879,4226.922852,4284.487305,4352.05127,4384.358887,4264.487305,4270.256348,4278.077148,4248.333496,4239.743652,4464.743652,4473.974121,4367.692383,4399.487305,6072,3,56,,,,0,4,4,4,4,4,4,4,4,4,4,4,4,4,4,100,,,,,,,,,,,,,,,,,,,,,,,,,,,,,,,,,,,,,,,,,,,,,,,,,,,,,,,,,,,,,,,,,,,,,,,,,,,,,,,,,,,,,,,,,,,,,,,,,,,,,,,,,,,,,,,,,,,,,,,,,,,,,,,,,,,,,,
1702361607,1702361607,99,0,4321.794922,4260.641113,4298.461426,4381.666504,4309.615234,4271.025879,4283.974121,4279.871582,4254.230957,4294.743652,4463.077148,4479.871582,4368.077148,4404.102539,6133,3,56,,,,0,4,4,4,4,4,4,4,4,4,4,4,4,4,4,100,,,,,,,,,,,,,,,,,,,,,,,,,,,,,,,,,,,,,,,,,,,,,,,,,,,,,,,,,,,,,,,,,,,,,,,,,,,,,,,,,,,,,,,,,,,,,,,,,,,,,,,,,,,,,,,,,,,,,,,,,,,,,,,,,,,,,,
1702361607,1702361607,100,0,4311.282227,4256.282227,4283.717773,4367.05127,4286.794922,4264.358887,4278.205078,4277.94873,4246.025879,4242.179688,4447.307617,4469.487305,4352.94873,4389.615234,6432,3,56,,,,0,4,4,4,4,4,4,4,4,4,4,4,4,4,4,100,,,,,,,,,,,,,,,,,25,0,0.097572,-0.680786,0.215088,-0.693359,0.902454,-0.399951,-0.073251,-21.926868,-2.764467,79.638794,,,,,,,,,,,,,,,,,,,,,,,,,,,,,,,,,,,,,,,,,,,,,,,,,,,,,,,,,,,,,,,,,,,,,,,,,,,,,,,,,,,,,,,,,,,,,,,,,,,,,,,,,,
1702361607,1702361607,101,0,4311.922852,4239.743652,4278.205078,4361.153809,4324.487305,4268.589844,4277.94873,4280.384766,4254.230957,4233.205078,4467.05127,4478.461426,4371.410156,4400.897461,6573,3,56,,,,0,4,4,4,4,4,4,4,4,4,4,4,4,4,4,100,,,,,,,,,,,,,,,,,,,,,,,,,,,,,,,,,,,,,,,,,,,,,,,,,,,,,,,,,,,,,,,,,,,,,,,,,,,,,,,,,,,,,,,,,,,,,,,,,,,,,,,,,,,,,,,,,,,,,,,,,,,,,,,,,,,,,,
1702361607,1702361607,102,0,4318.589844,4247.307617,4289.230957,4381.410156,4278.717773,4279.871582,4290.897461,4280.769043,4270.256348,4278.333496,4485.769043,4488.846191,4386.922852,4414.230957,6072,3,56,,,,0,4,4,4,4,4,4,4,4,4,4,4,4,4,4,100,,,,,,,,,,,,,,,,,,,,,,,,,,,,,,,,,,,,,,,,,,,,,,,,,,,,,,,,,,,,,,,,,,,,,,,,,,,,,,,,,,,,,,,,,,,,,,,,,,,,,,,,,,,,,,,,,,,,,,,,,,,,,,,,,,,,,,
1702361607,1702361607,103,0,4313.077148,4257.05127,4281.538574,4385.897461,4228.846191,4282.692383,4293.589844,4280.512695,4266.538574,4261.025879,4467.563965,4473.589844,4367.179688,4395.384766,6133,3,56,,,,0,4,4,4,4,4,4,4,4,4,4,4,4,4,4,100,,,,,,,,,,,,,,,,,,,,,,,,,,,,,,,,,,,,,,,,,,,,,,,,,,,,,,,,,,,,,,,,,2.587492,2.739725,1.798125,1.264987,1.470027,4.552769,1.919043,1.985297,2.015241,2.1035,3.178885,3.070324,1.555026,1.256299,1.568833,18.498167,4.087328,2.291905,2.977992,3.489552,1.693616,2.76101,6.830269,21.425442,27.355459,0.487325,0.399107,0.700533,0.318014,0.819632,0.9753,1.316307,2.54167,0.816972,1.164517,0.66136,0.383289,0.596153,0.266965,0.327131,0.615608,0.550105,0.762922,0.494116,0.710438,2.541413,0.677267,1.605774,5.943055,10.763589,2.162086,2.067566,2.037261,1.855047,2.113722,2.764763,2.912001,2.166372,1.257897,1.759277,5.299368,2.784513,2.631224,2.532478,2.607862,2.278435,2.754433,1.84339,1.749279,1.883844
1702361607,1702361607,104,0,4303.205078,4245.256348,4258.589844,4363.974121,4283.589844,4273.974121,4281.666504,4275.897461,4250.769043,4211.282227,4444.487305,4454.871582,4339.615234,4373.717773,6432,3,56,,,,0,4,4,4,4,4,4,4,4,4,4,4,4,4,4,100,,,,,,,,,,,,,,,,,26,0,0.098018,-0.680664,0.215271,-0.693359,0.905872,-0.411183,-0.069833,-21.95085,-2.871353,79.474915,,,,,,,,,,,,,,,,,,,,,,,,,,,,,,,,,,,,,,,,,,,,,,,,,,,,,,,,,,,,,,,,,,,,,,,,,,,,,,,,,,,,,,,,,,,,,,,,,,,,,,,,,,
1702361607,1702361607,105,0,4298.205078,4240.512695,4259.358887,4358.461426,4360.384766,4266.922852,4276.025879,4268.717773,4245,4222.05127,4445.641113,4454.102539,4341.666504,4380.128418,6573,3,56,,,,0,4,4,4,4,4,4,4,4,4,4,4,4,4,4,100,,,,,,,,,,,,,,,,,,,,,,,,,,,,,,,,,,,,,,,,,,,,,,,,,,,,,,,,,,,,,,,,,,,,,,,,,,,,,,,,,,,,,,,,,,,,,,,,,,,,,,,,,,,,,,,,,,,,,,,,,,,,,,,,,,,,,,
1702361607,1702361607,106,0,4296.025879,4252.179688,4273.974121,4377.307617,4330,4270.256348,4281.794922,4268.846191,4247.563965,4252.05127,4447.563965,4460.641113,4343.974121,4385.512695,6072,3,56,,,,0,4,4,4,4,4,4,4,4,4,4,4,4,4,4,100,,,,,,,,,,,,,,,,,,,,,,,,,,,,,,,,,,,,,,,,,,,,,,,,,,,,,,,,,,,,,,,,,,,,,,,,,,,,,,,,,,,,,,,,,,,,,,,,,,,,,,,,,,,,,,,,,,,,,,,,,,,,,,,,,,,,,,
1702361608,1702361608,107,0,4292.820313,4238.717773,4267.94873,4369.871582,4281.794922,4266.922852,4281.282227,4272.179688,4245.384766,4239.487305,4433.205078,4455.641113,4319.743652,4368.974121,6133,3,56,,,,0,4,4,4,4,4,4,4,4,4,4,4,4,4,4,100,,,,,,,,,,,,,,,,,,,,,,,,,,,,,,,,,,,,,,,,,,,,,,,,,,,,,,,,,,,,,,,,,,,,,,,,,,,,,,,,,,,,,,,,,,,,,,,,,,,,,,,,,,,,,,,,,,,,,,,,,,,,,,,,,,,,,,
1702361608,1702361608,108,0,4297.307617,4221.153809,4263.205078,4358.974121,4317.179688,4259.487305,4279.358887,4274.358887,4248.589844,4231.538574,4435.769043,4453.974121,4322.94873,4367.179688,6432,3,56,,,,0,4,4,4,4,4,4,4,4,4,4,4,4,4,4,100,,,,,,,,,,,,,,,,,27,0,0.098158,-0.680481,0.215393,-0.693481,0.896594,-0.400928,-0.067391,-21.905764,-2.984218,79.31076,,,,,,,,,,,,,,,,,,,,,,,,,,,,,,,,,,,,,,,,,,,,,,,,,,,,,,,,,,,,,,,,,,,,,,,,,,,,,,,,,,,,,,,,,,,,,,,,,,,,,,,,,,
1702361608,1702361608,109,0,4314.487305,4252.94873,4283.717773,4392.563965,4297.94873,4271.666504,4293.589844,4279.102539,4260.384766,4269.871582,4458.205078,4470,4357.94873,4389.487305,6573,3,56,,,,0,4,4,4,4,4,4,4,4,4,4,4,4,4,4,100,,,,,,,,,,,,,,,,,,,,,,,,,,,,,,,,,,,,,,,,,,,,,,,,,,,,,,,,,,,,,,,,,,,,,,,,,,,,,,,,,,,,,,,,,,,,,,,,,,,,,,,,,,,,,,,,,,,,,,,,,,,,,,,,,,,,,,
1702361608,1702361608,110,0,4314.230957,4270.128418,4290.128418,4404.743652,4257.563965,4281.410156,4300.128418,4279.743652,4254.487305,4257.436035,4450.897461,4471.794922,4339.358887,4388.205078,6072,3,56,,,,0,4,4,4,4,4,4,4,4,4,4,4,4,4,4,100,,,,,,,,,,,,,,,,,,,,,,,,,,,,,,,,,,,,,,,,,,,,,,,,,,,,,,,,,,,,,,,,,,,,,,,,,,,,,,,,,,,,,,,,,,,,,,,,,,,,,,,,,,,,,,,,,,,,,,,,,,,,,,,,,,,,,,
1702361608,1702361608,111,0,4298.589844,4242.179688,4275,4375.256348,4301.153809,4267.05127,4290.384766,4275.128418,4245.256348,4181.282227,4430.512695,4460.897461,4307.307617,4372.692383,6133,3,56,,,,0,4,4,4,4,4,4,4,4,4,4,4,4,4,4,100,,,,,,,,,,,,,,,,,,,,,,,,,,,,,,,,,,,,,,,,,,,,,,,,,,,,,,,,,,,,,,,,,,,,,,,,,,,,,,,,,,,,,,,,,,,,,,,,,,,,,,,,,,,,,,,,,,,,,,,,,,,,,,,,,,,,,,
1702361608,1702361608,112,0,4303.333496,4242.179688,4278.205078,4372.436035,4297.05127,4261.538574,4294.230957,4278.589844,4258.846191,4209.102539,4448.461426,4467.563965,4342.436035,4387.179688,6432,3,56,,,,0,4,4,4,4,4,4,4,4,4,4,4,4,4,4,100,,,,,,,,,,,,,,,,,28,0,0.098024,-0.680481,0.215454,-0.693481,0.887804,-0.390184,-0.071786,-21.915188,-2.835796,79.396347,,,,,,,,,,,,,,,,,,,,,,,,,,,,,,,,,,,,,,,,,,,,,,,,,,,,,,,,,,,,,,,,,,,,,,,,,,,,,,,,,,,,,,,,,,,,,,,,,,,,,,,,,,
1702361608,1702361608,113,0,4314.102539,4266.410156,4286.922852,4389.102539,4249.230957,4272.94873,4301.794922,4284.358887,4266.538574,4274.743652,4468.717773,4475.769043,4366.025879,4402.436035,6573,3,56,,,,0,4,4,4,4,4,4,4,4,4,4,4,4,4,4,100,,,,,,,,,,,,,,,,,,,,,,,,,,,,,,,,,,,,,,,,,,,,,,,,,,,,,,,,,,,,,,,,,,,,,,,,,,,,,,,,,,,,,,,,,,,,,,,,,,,,,,,,,,,,,,,,,,,,,,,,,,,,,,,,,,,,,,
1702361608,1702361608,114,0,4300.641113,4255.384766,4274.487305,4383.974121,4295.512695,4263.461426,4287.692383,4279.230957,4254.743652,4245,4455,4463.974121,4347.820313,4390.641113,6072,3,56,,,,0,4,4,4,4,4,4,4,4,4,4,4,4,4,4,100,,,,,,,,,,,,,,,,,,,,,,,,,,,,,,,,,,,,,,,,,,,,,,,,,,,,,,,,,,,,,,,,,,,,,,,,,,,,,,,,,,,,,,,,,,,,,,,,,,,,,,,,,,,,,,,,,,,,,,,,,,,,,,,,,,,,,,
1702361608,1702361608,115,0,4279.615234,4223.974121,4257.94873,4370.256348,4335.897461,4243.974121,4269.615234,4271.025879,4248.205078,4233.589844,4434.102539,4445.256348,4332.563965,4370.769043,6133,3,56,,,,0,4,4,4,4,4,4,4,4,4,4,4,4,4,4,100,,,,,,,,,,,,,,,,,,,,,,,,,,,,,,,,,,,,,,,,,,,,,,,,,,,,,,,,,,,,,,,,,,,,,,,,,,,,,,,,,,,,,,,,,,,,,,,,,,,,,,,,,,,,,,,,,,,,,,,,,,,,,,,,,,,,,,
1702361608,1702361608,116,0,4289.871582,4234.743652,4268.974121,4377.563965,4244.102539,4257.563965,4282.692383,4276.025879,4259.358887,4268.077148,4443.205078,4453.974121,4333.974121,4381.025879,6432,3,56,,,,0,4,4,4,4,4,4,4,4,4,4,4,4,4,4,100,,,,,,,,,,,,,,,,,29,0,0.097755,-0.680481,0.215576,-0.693481,0.901966,-0.402881,-0.060554,-21.957003,-2.868883,79.440048,,,,,,,,,,,,,,,,,,,,,,,,,,,,,,,,,,,,,,,,,,,,,,,,,,,,,,,,,,,,,,,,,,,,,,,,,,,,,,,,,,,,,,,,,,,,,,,,,,,,,,,,,,
1702361608,1702361608,117,0,4311.922852,4266.666504,4292.179688,4397.94873,4218.077148,4277.692383,4301.538574,4283.461426,4268.589844,4258.333496,4474.102539,4480.128418,4360.769043,4414.230957,6573,3,56,,,,0,4,4,4,4,4,4,4,4,4,4,4,4,4,4,100,,,,,,,,,,,,,,,,,,,,,,,,,,,,,,,,,,,,,,,,,,,,,,,,,,,,,,,,,,,,,,,,,,,,,,,,,,,,,,,,,,,,,,,,,,,,,,,,,,,,,,,,,,,,,,,,,,,,,,,,,,,,,,,,,,,,,,
1702361608,1702361608,118,0,4295.384766,4247.563965,4277.05127,4385.512695,4327.436035,4262.179688,4282.307617,4269.871582,4257.307617,4246.153809,4475.641113,4471.666504,4375.641113,4411.282227,6072,3,56,,,,0,4,4,4,4,4,4,4,4,4,4,4,4,4,4,100,,,,,,,,,,,,,,,,,,,,,,,,,,,,,,,,,,,,,,,,,,,,,,,,,,,,,,,,,,,,,,,,,,,,,,,,,,,,,,,,,,,,,,,,,,,,,,,,,,,,,,,,,,,,,,,,,,,,,,,,,,,,,,,,,,,,,,
1702361608,1702361608,119,0,4264.615234,4214.487305,4243.077148,4353.333496,4347.820313,4247.94873,4261.282227,4260.641113,4241.025879,4249.871582,4450.512695,4438.589844,4353.333496,4379.487305,6133,3,56,,,,0,4,4,4,4,4,4,4,4,4,4,4,4,4,4,100,1,16.666666,4,3,3,1,0,3,3,4,4,1,3,3,3,3,,,,,,,,,,,,,,,,,,,,,,,,,,,,,,,,,,,,,,,,,,,,,,,,,2.387349,2.47536,1.788752,1.242737,1.431022,3.34229,1.696829,1.812287,2.045606,2.156489,3.192801,2.874881,1.401826,1.219958,1.473391,21.622385,4.380034,2.088503,3.202289,3.439531,1.981109,2.48021,6.369351,23.221191,27.129709,0.494415,0.371115,0.60796,0.293939,0.767502,1.138173,1.522256,2.146663,0.751018,1.077158,0.634126,0.412953,0.472001,0.270347,0.316421,0.618581,0.570421,0.545293,0.54403,0.714005,2.752369,0.70185,1.301713,6.813455,11.694359,2.148602,1.950981,1.793908,1.813501,2.24605,2.696816,2.653015,1.972968,1.236716,1.724387,5.112343,2.355735,2.313453,2.549693,2.694177,2.527961,2.753943,1.800982,1.681745,1.884698
1702361608,1702361608,120,0,4272.179688,4240.256348,4251.666504,4368.717773,4255.769043,4265.641113,4280,4273.461426,4247.94873,4218.205078,4453.589844,4445.128418,4349.487305,4384.871582,6432,3,56,,,,0,4,4,4,4,4,4,4,4,4,4,4,4,4,4,100,,,,,,,,,,,,,,,,,30,0,0.097494,-0.680542,0.215698,-0.69342,0.896105,-0.392626,-0.075693,-22.044636,-2.898662,79.362709,,,,,,,,,,,,,,,,,,,,,,,,,,,,,,,,,,,,,,,,,,,,,,,,,,,,,,,,,,,,,,,,,,,,,,,,,,,,,,,,,,,,,,,,,,,,,,,,,,,,,,,,,,
1702361608,1702361608,121,0,4288.077148,4254.871582,4272.307617,4390.512695,4247.563965,4265.128418,4285,4276.666504,4257.307617,4242.692383,4470.128418,4465.897461,4372.820313,4407.436035,6573,3,56,,,,0,4,4,4,4,4,4,4,4,4,4,4,4,4,4,100,,,,,,,,,,,,,,,,,,,,,,,,,,,,,,,,,,,,,,,,,,,,,,,,,,,,,,,,,,,,,,,,,,,,,,,,,,,,,,,,,,,,,,,,,,,,,,,,,,,,,,,,,,,,,,,,,,,,,,,,,,,,,,,,,,,,,,
1702361608,1702361608,122,0,4273.333496,4221.410156,4257.436035,4363.461426,4362.307617,4241.025879,4257.436035,4267.179688,4246.410156,4312.820313,4453.461426,4451.282227,4353.461426,4392.94873,6072,3,56,,,,0,4,4,4,4,4,4,4,4,4,4,4,4,4,4,100,,,,,,,,,,,,,,,,,,,,,,,,,,,,,,,,,,,,,,,,,,,,,,,,,,,,,,,,,,,,,,,,,,,,,,,,,,,,,,,,,,,,,,,,,,,,,,,,,,,,,,,,,,,,,,,,,,,,,,,,,,,,,,,,,,,,,,
1702361608,1702361608,123,0,4274.871582,4236.922852,4263.589844,4374.358887,4290,4257.05127,4272.436035,4278.974121,4254.230957,4262.820313,4458.717773,4461.794922,4345.897461,4396.538574,6133,3,56,,,,0,4,4,4,4,4,4,4,4,4,4,4,4,4,4,100,,,,,,,,,,,,,,,,,,,,,,,,,,,,,,,,,,,,,,,,,,,,,,,,,,,,,,,,,,,,,,,,,,,,,,,,,,,,,,,,,,,,,,,,,,,,,,,,,,,,,,,,,,,,,,,,,,,,,,,,,,,,,,,,,,,,,,
1702361608,1702361608,124,0,4283.333496,4259.871582,4285.641113,4402.307617,4128.974121,4277.05127,4298.846191,4285.769043,4268.589844,4181.153809,4480.769043,4482.307617,4368.077148,4413.589844,6432,3,56,,,,0,4,4,4,4,4,4,4,4,4,4,4,4,4,4,100,,,,,,,,,,,,,,,,,31,0,0.097358,-0.680542,0.215759,-0.69342,0.880967,-0.394579,-0.069833,-22.123505,-3.058795,79.376434,,,,,,,,,,,,,,,,,,,,,,,,,,,,,,,,,,,,,,,,,,,,,,,,,,,,,,,,,,,,,,,,,,,,,,,,,,,,,,,,,,,,,,,,,,,,,,,,,,,,,,,,,,
1702361608,1702361608,125,0,4262.563965,4224.743652,4265.897461,4368.461426,4260.512695,4250.897461,4267.94873,4269.358887,4253.974121,4243.461426,4457.05127,4457.94873,4348.077148,4390.128418,6573,3,56,,,,0,4,4,4,4,4,4,4,4,4,4,4,4,4,4,100,,,,,,,,,,,,,,,,,,,,,,,,,,,,,,,,,,,,,,,,,,,,,,,,,,,,,,,,,,,,,,,,,,,,,,,,,,,,,,,,,,,,,,,,,,,,,,,,,,,,,,,,,,,,,,,,,,,,,,,,,,,,,,,,,,,,,,
1702361608,1702361608,126,0,4247.820313,4208.589844,4247.436035,4342.05127,4413.717773,4236.922852,4245.641113,4266.282227,4241.794922,4294.487305,4435,4440.769043,4325,4373.333496,6072,3,56,,,,0,4,4,4,4,4,4,4,4,4,4,4,4,4,4,100,,,,,,,,,,,,,,,,,,,,,,,,,,,,,,,,,,,,,,,,,,,,,,,,,,,,,,,,,,,,,,,,,,,,,,,,,,,,,,,,,,,,,,,,,,,,,,,,,,,,,,,,,,,,,,,,,,,,,,,,,,,,,,,,,,,,,,
1702361608,1702361608,127,0,4260.897461,4236.922852,4268.333496,4377.05127,4249.743652,4259.615234,4274.102539,4277.436035,4256.666504,4230.769043,4453.205078,4461.410156,4340.256348,4392.692383,56,3,56,,,,0,4,4,4,4,4,4,4,4,4,4,4,4,4,4,100,,,,,,,,,,,,,,,,,,,,,,,,,,,,,,,,,,,,,,,,,,,,,,,,,,,,,,,,,,,,,,,,,,,,,,,,,,,,,,,,,,,,,,,,,,,,,,,,,,,,,,,,,,,,,,,,,,,,,,,,,,,,,,,,,,,,,,
1702361608,1702361608,0,0,4267.692383,4253.589844,4278.589844,4398.333496,4171.410156,4264.230957,4282.05127,4279.615234,4266.666504,4216.794922,4465.128418,4469.871582,4353.717773,4401.922852,5365,3,56,,,,0,4,4,4,4,4,4,4,4,4,4,4,4,4,4,100,,,,,,,,,,,,,,,,,0,0,0.097058,-0.680542,0.215698,-0.693481,0.908802,-0.397509,-0.075204,-22.127821,-3.086249,79.288795,,,,,,,,,,,,,,,,,,,,,,,,,,,,,,,,,,,,,,,,,,,,,,,,,,,,,,,,,,,,,,,,,,,,,,,,,,,,,,,,,,,,,,,,,,,,,,,,,,,,,,,,,,
1702361608,1702361608,1,0,4258.974121,4249.102539,4261.410156,4372.563965,4344.358887,4254.102539,4261.282227,4277.179688,4261.666504,4290.641113,4463.589844,4460,4355.128418,4395.512695,5566,3,56,,,,0,4,4,4,4,4,4,4,4,4,4,4,4,4,4,100,,,,,,,,,,,,,,,,,,,,,,,,,,,,,,,,,,,,,,,,,,,,,,,,,,,,,,,,,,,,,,,,,,,,,,,,,,,,,,,,,,,,,,,,,,,,,,,,,,,,,,,,,,,,,,,,,,,,,,,,,,,,,,,,,,,,,,
1702361608,1702361608,2,0,4260.769043,4248.717773,4262.692383,4370.769043,4305.641113,4264.743652,4269.487305,4279.615234,4266.538574,4301.538574,4476.794922,4467.307617,4364.871582,4406.666504,5500,3,56,,,,0,4,4,4,4,4,4,4,4,4,4,4,4,4,4,100,,,,,,,,,,,,,,,,,,,,,,,,,,,,,,,,,,,,,,,,,,,,,,,,,,,,,,,,,,,,,,,,,,,,,,,,,,,,,,,,,,,,,,,,,,,,,,,,,,,,,,,,,,,,,,,,,,,,,,,,,,,,,,,,,,,,,,
1702361608,1702361608,3,0,4257.436035,4245.641113,4264.230957,4379.230957,4178.974121,4263.077148,4278.077148,4279.102539,4263.461426,4244.102539,4472.05127,4463.974121,4353.974121,4402.94873,5526,3,56,,,,0,4,4,4,4,4,4,4,4,4,4,4,4,4,4,100,,,,,,,,,,,,,,,,,,,,,,,,,,,,,,,,,,,,,,,,,,,,,,,,,,,,,,,,,,,,,,,,,,,,,,,,,,,,,,,,,,,,,,,,,,,,,,,,,,,,,,,,,,,,,,,,,,,,,,,,,,,,,,,,,,,,,,
1702361608,1702361608,4,0,4242.94873,4243.333496,4247.436035,4363.205078,4277.563965,4248.461426,4263.974121,4275.641113,4248.846191,4235.897461,4446.538574,4446.922852,4327.563965,4377.692383,5228,3,56,,,,0,4,4,4,4,4,4,4,4,4,4,4,4,4,4,100,,,,,,,,,,,,,,,,,1,0,0.096736,-0.680603,0.215454,-0.693542,0.912221,-0.387743,-0.064461,-22.048372,-3.160958,79.276581,,,,,,,,,,,,,,,,,,,,,,,,,,,,,,,,,,,,,,,,,,,,,,,,,,,,,,,,,,,,,,,,,,,,,,,,,,,,,,,,,,,,,,,,,,,,,,,,,,,,,,,,,,
1702361608,1702361608,5,0,4241.538574,4252.692383,4246.025879,4363.205078,4338.205078,4256.282227,4266.410156,4279.230957,4250.897461,4226.922852,4440.512695,4446.922852,4326.538574,4376.666504,5562,3,56,,,,0,4,4,4,4,4,4,4,4,4,4,4,4,4,4,100,,,,,,,,,,,,,,,,,,,,,,,,,,,,,,,,,,,,,,,,,,,,,,,,,,,,,,,,,,,,,,,,,,,,,,,,,,,,,,,,,,,,,,,,,,,,,,,,,,,,,,,,,,,,,,,,,,,,,,,,,,,,,,,,,,,,,,
1702361608,1702361608,6,0,4252.436035,4260.384766,4264.743652,4388.205078,4233.077148,4268.974121,4285,4284.743652,4264.230957,4219.743652,4452.563965,4460.641113,4339.230957,4395.641113,5467,3,56,,,,0,4,4,4,4,4,4,4,4,4,4,4,4,4,4,100,,,,,,,,,,,,,,,,,,,,,,,,,,,,,,,,,,,,,,,,,,,,,,,,,,,,,,,,,,,,,,,,,,,,,,,,,,,,,,,,,,,,,,,,,,,,,,,,,,,,,,,,,,,,,,,,,,,,,,,,,,,,,,,,,,,,,,
1702361608,1702361608,7,0,4253.333496,4251.666504,4272.179688,4385,4225.512695,4264.102539,4278.974121,4284.230957,4266.153809,4280.769043,4468.717773,4472.820313,4351.794922,4401.922852,3274,3,56,,,,0,4,4,4,4,4,4,4,4,4,4,4,4,4,4,100,,,,,,,,,,,,,,,,,,,,,,,,,,,,,,,,,,,,,,,,,,,,,,,,,,,,,,,,,,,,,,,,,2.933907,2.48105,1.938964,1.199199,1.403647,2.916203,1.79998,1.795922,1.987228,2.17456,3.088405,2.823922,1.298478,1.159108,1.354297,22.710485,4.738279,2.05132,3.238574,3.342541,2.183382,2.354674,6.486544,25.133356,27.44401,0.542795,0.351319,0.517521,0.296567,0.688988,1.311909,1.68539,1.708401,0.707479,0.973698,0.549002,0.431991,0.344119,0.285888,0.306638,0.594754,0.575485,0.367959,0.597572,0.721198,2.795902,0.77281,1.030218,7.366467,12.384656,2.406602,1.958156,1.559343,1.777573,2.318637,2.829063,2.53723,1.829453,1.197643,1.661102,5.577477,2.203608,1.995627,2.544612,2.723735,3.481862,3.025767,1.900909,1.604667,1.86134
1702361608,1702361608,8,0,4245.512695,4235.384766,4263.846191,4357.563965,4331.282227,4257.692383,4262.692383,4279.743652,4260.641113,4288.205078,4473.205078,4468.333496,4356.794922,4397.820313,4579,3,56,,,,0,4,4,4,4,4,4,4,4,4,4,4,4,4,4,100,,,,,,,,,,,,,,,,,2,0,0.095974,-0.680908,0.215027,-0.693481,0.899036,-0.392138,-0.076181,-22.043535,-3.161529,79.098923,,,,,,,,,,,,,,,,,,,,,,,,,,,,,,,,,,,,,,,,,,,,,,,,,,,,,,,,,,,,,,,,,,,,,,,,,,,,,,,,,,,,,,,,,,,,,,,,,,,,,,,,,,
1702361608,1702361608,9,0,4258.077148,4254.358887,4272.692383,4378.846191,4301.410156,4264.102539,4274.615234,4280.769043,4263.077148,4231.666504,4473.717773,4467.820313,4360.128418,4409.871582,5572,3,56,,,,0,4,4,4,4,4,4,4,4,4,4,4,4,4,4,100,,,,,,,,,,,,,,,,,,,,,,,,,,,,,,,,,,,,,,,,,,,,,,,,,,,,,,,,,,,,,,,,,,,,,,,,,,,,,,,,,,,,,,,,,,,,,,,,,,,,,,,,,,,,,,,,,,,,,,,,,,,,,,,,,,,,,,
1702361608,1702361608,10,0,4275.256348,4285,4287.820313,4410.641113,4235.512695,4271.282227,4288.077148,4284.358887,4268.717773,4263.974121,4479.615234,4478.974121,4363.077148,4420.384766,6105,3,56,,,,0,4,4,4,4,4,4,4,4,4,4,4,4,4,4,100,,,,,,,,,,,,,,,,,,,,,,,,,,,,,,,,,,,,,,,,,,,,,,,,,,,,,,,,,,,,,,,,,,,,,,,,,,,,,,,,,,,,,,,,,,,,,,,,,,,,,,,,,,,,,,,,,,,,,,,,,,,,,,,,,,,,,,
1702361608,1702361608,11,0,4254.102539,4265.641113,4271.025879,4380,4289.358887,4266.410156,4269.358887,4277.436035,4260.641113,4287.05127,4464.102539,4466.153809,4341.410156,4397.692383,6157,3,56,,,,0,4,4,4,4,4,4,4,4,4,4,4,4,4,4,100,,,,,,,,,,,,,,,,,,,,,,,,,,,,,,,,,,,,,,,,,,,,,,,,,,,,,,,,,,,,,,,,,,,,,,,,,,,,,,,,,,,,,,,,,,,,,,,,,,,,,,,,,,,,,,,,,,,,,,,,,,,,,,,,,,,,,,
1702361608,1702361608,12,0,4229.102539,4227.307617,4248.846191,4342.94873,4339.102539,4255.897461,4252.94873,4272.307617,4252.563965,4225,4447.820313,4445.256348,4336.153809,4379.358887,6456,3,56,,,,0,4,4,4,4,4,4,4,4,4,4,4,4,4,4,100,,,,,,,,,,,,,,,,,3,0,0.09588,-0.680908,0.214478,-0.693665,0.896105,-0.396044,-0.069344,-22.189182,-3.112042,79.322365,,,,,,,,,,,,,,,,,,,,,,,,,,,,,,,,,,,,,,,,,,,,,,,,,,,,,,,,,,,,,,,,,,,,,,,,,,,,,,,,,,,,,,,,,,,,,,,,,,,,,,,,,,
1702361608,1702361608,13,0,4253.461426,4244.358887,4267.820313,4373.461426,4256.153809,4260.384766,4273.461426,4287.820313,4269.871582,4248.205078,4481.153809,4467.820313,4387.179688,4408.589844,6589,3,56,,,,0,4,4,4,4,4,4,4,4,4,4,4,4,4,4,100,,,,,,,,,,,,,,,,,,,,,,,,,,,,,,,,,,,,,,,,,,,,,,,,,,,,,,,,,,,,,,,,,,,,,,,,,,,,,,,,,,,,,,,,,,,,,,,,,,,,,,,,,,,,,,,,,,,,,,,,,,,,,,,,,,,,,,
1702361608,1702361608,14,0,4277.692383,4283.461426,4292.307617,4410.641113,4164.615234,4273.461426,4290.769043,4299.487305,4287.05127,4289.358887,4508.846191,4493.461426,4411.153809,4431.282227,6105,3,56,,,,0,4,4,4,4,4,4,4,4,4,4,4,4,4,4,100,,,,,,,,,,,,,,,,,,,,,,,,,,,,,,,,,,,,,,,,,,,,,,,,,,,,,,,,,,,,,,,,,,,,,,,,,,,,,,,,,,,,,,,,,,,,,,,,,,,,,,,,,,,,,,,,,,,,,,,,,,,,,,,,,,,,,,
1702361608,1702361608,15,0,4249.743652,4255.512695,4265.641113,4374.743652,4223.846191,4260.128418,4264.358887,4283.333496,4266.666504,4248.333496,4467.307617,4461.282227,4359.615234,4392.436035,6157,3,56,,,,0,4,4,4,4,4,4,4,4,4,4,4,4,4,4,100,,,,,,,,,,,,,,,,,,,,,,,,,,,,,,,,,,,,,,,,,,,,,,,,,,,,,,,,,,,,,,,,,,,,,,,,,,,,,,,,,,,,,,,,,,,,,,,,,,,,,,,,,,,,,,,,,,,,,,,,,,,,,,,,,,,,,,
1702361608,1702361608,16,0,4230.769043,4226.538574,4240.769043,4343.333496,4318.717773,4245.512695,4242.307617,4271.025879,4246.666504,4254.230957,4436.666504,4436.025879,4333.717773,4365.384766,0,3,56,,,,0,4,4,4,4,4,4,4,4,4,4,4,4,4,4,100,,,,,,,,,,,,,,,,,4,0,0.095492,-0.680786,0.21405,-0.69397,0.908802,-0.395556,-0.065438,-22.103598,-3.217505,79.190125,,,,,,,,,,,,,,,,,,,,,,,,,,,,,,,,,,,,,,,,,,,,,,,,,,,,,,,,,,,,,,,,,,,,,,,,,,,,,,,,,,,,,,,,,,,,,,,,,,,,,,,,,,
1702361608,1702361608,17,0,4258.717773,4275.769043,4260.256348,4371.410156,4307.820313,4258.205078,4257.307617,4281.538574,4256.794922,4268.333496,4465,4452.692383,4372.820313,4393.974121,0,3,56,,,,0,4,4,4,4,4,4,4,4,4,4,4,4,4,4,100,,,,,,,,,,,,,,,,,,,,,,,,,,,,,,,,,,,,,,,,,,,,,,,,,,,,,,,,,,,,,,,,,,,,,,,,,,,,,,,,,,,,,,,,,,,,,,,,,,,,,,,,,,,,,,,,,,,,,,,,,,,,,,,,,,,,,,
1702361608,1702361608,18,0,4285.128418,4311.538574,4278.077148,4391.025879,4281.538574,4263.974121,4266.538574,4285.769043,4265.256348,4248.846191,4481.153809,4465.769043,4387.94873,4419.358887,0,3,56,,,,0,4,4,4,4,4,4,4,4,4,4,4,4,4,4,100,,,,,,,,,,,,,,,,,,,,,,,,,,,,,,,,,,,,,,,,,,,,,,,,,,,,,,,,,,,,,,,,,,,,,,,,,,,,,,,,,,,,,,,,,,,,,,,,,,,,,,,,,,,,,,,,,,,,,,,,,,,,,,,,,,,,,,
1702361608,1702361608,19,0,4297.436035,4305.256348,4279.358887,4393.461426,4317.05127,4258.205078,4258.846191,4282.94873,4265.897461,4258.077148,4470.128418,4469.102539,4365.897461,4425.512695,0,3,56,,,,0,4,4,4,4,4,4,4,4,4,4,4,4,4,4,100,,,,,,,,,,,,,,,,,,,,,,,,,,,,,,,,,,,,,,,,,,,,,,,,,,,,,,,,,,,,,,,,,,,,,,,,,,,,,,,,,,,,,,,,,,,,,,,,,,,,,,,,,,,,,,,,,,,,,,,,,,,,,,,,,,,,,,
1702361608,1702361608,20,0,4307.05127,4326.410156,4282.94873,4408.205078,4294.102539,4264.615234,4261.410156,4282.563965,4262.820313,4239.487305,4456.025879,4462.94873,4345.256348,4422.692383,0,3,56,,,,0,4,4,4,4,4,4,4,4,4,4,4,4,4,4,100,,,,,,,,,,,,,,,,,5,0,0.095788,-0.680481,0.214294,-0.694153,0.902454,-0.399463,-0.062508,-22.193237,-3.029088,79.037781,,,,,,,,,,,,,,,,,,,,,,,,,,,,,,,,,,,,,,,,,,,,,,,,,,,,,,,,,,,,,,,,,,,,,,,,,,,,,,,,,,,,,,,,,,,,,,,,,,,,,,,,,,
1702361608,1702361608,21,0,4304.230957,4353.077148,4283.077148,4409.358887,4236.666504,4272.94873,4267.94873,4280.384766,4258.717773,4256.538574,4447.05127,4451.794922,4339.358887,4411.538574,0,3,56,,,,0,4,4,4,4,4,4,4,4,4,4,4,4,4,4,100,,,,,,,,,,,,,,,,,,,,,,,,,,,,,,,,,,,,,,,,,,,,,,,,,,,,,,,,,,,,,,,,,,,,,,,,,,,,,,,,,,,,,,,,,,,,,,,,,,,,,,,,,,,,,,,,,,,,,,,,,,,,,,,,,,,,,,
1702361608,1702361608,22,0,4296.794922,4328.974121,4277.820313,4391.666504,4257.94873,4265.897461,4264.230957,4280.384766,4262.94873,4302.179688,4448.846191,4454.358887,4337.820313,4410,0,3,56,,,,0,4,4,4,4,4,4,4,4,4,4,4,4,4,4,100,,,,,,,,,,,,,,,,,,,,,,,,,,,,,,,,,,,,,,,,,,,,,,,,,,,,,,,,,,,,,,,,,,,,,,,,,,,,,,,,,,,,,,,,,,,,,,,,,,,,,,,,,,,,,,,,,,,,,,,,,,,,,,,,,,,,,,
1702361608,1702361608,23,0,4296.666504,4312.94873,4280.512695,4393.461426,4285.641113,4259.615234,4262.436035,4281.410156,4262.307617,4224.358887,4449.358887,4459.743652,4329.743652,4417.820313,0,3,56,,,,0,4,4,4,4,4,4,4,4,4,4,4,4,4,4,100,,,,,,,,,,,,,,,,,,,,,,,,,,,,,,,,,,,,,,,,,,,,,,,,,,,,,,,,,,,,,,,,,4.134015,2.719537,2.198036,1.149312,1.417383,2.924809,2.139292,1.878599,1.840499,2.212996,2.856283,2.911367,1.295371,1.101773,1.25132,21.232679,5.017947,2.165894,3.073374,3.266268,2.28096,2.393868,7.014138,26.747166,28.206795,0.615457,0.336415,0.457575,0.33505,0.62104,1.406394,1.7449,1.339718,0.712717,0.896052,0.445484,0.450939,0.238071,0.314424,0.300249,0.56142,0.567905,0.2486,0.660162,0.737314,2.658174,0.851773,0.830377,7.463472,12.784191,3.02484,1.971505,1.393495,1.781569,2.331086,3.102663,2.503032,1.769832,1.178534,1.596444,6.724887,2.188505,1.777651,2.528525,2.713856,5.34636,3.456393,2.146707,1.550455,1.837367
1702361608,1702361608,24,0,4298.077148,4337.692383,4284.743652,4410.512695,4259.615234,4266.922852,4266.025879,4278.717773,4255.641113,4186.794922,4445.769043,4456.666504,4332.563965,4415.641113,0,3,56,,,,0,4,4,4,4,4,4,4,4,4,4,4,4,4,4,100,,,,,,,,,,,,,,,,,6,0,0.095841,-0.680176,0.214844,-0.694275,0.889269,-0.389696,-0.072274,-22.257246,-3.009512,79.034004,,,,,,,,,,,,,,,,,,,,,,,,,,,,,,,,,,,,,,,,,,,,,,,,,,,,,,,,,,,,,,,,,,,,,,,,,,,,,,,,,,,,,,,,,,,,,,,,,,,,,,,,,,
1702361608,1702361608,25,0,4294.487305,4339.615234,4284.102539,4406.410156,4230,4271.794922,4267.307617,4279.230957,4261.025879,4270.128418,4451.666504,4459.487305,4342.820313,4412.179688,0,3,56,,,,0,4,4,4,4,4,4,4,4,4,4,4,4,4,4,100,,,,,,,,,,,,,,,,,,,,,,,,,,,,,,,,,,,,,,,,,,,,,,,,,,,,,,,,,,,,,,,,,,,,,,,,,,,,,,,,,,,,,,,,,,,,,,,,,,,,,,,,,,,,,,,,,,,,,,,,,,,,,,,,,,,,,,
1702361608,1702361608,26,0,4282.307617,4304.487305,4274.743652,4375.641113,4290.384766,4263.205078,4260.897461,4279.102539,4262.05127,4250.128418,4446.025879,4452.563965,4328.717773,4406.025879,0,3,56,,,,0,4,4,4,4,4,4,4,4,4,4,4,4,4,4,100,,,,,,,,,,,,,,,,,,,,,,,,,,,,,,,,,,,,,,,,,,,,,,,,,,,,,,,,,,,,,,,,,,,,,,,,,,,,,,,,,,,,,,,,,,,,,,,,,,,,,,,,,,,,,,,,,,,,,,,,,,,,,,,,,,,,,,
1702361608,1702361608,27,0,4276.538574,4299.615234,4271.666504,4367.05127,4392.307617,4261.282227,4259.871582,4276.666504,4253.717773,4216.025879,4438.333496,4446.538574,4319.871582,4404.358887,0,3,56,,,,0,4,4,4,4,4,4,4,4,4,4,4,4,4,4,100,,,,,,,,,,,,,,,,,,,,,,,,,,,,,,,,,,,,,,,,,,,,,,,,,,,,,,,,,,,,,,,,,,,,,,,,,,,,,,,,,,,,,,,,,,,,,,,,,,,,,,,,,,,,,,,,,,,,,,,,,,,,,,,,,,,,,,
1702361608,1702361608,28,0,4299.358887,4333.846191,4297.436035,4410.256348,4313.333496,4276.794922,4277.05127,4289.358887,4271.410156,4301.666504,4476.025879,4481.153809,4362.05127,4431.025879,0,3,56,,,,0,4,4,4,4,4,4,4,4,4,4,4,4,4,4,100,,,,,,,,,,,,,,,,,7,0,0.09542,-0.680115,0.215027,-0.694336,0.905384,-0.381883,-0.084483,-22.381521,-3.091894,78.980606,,,,,,,,,,,,,,,,,,,,,,,,,,,,,,,,,,,,,,,,,,,,,,,,,,,,,,,,,,,,,,,,,,,,,,,,,,,,,,,,,,,,,,,,,,,,,,,,,,,,,,,,,,
1702361608,1702361608,29,0,4315.128418,4336.025879,4311.282227,4427.692383,4183.333496,4280.641113,4282.820313,4296.153809,4284.102539,4292.94873,4495,4497.563965,4378.461426,4440.769043,0,3,56,,,,0,4,4,4,4,4,4,4,4,4,4,4,4,4,4,100,,,,,,,,,,,,,,,,,,,,,,,,,,,,,,,,,,,,,,,,,,,,,,,,,,,,,,,,,,,,,,,,,,,,,,,,,,,,,,,,,,,,,,,,,,,,,,,,,,,,,,,,,,,,,,,,,,,,,,,,,,,,,,,,,,,,,,
1702361608,1702361608,30,0,4299.743652,4322.436035,4294.743652,4394.615234,4267.307617,4275,4274.743652,4287.436035,4264.358887,4224.743652,4457.692383,4470.384766,4339.871582,4417.436035,0,3,56,,,,0,4,4,4,4,4,4,4,4,4,4,4,4,4,4,100,,,,,,,,,,,,,,,,,,,,,,,,,,,,,,,,,,,,,,,,,,,,,,,,,,,,,,,,,,,,,,,,,,,,,,,,,,,,,,,,,,,,,,,,,,,,,,,,,,,,,,,,,,,,,,,,,,,,,,,,,,,,,,,,,,,,,,
1702361608,1702361608,31,0,4287.692383,4333.205078,4291.282227,4384.615234,4382.307617,4276.794922,4275,4283.717773,4259.102539,4274.615234,4449.871582,4465.384766,4335,4416.282227,0,3,56,,,,0,4,4,4,4,4,4,4,4,4,4,4,4,4,4,100,,,,,,,,,,,,,,,,,,,,,,,,,,,,,,,,,,,,,,,,,,,,,,,,,,,,,,,,,,,,,,,,,,,,,,,,,,,,,,,,,,,,,,,,,,,,,,,,,,,,,,,,,,,,,,,,,,,,,,,,,,,,,,,,,,,,,,
1702361608,1702361608,32,0,4295.128418,4331.282227,4303.846191,4402.05127,4326.282227,4278.333496,4276.538574,4285.256348,4273.974121,4298.974121,4477.307617,4480.769043,4361.153809,4435,0,3,56,,,,0,4,4,4,4,4,4,4,4,4,4,4,4,4,4,100,,,,,,,,,,,,,,,,,8,0,0.095845,-0.679993,0.215027,-0.694397,0.914174,-0.4063,-0.074716,-22.410036,-2.999372,78.849213,,,,,,,,,,,,,,,,,,,,,,,,,,,,,,,,,,,,,,,,,,,,,,,,,,,,,,,,,,,,,,,,,,,,,,,,,,,,,,,,,,,,,,,,,,,,,,,,,,,,,,,,,,
1702361608,1702361608,33,0,4312.436035,4332.692383,4311.025879,4407.563965,4275.128418,4290.641113,4286.922852,4286.666504,4273.974121,4239.358887,4485.897461,4486.410156,4369.102539,4447.307617,0,3,56,,,,0,4,4,4,4,4,4,4,4,4,4,4,4,4,4,100,,,,,,,,,,,,,,,,,,,,,,,,,,,,,,,,,,,,,,,,,,,,,,,,,,,,,,,,,,,,,,,,,,,,,,,,,,,,,,,,,,,,,,,,,,,,,,,,,,,,,,,,,,,,,,,,,,,,,,,,,,,,,,,,,,,,,,
1702361608,1702361608,34,0,4327.692383,4360.897461,4317.820313,4409.358887,4318.461426,4305.897461,4304.743652,4295,4275.512695,4264.615234,4492.692383,4499.230957,4377.436035,4463.205078,0,3,56,,,,0,4,4,4,4,4,4,4,4,4,4,4,4,4,4,100,,,,,,,,,,,,,,,,,,,,,,,,,,,,,,,,,,,,,,,,,,,,,,,,,,,,,,,,,,,,,,,,,,,,,,,,,,,,,,,,,,,,,,,,,,,,,,,,,,,,,,,,,,,,,,,,,,,,,,,,,,,,,,,,,,,,,,
1702361608,1702361608,35,0,4328.077148,4365.641113,4325.384766,4422.307617,4302.436035,4302.436035,4303.846191,4306.282227,4292.179688,4335.641113,4510,4512.179688,4389.487305,4477.94873,0,3,56,,,,0,4,4,4,4,4,4,4,4,4,4,4,4,4,4,100,,,,,,,,,,,,,,,,,,,,,,,,,,,,,,,,,,,,,,,,,,,,,,,,,,,,,,,,,,,,,,,,,,,,,,,,,,,,,,,,,,,,,,,,,,,,,,,,,,,,,,,,,,,,,,,,,,,,,,,,,,,,,,,,,,,,,,
