Timestamp,OriginalTimestamp,EEG.Counter,EEG.Interpolated,EEG.AF3,EEG.F7,EEG.F3,EEG.FC5,EEG.T7,EEG.P7,EEG.O1,EEG.O2,EEG.P8,EEG.T8,EEG.FC6,EEG.F4,EEG.F8,EEG.AF4,EEG.RawCq,EEG.Battery,EEG.BatteryPercent,MarkerIndex,MarkerType,MarkerValueInt,EEG.MarkerHardware,CQ.AF3,CQ.F7,CQ.F3,CQ.FC5,CQ.T7,CQ.P7,CQ.O1,CQ.O2,CQ.P8,CQ.T8,CQ.FC6,CQ.F4,CQ.F8,CQ.AF4,CQ.Overall,EQ.SampleRateQuality,EQ.OVERALL,EQ.AF3,EQ.F7,EQ.F3,EQ.FC5,EQ.T7,EQ.P7,EQ.O1,EQ.O2,EQ.P8,EQ.T8,EQ.FC6,EQ.F4,EQ.F8,EQ.AF4,MOT.CounterMems,MOT.InterpolatedMems,MOT.Q0,MOT.Q1,MOT.Q2,MOT.Q3,MOT.AccX,MOT.AccY,MOT.AccZ,MOT.MagX,MOT.MagY,MOT.MagZ,PM.Attention.IsActive,PM.Attention.Scaled,PM.Attention.Raw,PM.Attention.Min,PM.Attention.Max,PM.Engagement.IsActive,PM.Engagement.Scaled,PM.Engagement.Raw,PM.Engagement.Min,PM.Engagement.Max,PM.Excitement.IsActive,PM.Excitement.Scaled,PM.Excitement.Raw,PM.Excitement.Min,PM.Excitement.Max,PM.LongTermExcitement,PM.Stress.IsActive,PM.Stress.Scaled,PM.Stress.Raw,PM.Stress.Min,PM.Stress.Max,PM.Relaxation.IsActive,PM.Relaxation.Scaled,PM.Relaxation.Raw,PM.Relaxation.Min,PM.Relaxation.Max,PM.Interest.IsActive,PM.Interest.Scaled,PM.Interest.Raw,PM.Interest.Min,PM.Interest.Max,PM.Focus.IsActive,PM.Focus.Scaled,PM.Focus.Raw,PM.Focus.Min,PM.Focus.Max,POW.AF3.Theta,POW.AF3.Alpha,POW.AF3.BetaL,POW.AF3.BetaH,POW.AF3.Gamma,POW.F7.Theta,POW.F7.Alpha,POW.F7.BetaL,POW.F7.BetaH,POW.F7.Gamma,POW.F3.Theta,POW.F3.Alpha,POW.F3.BetaL,POW.F3.BetaH,POW.F3.Gamma,POW.FC5.Theta,POW.FC5.Alpha,POW.FC5.BetaL,POW.FC5.BetaH,POW.FC5.Gamma,POW.T7.Theta,POW.T7.Alpha,POW.T7.BetaL,POW.T7.BetaH,POW.T7.Gamma,POW.P7.Theta,POW.P7.Alpha,POW.P7.BetaL,POW.P7.BetaH,POW.P7.Gamma,POW.O1.Theta,POW.O1.Alpha,POW.O1.BetaL,POW.O1.BetaH,POW.O1.Gamma,POW.O2.Theta,POW.O2.Alpha,POW.O2.BetaL,POW.O2.BetaH,POW.O2.Gamma,POW.P8.Theta,POW.P8.Alpha,POW.P8.BetaL,POW.P8.BetaH,POW.P8.Gamma,POW.T8.Theta,POW.T8.Alpha,POW.T8.BetaL,POW.T8.BetaH,POW.T8.Gamma,POW.FC6.Theta,POW.FC6.Alpha,POW.FC6.BetaL,POW.FC6.BetaH,POW.FC6.Gamma,POW.F4.Theta,POW.F4.Alpha,POW.F4.BetaL,POW.F4.BetaH,POW.F4.Gamma,POW.F8.Theta,POW.F8.Alpha,POW.F8.BetaL,POW.F8.BetaH,POW.F8.Gamma,POW.AF4.Theta,POW.AF4.Alpha,POW.AF4.BetaL,POW.AF4.BetaH,POW.AF4.Gamma
,,,,,,,,,,,,,,,,,,,,,,,,,,,,,,,,,,,,,,,,,,,,,,,,,,,,,,,,,,,,,,,,,,,,,,,,,,,,,,,,,,,,,,,,,,,,,,,,,,,,,,,,,,,,,,,,,,,,,,,,,,,,,,,,,,,,,,,,,,,,,,,,,,,,,,,,,,,,,,,,,,,,,,,,,,,,,
1702360696,1702360696,40,0,4328.333496,4314.743652,4319.230957,4315.897461,4296.282227,4281.282227,4265.897461,4275.256348,4261.153809,4264.487305,4495.512695,4481.153809,4412.94873,4477.05127,0,3,58,,,,0,4,4,4,4,4,4,4,4,4,4,4,4,4,4,100,,,,,,,,,,,,,,,,,10,0,0.690282,-0.216064,-0.681702,-0.110046,0.975705,-0.13527,-0.021487,-13.492195,-4.672755,89.079468,,,,,,,,,,,,,,,,,,,,,,,,,,,,,,,,,,,,,,,,,,,,,,,,,,,,,,,,,,,,,,,,,,,,,,,,,,,,,,,,,,,,,,,,,,,,,,,,,,,,,,,,,,
1702360696,1702360696,41,0,4317.94873,4297.563965,4308.077148,4304.230957,4290.641113,4275.769043,4258.846191,4271.666504,4254.230957,4254.230957,4490.256348,4472.820313,4397.307617,4462.436035,0,3,58,,,,0,4,4,4,4,4,4,4,4,4,4,4,4,4,4,100,,,,,,,,,,,,,,,,,,,,,,,,,,,,,,,,,,,,,,,,,,,,,,,,,,,,,,,,,,,,,,,,,,,,,,,,,,,,,,,,,,,,,,,,,,,,,,,,,,,,,,,,,,,,,,,,,,,,,,,,,,,,,,,,,,,,,,
1702360696,1702360696,42,0,4318.589844,4297.820313,4312.563965,4305,4294.615234,4278.077148,4264.743652,4276.025879,4257.436035,4261.410156,4487.436035,4475.128418,4396.410156,4458.077148,0,3,58,,,,0,4,4,4,4,4,4,4,4,4,4,4,4,4,4,100,,,,,,,,,,,,,,,,,,,,,,,,,,,,,,,,,,,,,,,,,,,,,,,,,,,,,,,,,,,,,,,,,,,,,,,,,,,,,,,,,,,,,,,,,,,,,,,,,,,,,,,,,,,,,,,,,,,,,,,,,,,,,,,,,,,,,,
1702360696,1702360696,43,0,4326.794922,4309.358887,4323.846191,4313.333496,4300,4283.461426,4273.717773,4283.461426,4266.153809,4270.384766,4496.282227,4487.179688,4409.615234,4468.077148,0,3,58,,,,0,4,4,4,4,4,4,4,4,4,4,4,4,4,4,100,,,,,,,,,,,,,,,,,,,,,,,,,,,,,,,,,,,,,,,,,,,,,,,,,,,,,,,,,,,,,,,,,,,,,,,,,,,,,,,,,,,,,,,,,,,,,,,,,,,,,,,,,,,,,,,,,,,,,,,,,,,,,,,,,,,,,,
1702360696,1702360696,44,0,4319.230957,4300.256348,4315.256348,4303.461426,4285,4280.384766,4268.333496,4279.358887,4264.871582,4262.820313,4495.769043,4480.641113,4402.94873,4460.641113,0,3,58,,,,0,4,4,4,4,4,4,4,4,4,4,4,4,4,4,100,,,,,,,,,,,,,,,,,11,0,0.690159,-0.21582,-0.681824,-0.110535,0.979612,-0.148456,-0.017092,-13.409642,-4.738813,89.121521,,,,,,,,,,,,,,,,,,,,,,,,,,,,,,,,,,,,,,,,,,,,,,,,,,,,,,,,,,,,,,,,,,,,,,,,,,,,,,,,,,,,,,,,,,,,,,,,,,,,,,,,,,
1702360696,1702360696,45,0,4305.256348,4287.692383,4301.538574,4289.230957,4276.666504,4275.128418,4260.769043,4273.974121,4261.922852,4260.384766,4487.436035,4466.282227,4389.871582,4446.538574,0,3,58,,,,0,4,4,4,4,4,4,4,4,4,4,4,4,4,4,100,1,100,4,4,4,4,4,4,4,4,4,4,4,4,4,4,,,,,,,,,,,,,,,,,,,,,,,,,,,,,,,,,,,,,,,,,,,,,,,,,3.092449,0.457088,0.413068,0.448937,0.154024,8.015206,1.382848,0.748329,0.438983,0.127226,2.961722,0.512762,0.350908,0.570933,0.171693,4.295954,0.935569,0.50236,0.474268,0.201622,1.079462,0.222851,0.222341,0.262952,0.139186,0.495083,0.144863,0.087088,0.23864,0.148835,0.477905,0.414877,0.269644,0.241723,0.142217,0.4024,0.716685,0.465488,0.332539,0.127092,1.084417,0.472088,0.470049,0.374508,0.172836,0.886167,0.305416,0.605712,0.461805,0.258198,1.191795,0.394639,0.378818,0.717615,0.287073,1.91023,0.522442,0.202131,0.545826,0.222717,1.842233,0.353358,0.282797,0.491047,0.164954,2.744154,0.381187,0.350285,0.500921,0.12259
1702360696,1702360696,46,0,4306.922852,4297.05127,4306.666504,4297.179688,4291.153809,4278.717773,4263.461426,4280.769043,4267.436035,4272.05127,4490.256348,4468.461426,4396.025879,4454.743652,0,3,58,,,,0,4,4,4,4,4,4,4,4,4,4,4,4,4,4,100,,,,,,,,,,,,,,,,,,,,,,,,,,,,,,,,,,,,,,,,,,,,,,,,,,,,,,,,,,,,,,,,,,,,,,,,,,,,,,,,,,,,,,,,,,,,,,,,,,,,,,,,,,,,,,,,,,,,,,,,,,,,,,,,,,,,,,
1702360696,1702360696,47,0,4310.384766,4302.820313,4312.179688,4306.666504,4291.922852,4281.794922,4267.436035,4284.615234,4268.333496,4271.666504,4491.025879,4470.512695,4400.128418,4458.717773,0,3,58,,,,0,4,4,4,4,4,4,4,4,4,4,4,4,4,4,100,,,,,,,,,,,,,,,,,,,,,,,,,,,,,,,,,,,,,,,,,,,,,,,,,,,,,,,,,,,,,,,,,,,,,,,,,,,,,,,,,,,,,,,,,,,,,,,,,,,,,,,,,,,,,,,,,,,,,,,,,,,,,,,,,,,,,,
1702360696,1702360696,48,0,4302.179688,4292.820313,4306.922852,4296.538574,4278.974121,4278.717773,4268.846191,4279.743652,4265.256348,4264.230957,4481.794922,4463.589844,4392.563965,4446.025879,0,3,58,,,,0,4,4,4,4,4,4,4,4,4,4,4,4,4,4,100,,,,,,,,,,,,,,,,,12,0,0.690041,-0.215881,-0.681885,-0.110779,0.963985,-0.148944,-0.021487,-13.318678,-4.764932,89.109367,,,,,,,,,,,,,,,,,,,,,,,,,,,,,,,,,,,,,,,,,,,,,,,,,,,,,,,,,,,,,,,,,,,,,,,,,,,,,,,,,,,,,,,,,,,,,,,,,,,,,,,,,,
1702360696,1702360696,49,0,4296.922852,4286.794922,4304.102539,4292.179688,4280.256348,4278.846191,4270.897461,4279.615234,4266.153809,4264.743652,4478.589844,4464.487305,4389.487305,4442.563965,0,3,58,,,,0,4,4,4,4,4,4,4,4,4,4,4,4,4,4,100,,,,,,,,,,,,,,,,,,,,,,,,,,,,,,,,,,,,,,,,,,,,,,,,,,,,,,,,,,,,,,,,,,,,,,,,,,,,,,,,,,,,,,,,,,,,,,,,,,,,,,,,,,,,,,,,,,,,,,,,,,,,,,,,,,,,,,
1702360696,1702360696,50,0,4295.641113,4280.256348,4303.846191,4295.128418,4279.871582,4278.461426,4266.282227,4281.794922,4263.717773,4256.794922,4475.384766,4463.846191,4382.692383,4440,0,3,58,,,,0,4,4,4,4,4,4,4,4,4,4,4,4,4,4,100,,,,,,,,,,,,,,,,,,,,,,,,,,,,,,,,,,,,,,,,,,,,,,,,,,,,,,,,,,,,,,,,,,,,,,,,,,,,,,,,,,,,,,,,,,,,,,,,,,,,,,,,,,,,,,,,,,,,,,,,,,,,,,,,,,,,,,
1702360696,1702360696,51,0,4294.230957,4277.94873,4306.666504,4294.743652,4274.230957,4276.794922,4265.897461,4280.512695,4264.615234,4248.974121,4471.538574,4463.974121,4375.384766,4435.512695,0,3,58,,,,0,4,4,4,4,4,4,4,4,4,4,4,4,4,4,100,,,,,,,,,,,,,,,,,,,,,,,,,,,,,,,,,,,,,,,,,,,,,,,,,,,,,,,,,,,,,,,,,,,,,,,,,,,,,,,,,,,,,,,,,,,,,,,,,,,,,,,,,,,,,,,,,,,,,,,,,,,,,,,,,,,,,,
1702360696,1702360696,52,0,4301.153809,4288.077148,4313.974121,4302.436035,4280.384766,4279.743652,4273.077148,4282.820313,4277.307617,4264.102539,4481.666504,4476.153809,4382.563965,4444.615234,0,3,58,,,,0,4,4,4,4,4,4,4,4,4,4,4,4,4,4,100,,,,,,,,,,,,,,,,,13,0,0.689883,-0.215942,-0.681946,-0.111267,0.97424,-0.142596,-0.029789,-13.120143,-4.605105,88.9151,,,,,,,,,,,,,,,,,,,,,,,,,,,,,,,,,,,,,,,,,,,,,,,,,,,,,,,,,,,,,,,,,,,,,,,,,,,,,,,,,,,,,,,,,,,,,,,,,,,,,,,,,,
1702360696,1702360696,53,0,4307.820313,4295,4314.487305,4309.487305,4281.794922,4280.897461,4268.589844,4282.563965,4277.563965,4272.563965,4487.563965,4479.358887,4383.974121,4449.487305,0,3,58,,,,0,4,4,4,4,4,4,4,4,4,4,4,4,4,4,100,,,,,,,,,,,,,,,,,,,,,,,,,,,,,,,,,,,,,,,,,,,,,,,,,,,,,,,,,,,,,,,,,,,,,,,,,,,,,,,,,,,,,,,,,,,,,,,,,,,,,,,,,,,,,,,,,,,,,,,,,,,,,,,,,,,,,,
1702360696,1702360696,54,0,4302.436035,4290.384766,4309.230957,4303.974121,4276.794922,4276.922852,4262.436035,4278.846191,4265.256348,4258.846191,4477.820313,4472.692383,4375.384766,4442.179688,0,3,58,,,,0,4,4,4,4,4,4,4,4,4,4,4,4,4,4,100,,,,,,,,,,,,,,,,,,,,,,,,,,,,,,,,,,,,,,,,,,,,,,,,,,,,,,,,,,,,,,,,,,,,,,,,,,,,,,,,,,,,,,,,,,,,,,,,,,,,,,,,,,,,,,,,,,,,,,,,,,,,,,,,,,,,,,
1702360696,1702360696,55,0,4295.769043,4283.589844,4307.179688,4302.179688,4275.769043,4276.538574,4265.128418,4279.871582,4267.692383,4259.615234,4473.077148,4469.615234,4377.563965,4441.794922,0,3,58,,,,0,4,4,4,4,4,4,4,4,4,4,4,4,4,4,100,,,,,,,,,,,,,,,,,,,,,,,,,,,,,,,,,,,,,,,,,,,,,,,,,,,,,,,,,,,,,,,,,,,,,,,,,,,,,,,,,,,,,,,,,,,,,,,,,,,,,,,,,,,,,,,,,,,,,,,,,,,,,,,,,,,,,,
1702360696,1702360696,56,0,4297.307617,4281.282227,4307.94873,4307.692383,4270.897461,4278.461426,4264.743652,4279.871582,4275.641113,4268.205078,4475.769043,4465.641113,4381.153809,4443.846191,0,3,58,,,,0,4,4,4,4,4,4,4,4,4,4,4,4,4,4,100,,,,,,,,,,,,,,,,,14,0,0.689954,-0.215881,-0.681824,-0.111694,0.981565,-0.133805,-0.036626,-13.108129,-4.711261,89.02359,,,,,,,,,,,,,,,,,,,,,,,,,,,,,,,,,,,,,,,,,,,,,,,,,,,,,,,,,,,,,,,,,,,,,,,,,,,,,,,,,,,,,,,,,,,,,,,,,,,,,,,,,,
1702360696,1702360696,57,0,4297.563965,4279.871582,4308.077148,4307.436035,4265.769043,4277.820313,4261.666504,4276.666504,4270,4255.769043,4470.256348,4462.692383,4370.641113,4437.179688,0,3,58,,,,0,4,4,4,4,4,4,4,4,4,4,4,4,4,4,100,,,,,,,,,,,,,,,,,,,,,,,,,,,,,,,,,,,,,,,,,,,,,,,,,,,,,,,,,,,,,,,,,,,,,,,,,,,,,,,,,,,,,,,,,,,,,,,,,,,,,,,,,,,,,,,,,,,,,,,,,,,,,,,,,,,,,,
1702360696,1702360696,58,0,4295.897461,4282.05127,4303.974121,4303.589844,4266.538574,4278.077148,4262.05127,4272.820313,4261.153809,4245.128418,4465.128418,4462.436035,4365.384766,4432.563965,0,3,58,,,,0,4,4,4,4,4,4,4,4,4,4,4,4,4,4,100,,,,,,,,,,,,,,,,,,,,,,,,,,,,,,,,,,,,,,,,,,,,,,,,,,,,,,,,,,,,,,,,,,,,,,,,,,,,,,,,,,,,,,,,,,,,,,,,,,,,,,,,,,,,,,,,,,,,,,,,,,,,,,,,,,,,,,
1702360696,1702360696,59,0,4296.410156,4276.538574,4295.641113,4299.487305,4266.666504,4279.358887,4262.307617,4275.897461,4263.717773,4261.025879,4467.05127,4461.794922,4372.692383,4433.717773,0,3,58,,,,0,4,4,4,4,4,4,4,4,4,4,4,4,4,4,100,,,,,,,,,,,,,,,,,,,,,,,,,,,,,,,,,,,,,,,,,,,,,,,,,,,,,,,,,,,,,,,,,,,,,,,,,,,,,,,,,,,,,,,,,,,,,,,,,,,,,,,,,,,,,,,,,,,,,,,,,,,,,,,,,,,,,,
1702360696,1702360696,60,0,4292.820313,4262.05127,4293.205078,4294.358887,4263.589844,4278.077148,4263.717773,4280.897461,4270.384766,4270.256348,4466.794922,4461.666504,4370.512695,4430.897461,0,3,58,,,,0,4,4,4,4,4,4,4,4,4,4,4,4,4,4,100,,,,,,,,,,,,,,,,,15,0,0.689958,-0.215515,-0.681885,-0.112,0.98596,-0.141619,-0.02637,-13.063983,-4.523468,89.037895,,,,,,,,,,,,,,,,,,,,,,,,,,,,,,,,,,,,,,,,,,,,,,,,,,,,,,,,,,,,,,,,,,,,,,,,,,,,,,,,,,,,,,,,,,,,,,,,,,,,,,,,,,
1702360696,1702360696,61,0,4290.384766,4271.153809,4295.128418,4297.05127,4265,4274.102539,4261.538574,4273.333496,4262.563965,4248.205078,4463.333496,4455.384766,4358.589844,4426.282227,0,3,58,,,,0,4,4,4,4,4,4,4,4,4,4,4,4,4,4,100,,,,,,,,,,,,,,,,,,,,,,,,,,,,,,,,,,,,,,,,,,,,,,,,,,,,,,,,,,,,,,,,,3.614401,0.611836,0.460255,0.457893,0.151461,11.575446,1.857524,0.874953,0.484054,0.138709,3.086941,0.656342,0.35048,0.59391,0.174671,5.263866,0.986095,0.540911,0.493206,0.197696,0.982018,0.28656,0.216657,0.272433,0.1638,0.552271,0.155287,0.09176,0.25945,0.16061,0.534793,0.438389,0.295997,0.227788,0.143392,0.373035,0.869577,0.477582,0.328148,0.136305,1.207054,0.574717,0.409121,0.371384,0.180516,0.765032,0.30378,0.48813,0.517487,0.25683,1.444383,0.558088,0.464408,0.711951,0.281566,2.007322,0.727566,0.290355,0.577309,0.225928,3.265685,0.569554,0.446554,0.528532,0.177885,3.098661,0.483585,0.416638,0.49842,0.131371
1702360696,1702360696,62,0,4292.94873,4301.153809,4293.717773,4307.94873,4267.436035,4273.974121,4257.563965,4261.282227,4247.307617,4231.153809,4455.256348,4444.871582,4354.871582,4424.743652,0,3,58,,,,0,4,4,4,4,4,4,4,4,4,4,4,4,4,4,100,,,,,,,,,,,,,,,,,,,,,,,,,,,,,,,,,,,,,,,,,,,,,,,,,,,,,,,,,,,,,,,,,,,,,,,,,,,,,,,,,,,,,,,,,,,,,,,,,,,,,,,,,,,,,,,,,,,,,,,,,,,,,,,,,,,,,,
1702360696,1702360696,63,0,4297.307617,4322.563965,4294.358887,4316.794922,4268.077148,4278.077148,4258.589844,4259.230957,4244.102539,4235,4449.102539,4445.128418,4361.922852,4428.333496,0,3,58,,,,0,4,4,4,4,4,4,4,4,4,4,4,4,4,4,100,,,,,,,,,,,,,,,,,,,,,,,,,,,,,,,,,,,,,,,,,,,,,,,,,,,,,,,,,,,,,,,,,,,,,,,,,,,,,,,,,,,,,,,,,,,,,,,,,,,,,,,,,,,,,,,,,,,,,,,,,,,,,,,,,,,,,,
1702360696,1702360696,64,0,4304.230957,4334.358887,4296.794922,4322.820313,4266.922852,4277.436035,4256.025879,4258.461426,4247.820313,4234.743652,4448.589844,4448.717773,4366.410156,4435.128418,5419,3,58,,,,0,4,4,4,4,4,4,4,4,4,4,4,4,4,4,100,,,,,,,,,,,,,,,,,16,0,0.690054,-0.215149,-0.681824,-0.112488,0.976682,-0.144549,-0.030765,-13.040917,-4.454455,89.067444,,,,,,,,,,,,,,,,,,,,,,,,,,,,,,,,,,,,,,,,,,,,,,,,,,,,,,,,,,,,,,,,,,,,,,,,,,,,,,,,,,,,,,,,,,,,,,,,,,,,,,,,,,
1702360696,1702360696,65,0,4311.922852,4349.871582,4295.256348,4327.307617,4268.461426,4273.461426,4247.94873,4250.384766,4241.153809,4228.589844,4448.461426,4446.538574,4360.897461,4442.94873,5490,3,58,,,,0,4,4,4,4,4,4,4,4,4,4,4,4,4,4,100,,,,,,,,,,,,,,,,,,,,,,,,,,,,,,,,,,,,,,,,,,,,,,,,,,,,,,,,,,,,,,,,,,,,,,,,,,,,,,,,,,,,,,,,,,,,,,,,,,,,,,,,,,,,,,,,,,,,,,,,,,,,,,,,,,,,,,
1702360696,1702360696,66,0,4314.358887,4356.282227,4295.769043,4328.461426,4273.461426,4271.282227,4246.538574,4246.282227,4233.717773,4231.153809,4446.794922,4446.666504,4356.794922,4446.538574,5354,3,58,,,,0,4,4,4,4,4,4,4,4,4,4,4,4,4,4,100,,,,,,,,,,,,,,,,,,,,,,,,,,,,,,,,,,,,,,,,,,,,,,,,,,,,,,,,,,,,,,,,,,,,,,,,,,,,,,,,,,,,,,,,,,,,,,,,,,,,,,,,,,,,,,,,,,,,,,,,,,,,,,,,,,,,,,
1702360696,1702360696,67,0,4310,4348.974121,4296.410156,4325.641113,4270.256348,4270.256348,4249.358887,4248.717773,4234.615234,4235.641113,4443.974121,4445.512695,4357.436035,4439.230957,5359,3,58,,,,0,4,4,4,4,4,4,4,4,4,4,4,4,4,4,100,,,,,,,,,,,,,,,,,,,,,,,,,,,,,,,,,,,,,,,,,,,,,,,,,,,,,,,,,,,,,,,,,,,,,,,,,,,,,,,,,,,,,,,,,,,,,,,,,,,,,,,,,,,,,,,,,,,,,,,,,,,,,,,,,,,,,,
1702360696,1702360696,68,0,4305.384766,4342.436035,4293.589844,4323.205078,4263.846191,4270,4247.94873,4245.769043,4233.333496,4228.333496,4441.025879,4440.641113,4355.128418,4428.846191,5323,3,58,,,,0,4,4,4,4,4,4,4,4,4,4,4,4,4,4,100,,,,,,,,,,,,,,,,,17,0,0.690089,-0.214844,-0.681824,-0.112854,0.966427,-0.135759,-0.026859,-12.953493,-4.325676,89.110695,,,,,,,,,,,,,,,,,,,,,,,,,,,,,,,,,,,,,,,,,,,,,,,,,,,,,,,,,,,,,,,,,,,,,,,,,,,,,,,,,,,,,,,,,,,,,,,,,,,,,,,,,,
1702360696,1702360696,69,0,4306.282227,4343.589844,4300.897461,4324.871582,4265.384766,4273.846191,4248.333496,4245.641113,4237.307617,4228.974121,4441.538574,4443.077148,4352.820313,4428.333496,5202,3,58,,,,0,4,4,4,4,4,4,4,4,4,4,4,4,4,4,100,,,,,,,,,,,,,,,,,,,,,,,,,,,,,,,,,,,,,,,,,,,,,,,,,,,,,,,,,,,,,,,,,,,,,,,,,,,,,,,,,,,,,,,,,,,,,,,,,,,,,,,,,,,,,,,,,,,,,,,,,,,,,,,,,,,,,,
1702360696,1702360696,70,0,4311.282227,4345.897461,4313.974121,4328.846191,4268.333496,4280,4251.282227,4254.871582,4247.94873,4244.102539,4446.794922,4450.897461,4358.205078,4434.871582,5108,3,58,,,,0,4,4,4,4,4,4,4,4,4,4,4,4,4,4,100,,,,,,,,,,,,,,,,,,,,,,,,,,,,,,,,,,,,,,,,,,,,,,,,,,,,,,,,,,,,,,,,,,,,,,,,,,,,,,,,,,,,,,,,,,,,,,,,,,,,,,,,,,,,,,,,,,,,,,,,,,,,,,,,,,,,,,
1702360697,1702360697,71,0,4307.179688,4333.974121,4306.025879,4327.94873,4263.846191,4278.333496,4250.641113,4258.974121,4248.461426,4246.922852,4445.897461,4449.487305,4358.333496,4432.563965,5150,3,58,,,,0,4,4,4,4,4,4,4,4,4,4,4,4,4,4,100,,,,,,,,,,,,,,,,,,,,,,,,,,,,,,,,,,,,,,,,,,,,,,,,,,,,,,,,,,,,,,,,,,,,,,,,,,,,,,,,,,,,,,,,,,,,,,,,,,,,,,,,,,,,,,,,,,,,,,,,,,,,,,,,,,,,,,
1702360697,1702360697,72,0,4298.846191,4322.820313,4291.538574,4322.692383,4259.230957,4269.358887,4247.563965,4256.025879,4243.589844,4240.256348,4443.077148,4444.230957,4347.05127,4424.871582,5287,3,58,,,,0,4,4,4,4,4,4,4,4,4,4,4,4,4,4,100,,,,,,,,,,,,,,,,,18,0,0.690115,-0.2146,-0.681824,-0.113159,0.990355,-0.133317,-0.014162,-12.82481,-4.309775,89.249626,,,,,,,,,,,,,,,,,,,,,,,,,,,,,,,,,,,,,,,,,,,,,,,,,,,,,,,,,,,,,,,,,,,,,,,,,,,,,,,,,,,,,,,,,,,,,,,,,,,,,,,,,,
1702360697,1702360697,73,0,4300.256348,4327.436035,4297.179688,4325.641113,4261.922852,4270.641113,4249.615234,4259.487305,4245.641113,4244.230957,4448.717773,4446.666504,4343.077148,4428.205078,5340,3,58,,,,0,4,4,4,4,4,4,4,4,4,4,4,4,4,4,100,,,,,,,,,,,,,,,,,,,,,,,,,,,,,,,,,,,,,,,,,,,,,,,,,,,,,,,,,,,,,,,,,,,,,,,,,,,,,,,,,,,,,,,,,,,,,,,,,,,,,,,,,,,,,,,,,,,,,,,,,,,,,,,,,,,,,,
1702360697,1702360697,74,0,4301.025879,4328.333496,4302.436035,4326.282227,4262.820313,4281.025879,4256.922852,4265.256348,4250.512695,4252.05127,4451.666504,4448.333496,4352.820313,4426.666504,5856,3,58,,,,0,4,4,4,4,4,4,4,4,4,4,4,4,4,4,100,,,,,,,,,,,,,,,,,,,,,,,,,,,,,,,,,,,,,,,,,,,,,,,,,,,,,,,,,,,,,,,,,,,,,,,,,,,,,,,,,,,,,,,,,,,,,,,,,,,,,,,,,,,,,,,,,,,,,,,,,,,,,,,,,,,,,,
1702360697,1702360697,75,0,4294.102539,4320.897461,4294.871582,4316.153809,4263.461426,4280.384766,4260.128418,4263.589844,4249.871582,4251.666504,4446.666504,4444.871582,4357.563965,4415.897461,6235,3,58,,,,0,4,4,4,4,4,4,4,4,4,4,4,4,4,4,100,,,,,,,,,,,,,,,,,,,,,,,,,,,,,,,,,,,,,,,,,,,,,,,,,,,,,,,,,,,,,,,,,,,,,,,,,,,,,,,,,,,,,,,,,,,,,,,,,,,,,,,,,,,,,,,,,,,,,,,,,,,,,,,,,,,,,,
1702360697,1702360697,76,0,4291.538574,4321.666504,4292.820313,4313.589844,4260.769043,4274.102539,4259.102539,4261.922852,4248.205078,4245.384766,4444.102539,4443.846191,4351.153809,4417.307617,6761,3,58,,,,0,4,4,4,4,4,4,4,4,4,4,4,4,4,4,100,,,,,,,,,,,,,,,,,19,0,0.690151,-0.214355,-0.681824,-0.113403,0.97424,-0.141619,-0.01465,-12.908996,-4.428798,89.224663,,,,,,,,,,,,,,,,,,,,,,,,,,,,,,,,,,,,,,,,,,,,,,,,,,,,,,,,,,,,,,,,,,,,,,,,,,,,,,,,,,,,,,,,,,,,,,,,,,,,,,,,,,
1702360697,1702360697,77,0,4295.384766,4325.256348,4296.153809,4319.230957,4252.692383,4275.897461,4254.615234,4261.922852,4247.436035,4246.666504,4450.384766,4447.94873,4348.717773,4425.641113,7002,3,58,,,,0,4,4,4,4,4,4,4,4,4,4,4,4,4,4,100,,,,,,,,,,,,,,,,,,,,,,,,,,,,,,,,,,,,,,,,,,,,,,,,,,,,,,,,,,,,,,,,,4.578473,0.874419,0.523405,0.444964,0.144321,16.749771,2.471993,0.987541,0.514199,0.149495,3.181936,0.853373,0.370258,0.58442,0.176077,6.718852,1.058317,0.600239,0.501567,0.186632,0.872878,0.365855,0.220153,0.281158,0.184758,0.573025,0.169581,0.101627,0.279768,0.163759,0.581092,0.478888,0.306468,0.220819,0.136684,0.401799,1.038027,0.493858,0.31036,0.141331,1.361231,0.6903,0.375654,0.362101,0.187271,0.731157,0.321261,0.406361,0.557441,0.250116,2.392617,0.817227,0.628919,0.67672,0.262192,2.259077,1.007329,0.413076,0.586869,0.219293,6.420559,0.977405,0.716354,0.560353,0.190935,4.13812,0.686768,0.541783,0.49619,0.139899
1702360697,1702360697,78,0,4296.153809,4316.025879,4294.871582,4316.025879,4247.436035,4276.538574,4249.487305,4262.820313,4247.436035,4256.282227,4452.05127,4450,4351.025879,4422.692383,5856,3,58,,,,0,4,4,4,4,4,4,4,4,4,4,4,4,4,4,100,,,,,,,,,,,,,,,,,,,,,,,,,,,,,,,,,,,,,,,,,,,,,,,,,,,,,,,,,,,,,,,,,,,,,,,,,,,,,,,,,,,,,,,,,,,,,,,,,,,,,,,,,,,,,,,,,,,,,,,,,,,,,,,,,,,,,,
1702360697,1702360697,79,0,4294.743652,4307.692383,4293.974121,4308.589844,4247.692383,4272.820313,4253.205078,4271.666504,4255,4258.589844,4445.897461,4449.102539,4350.769043,4417.692383,6235,3,58,,,,0,4,4,4,4,4,4,4,4,4,4,4,4,4,4,100,,,,,,,,,,,,,,,,,,,,,,,,,,,,,,,,,,,,,,,,,,,,,,,,,,,,,,,,,,,,,,,,,,,,,,,,,,,,,,,,,,,,,,,,,,,,,,,,,,,,,,,,,,,,,,,,,,,,,,,,,,,,,,,,,,,,,,
1702360697,1702360697,80,0,4293.717773,4310.128418,4295.769043,4312.692383,4249.230957,4271.794922,4261.922852,4280.384766,4264.102539,4249.102539,4445.128418,4449.358887,4347.179688,4418.333496,6761,3,58,,,,0,4,4,4,4,4,4,4,4,4,4,4,4,4,4,100,,,,,,,,,,,,,,,,,20,0,0.690149,-0.214294,-0.681824,-0.113525,0.963985,-0.134294,-0.02344,-12.918097,-4.519251,89.218864,,,,,,,,,,,,,,,,,,,,,,,,,,,,,,,,,,,,,,,,,,,,,,,,,,,,,,,,,,,,,,,,,,,,,,,,,,,,,,,,,,,,,,,,,,,,,,,,,,,,,,,,,,
1702360697,1702360697,81,0,4292.307617,4311.025879,4298.077148,4322.307617,4251.666504,4274.743652,4262.94873,4283.333496,4264.871582,4246.282227,4445.769043,4447.692383,4345.384766,4416.153809,7002,3,58,,,,0,4,4,4,4,4,4,4,4,4,4,4,4,4,4,100,,,,,,,,,,,,,,,,,,,,,,,,,,,,,,,,,,,,,,,,,,,,,,,,,,,,,,,,,,,,,,,,,,,,,,,,,,,,,,,,,,,,,,,,,,,,,,,,,,,,,,,,,,,,,,,,,,,,,,,,,,,,,,,,,,,,,,
1702360697,1702360697,82,0,4295.256348,4311.282227,4302.307617,4325.641113,4257.436035,4280.384766,4263.205078,4281.410156,4259.358887,4254.102539,4446.410156,4447.563965,4350.128418,4414.487305,5856,3,58,,,,0,4,4,4,4,4,4,4,4,4,4,4,4,4,4,100,,,,,,,,,,,,,,,,,,,,,,,,,,,,,,,,,,,,,,,,,,,,,,,,,,,,,,,,,,,,,,,,,,,,,,,,,,,,,,,,,,,,,,,,,,,,,,,,,,,,,,,,,,,,,,,,,,,,,,,,,,,,,,,,,,,,,,
1702360697,1702360697,83,0,4300,4316.666504,4308.205078,4322.563965,4263.077148,4280,4267.436035,4273.717773,4259.615234,4260.769043,4450.769043,4453.333496,4356.794922,4416.410156,6235,3,58,,,,0,4,4,4,4,4,4,4,4,4,4,4,4,4,4,100,,,,,,,,,,,,,,,,,,,,,,,,,,,,,,,,,,,,,,,,,,,,,,,,,,,,,,,,,,,,,,,,,,,,,,,,,,,,,,,,,,,,,,,,,,,,,,,,,,,,,,,,,,,,,,,,,,,,,,,,,,,,,,,,,,,,,,
1702360697,1702360697,84,0,4303.461426,4319.487305,4311.410156,4317.94873,4260.384766,4275,4263.846191,4264.358887,4263.205078,4268.974121,4454.743652,4457.94873,4362.563965,4419.743652,6761,3,58,,,,0,4,4,4,4,4,4,4,4,4,4,4,4,4,4,100,,,,,,,,,,,,,,,,,21,0,0.690185,-0.21405,-0.681824,-0.11377,0.979612,-0.12648,-0.021975,-12.90962,-4.617326,89.313644,,,,,,,,,,,,,,,,,,,,,,,,,,,,,,,,,,,,,,,,,,,,,,,,,,,,,,,,,,,,,,,,,,,,,,,,,,,,,,,,,,,,,,,,,,,,,,,,,,,,,,,,,,
1702360697,1702360697,85,0,4307.436035,4319.615234,4311.025879,4323.077148,4254.871582,4276.025879,4260,4262.05127,4262.692383,4278.974121,4456.282227,4457.436035,4370.512695,4426.282227,7002,3,58,,,,0,4,4,4,4,4,4,4,4,4,4,4,4,4,4,100,,,,,,,,,,,,,,,,,,,,,,,,,,,,,,,,,,,,,,,,,,,,,,,,,,,,,,,,,,,,,,,,,,,,,,,,,,,,,,,,,,,,,,,,,,,,,,,,,,,,,,,,,,,,,,,,,,,,,,,,,,,,,,,,,,,,,,
1702360697,1702360697,86,0,4311.922852,4324.358887,4311.025879,4333.077148,4258.205078,4279.743652,4264.102539,4268.077148,4264.743652,4282.179688,4461.153809,4463.333496,4372.436035,4430.769043,5856,3,58,,,,0,4,4,4,4,4,4,4,4,4,4,4,4,4,4,100,,,,,,,,,,,,,,,,,,,,,,,,,,,,,,,,,,,,,,,,,,,,,,,,,,,,,,,,,,,,,,,,,,,,,,,,,,,,,,,,,,,,,,,,,,,,,,,,,,,,,,,,,,,,,,,,,,,,,,,,,,,,,,,,,,,,,,
1702360697,1702360697,87,0,4311.794922,4326.922852,4311.538574,4334.743652,4265.897461,4279.487305,4264.102539,4272.307617,4266.666504,4278.846191,4463.589844,4468.717773,4369.871582,4427.307617,6235,3,58,,,,0,4,4,4,4,4,4,4,4,4,4,4,4,4,4,100,,,,,,,,,,,,,,,,,,,,,,,,,,,,,,,,,,,,,,,,,,,,,,,,,,,,,,,,,,,,,,,,,,,,,,,,,,,,,,,,,,,,,,,,,,,,,,,,,,,,,,,,,,,,,,,,,,,,,,,,,,,,,,,,,,,,,,
1702360697,1702360697,88,0,4308.589844,4319.615234,4309.487305,4330.512695,4264.358887,4278.846191,4260.897461,4274.358887,4270.256348,4279.102539,4460,4465.128418,4377.820313,4422.436035,6761,3,58,,,,0,4,4,4,4,4,4,4,4,4,4,4,4,4,4,100,,,,,,,,,,,,,,,,,22,0,0.690089,-0.213745,-0.682007,-0.113831,0.964962,-0.128922,-0.019534,-12.868658,-4.37226,89.232277,,,,,,,,,,,,,,,,,,,,,,,,,,,,,,,,,,,,,,,,,,,,,,,,,,,,,,,,,,,,,,,,,,,,,,,,,,,,,,,,,,,,,,,,,,,,,,,,,,,,,,,,,,
1702360697,1702360697,89,0,4303.461426,4313.205078,4304.487305,4326.025879,4258.717773,4278.205078,4265.641113,4278.077148,4273.333496,4283.333496,4456.153809,4459.615234,4381.794922,4420.641113,7002,3,58,,,,0,4,4,4,4,4,4,4,4,4,4,4,4,4,4,100,,,,,,,,,,,,,,,,,,,,,,,,,,,,,,,,,,,,,,,,,,,,,,,,,,,,,,,,,,,,,,,,,,,,,,,,,,,,,,,,,,,,,,,,,,,,,,,,,,,,,,,,,,,,,,,,,,,,,,,,,,,,,,,,,,,,,,
1702360697,1702360697,90,0,4295.897461,4309.871582,4296.794922,4319.230957,4261.538574,4276.794922,4267.820313,4280.128418,4270.384766,4277.05127,4449.743652,4452.436035,4370,4415.641113,5856,3,58,,,,0,4,4,4,4,4,4,4,4,4,4,4,4,4,4,100,,,,,,,,,,,,,,,,,,,,,,,,,,,,,,,,,,,,,,,,,,,,,,,,,,,,,,,,,,,,,,,,,,,,,,,,,,,,,,,,,,,,,,,,,,,,,,,,,,,,,,,,,,,,,,,,,,,,,,,,,,,,,,,,,,,,,,
1702360697,1702360697,91,0,4290.256348,4303.077148,4288.589844,4309.743652,4258.974121,4277.692383,4263.974121,4277.436035,4267.563965,4272.179688,4443.205078,4443.717773,4363.717773,4406.538574,6235,3,58,,,,0,4,4,4,4,4,4,4,4,4,4,4,4,4,4,100,,,,,,,,,,,,,,,,,,,,,,,,,,,,,,,,,,,,,,,,,,,,,,,,,,,,,,,,,,,,,,,,,,,,,,,,,,,,,,,,,,,,,,,,,,,,,,,,,,,,,,,,,,,,,,,,,,,,,,,,,,,,,,,,,,,,,,
1702360697,1702360697,92,0,4284.871582,4297.436035,4286.538574,4307.179688,4250.384766,4280.769043,4266.153809,4275.897461,4272.179688,4278.974121,4442.307617,4441.794922,4365,4400.769043,6761,3,58,,,,0,4,4,4,4,4,4,4,4,4,4,4,4,4,4,100,,,,,,,,,,,,,,,,,23,0,0.69003,-0.213318,-0.68219,-0.113892,0.978635,-0.146014,-0.028324,-12.865126,-4.401701,89.242386,,,,,,,,,,,,,,,,,,,,,,,,,,,,,,,,,,,,,,,,,,,,,,,,,,,,,,,,,,,,,,,,,,,,,,,,,,,,,,,,,,,,,,,,,,,,,,,,,,,,,,,,,,
1702360697,1702360697,93,0,4282.05127,4298.589844,4291.922852,4312.05127,4253.846191,4283.205078,4269.358887,4277.436035,4280.897461,4278.205078,4444.871582,4444.102539,4363.077148,4401.153809,7002,3,58,,,,0,4,4,4,4,4,4,4,4,4,4,4,4,4,4,100,,,,,,,,,,,,,,,,,,,,,,,,,,,,,,,,,,,,,,,,,,,,,,,,,,,,,,,,,,,,,,,,,5.954693,1.204533,0.589036,0.412824,0.135427,22.995323,3.181224,1.075118,0.527305,0.158818,3.258292,1.046087,0.398581,0.543284,0.178139,8.283408,1.130179,0.653638,0.504057,0.173708,0.79075,0.44496,0.227267,0.288664,0.197637,0.546999,0.182192,0.117392,0.296787,0.158471,0.595627,0.525617,0.300835,0.221268,0.124649,0.479493,1.171202,0.510049,0.28212,0.139912,1.534218,0.781265,0.364798,0.341275,0.191437,0.76344,0.346514,0.377472,0.575531,0.24613,3.904604,1.09185,0.838204,0.617475,0.234037,2.596448,1.280867,0.541204,0.567583,0.204565,10.935811,1.480219,1.039848,0.575125,0.203363,5.774939,0.954599,0.705578,0.487622,0.146901
1702360697,1702360697,94,0,4285.769043,4297.436035,4293.717773,4312.179688,4262.94873,4281.282227,4265.769043,4273.333496,4278.717773,4265.128418,4443.974121,4443.333496,4368.974121,4400.512695,5856,3,58,,,,0,4,4,4,4,4,4,4,4,4,4,4,4,4,4,100,,,,,,,,,,,,,,,,,,,,,,,,,,,,,,,,,,,,,,,,,,,,,,,,,,,,,,,,,,,,,,,,,,,,,,,,,,,,,,,,,,,,,,,,,,,,,,,,,,,,,,,,,,,,,,,,,,,,,,,,,,,,,,,,,,,,,,
1702360697,1702360697,95,0,4292.05127,4294.230957,4289.743652,4310.769043,4264.487305,4277.307617,4260.512695,4263.205078,4267.307617,4264.102539,4440.641113,4441.922852,4381.666504,4402.307617,6235,3,58,,,,0,4,4,4,4,4,4,4,4,4,4,4,4,4,4,100,,,,,,,,,,,,,,,,,,,,,,,,,,,,,,,,,,,,,,,,,,,,,,,,,,,,,,,,,,,,,,,,,,,,,,,,,,,,,,,,,,,,,,,,,,,,,,,,,,,,,,,,,,,,,,,,,,,,,,,,,,,,,,,,,,,,,,
1702360697,1702360697,96,0,4294.102539,4298.589844,4289.615234,4311.922852,4267.179688,4277.692383,4260.769043,4262.563965,4265.256348,4273.974121,4442.563965,4442.307617,4383.717773,4410.769043,6761,3,58,,,,0,4,4,4,4,4,4,4,4,4,4,4,4,4,4,100,,,,,,,,,,,,,,,,,24,0,0.690203,-0.212952,-0.682129,-0.113892,0.9801,-0.137712,-0.021487,-12.945279,-4.511531,89.218147,,,,,,,,,,,,,,,,,,,,,,,,,,,,,,,,,,,,,,,,,,,,,,,,,,,,,,,,,,,,,,,,,,,,,,,,,,,,,,,,,,,,,,,,,,,,,,,,,,,,,,,,,,
1702360697,1702360697,97,0,4290.128418,4292.692383,4295.128418,4307.94873,4280.641113,4280.769043,4267.94873,4276.538574,4276.794922,4277.563965,4445.384766,4444.615234,4378.077148,4412.179688,7002,3,58,,,,0,4,4,4,4,4,4,4,4,4,4,4,4,4,4,100,,,,,,,,,,,,,,,,,,,,,,,,,,,,,,,,,,,,,,,,,,,,,,,,,,,,,,,,,,,,,,,,,,,,,,,,,,,,,,,,,,,,,,,,,,,,,,,,,,,,,,,,,,,,,,,,,,,,,,,,,,,,,,,,,,,,,,
1702360697,1702360697,98,0,4290,4286.666504,4295.897461,4302.692383,4289.102539,4280.512695,4270,4278.589844,4276.153809,4278.974121,4446.025879,4445.769043,4379.743652,4405.897461,5856,3,58,,,,0,4,4,4,4,4,4,4,4,4,4,4,4,4,4,100,,,,,,,,,,,,,,,,,,,,,,,,,,,,,,,,,,,,,,,,,,,,,,,,,,,,,,,,,,,,,,,,,,,,,,,,,,,,,,,,,,,,,,,,,,,,,,,,,,,,,,,,,,,,,,,,,,,,,,,,,,,,,,,,,,,,,,
1702360697,1702360697,99,0,4301.025879,4306.922852,4297.307617,4310.384766,4291.025879,4280.128418,4266.025879,4264.743652,4261.794922,4278.205078,4451.666504,4445.256348,4394.487305,4414.230957,6235,3,58,,,,0,4,4,4,4,4,4,4,4,4,4,4,4,4,4,100,,,,,,,,,,,,,,,,,,,,,,,,,,,,,,,,,,,,,,,,,,,,,,,,,,,,,,,,,,,,,,,,,,,,,,,,,,,,,,,,,,,,,,,,,,,,,,,,,,,,,,,,,,,,,,,,,,,,,,,,,,,,,,,,,,,,,,
1702360697,1702360697,100,0,4313.461426,4330.897461,4307.820313,4325.641113,4298.077148,4282.179688,4265.384766,4262.179688,4261.410156,4275,4460.256348,4451.794922,4409.743652,4437.563965,6761,3,58,,,,0,4,4,4,4,4,4,4,4,4,4,4,4,4,4,100,,,,,,,,,,,,,,,,,25,0,0.690063,-0.212524,-0.682434,-0.113708,0.968868,-0.139177,-0.021487,-12.900752,-4.477045,89.229668,,,,,,,,,,,,,,,,,,,,,,,,,,,,,,,,,,,,,,,,,,,,,,,,,,,,,,,,,,,,,,,,,,,,,,,,,,,,,,,,,,,,,,,,,,,,,,,,,,,,,,,,,,
1702360697,1702360697,101,0,4316.922852,4334.743652,4313.846191,4327.436035,4306.794922,4281.282227,4266.666504,4266.538574,4263.461426,4274.615234,4466.410156,4460.897461,4412.563965,4447.692383,7002,3,58,,,,0,4,4,4,4,4,4,4,4,4,4,4,4,4,4,100,,,,,,,,,,,,,,,,,,,,,,,,,,,,,,,,,,,,,,,,,,,,,,,,,,,,,,,,,,,,,,,,,,,,,,,,,,,,,,,,,,,,,,,,,,,,,,,,,,,,,,,,,,,,,,,,,,,,,,,,,,,,,,,,,,,,,,
1702360697,1702360697,102,0,4324.871582,4338.974121,4315,4325.128418,4312.05127,4279.871582,4267.692383,4267.436035,4259.487305,4279.230957,4476.153809,4465.256348,4416.153809,4448.846191,5856,3,58,,,,0,4,4,4,4,4,4,4,4,4,4,4,4,4,4,100,,,,,,,,,,,,,,,,,,,,,,,,,,,,,,,,,,,,,,,,,,,,,,,,,,,,,,,,,,,,,,,,,,,,,,,,,,,,,,,,,,,,,,,,,,,,,,,,,,,,,,,,,,,,,,,,,,,,,,,,,,,,,,,,,,,,,,
1702360697,1702360697,103,0,4331.025879,4343.205078,4318.589844,4325.897461,4313.333496,4282.436035,4271.025879,4272.563965,4260.897461,4279.871582,4477.563965,4467.563965,4417.563965,4453.589844,6235,3,58,,,,0,4,4,4,4,4,4,4,4,4,4,4,4,4,4,100,,,,,,,,,,,,,,,,,,,,,,,,,,,,,,,,,,,,,,,,,,,,,,,,,,,,,,,,,,,,,,,,,,,,,,,,,,,,,,,,,,,,,,,,,,,,,,,,,,,,,,,,,,,,,,,,,,,,,,,,,,,,,,,,,,,,,,
1702360697,1702360697,104,0,4318.974121,4332.94873,4314.230957,4319.487305,4314.102539,4282.307617,4269.487305,4277.94873,4261.794922,4271.282227,4457.820313,4463.717773,4399.871582,4446.922852,6761,3,58,,,,0,4,4,4,4,4,4,4,4,4,4,4,4,4,4,100,,,,,,,,,,,,,,,,,26,0,0.690145,-0.212097,-0.682495,-0.113647,0.972287,-0.133317,-0.021975,-12.910676,-4.396007,89.340034,,,,,,,,,,,,,,,,,,,,,,,,,,,,,,,,,,,,,,,,,,,,,,,,,,,,,,,,,,,,,,,,,,,,,,,,,,,,,,,,,,,,,,,,,,,,,,,,,,,,,,,,,,
1702360697,1702360697,105,0,4308.205078,4322.692383,4306.025879,4307.05127,4312.563965,4278.333496,4263.717773,4273.974121,4257.436035,4269.230957,4442.179688,4452.436035,4388.717773,4432.820313,7002,3,58,,,,0,4,4,4,4,4,4,4,4,4,4,4,4,4,4,100,,,,,,,,,,,,,,,,,,,,,,,,,,,,,,,,,,,,,,,,,,,,,,,,,,,,,,,,,,,,,,,,,,,,,,,,,,,,,,,,,,,,,,,,,,,,,,,,,,,,,,,,,,,,,,,,,,,,,,,,,,,,,,,,,,,,,,
1702360697,1702360697,106,0,4310,4316.410156,4306.666504,4302.820313,4309.230957,4279.102539,4264.743652,4273.974121,4257.307617,4274.615234,4446.282227,4450.512695,4399.102539,4429.743652,5856,3,58,,,,0,4,4,4,4,4,4,4,4,4,4,4,4,4,4,100,,,,,,,,,,,,,,,,,,,,,,,,,,,,,,,,,,,,,,,,,,,,,,,,,,,,,,,,,,,,,,,,,,,,,,,,,,,,,,,,,,,,,,,,,,,,,,,,,,,,,,,,,,,,,,,,,,,,,,,,,,,,,,,,,,,,,,
1702360697,1702360697,107,0,4307.820313,4310.641113,4308.974121,4303.461426,4310.128418,4281.153809,4266.794922,4277.179688,4260.256348,4272.820313,4449.230957,4453.333496,4404.871582,4433.205078,6235,3,58,,,,0,4,4,4,4,4,4,4,4,4,4,4,4,4,4,100,,,,,,,,,,,,,,,,,,,,,,,,,,,,,,,,,,,,,,,,,,,,,,,,,,,,,,,,,,,,,,,,,,,,,,,,,,,,,,,,,,,,,,,,,,,,,,,,,,,,,,,,,,,,,,,,,,,,,,,,,,,,,,,,,,,,,,
1702360697,1702360697,108,0,4299.487305,4307.05127,4306.025879,4297.820313,4311.666504,4277.820313,4266.282227,4274.743652,4257.692383,4265,4445.128418,4447.563965,4396.025879,4429.102539,6761,3,58,,,,0,4,4,4,4,4,4,4,4,4,4,4,4,4,4,100,,,,,,,,,,,,,,,,,27,0,0.690073,-0.211609,-0.682739,-0.113525,0.9801,-0.143572,-0.02051,-12.819609,-4.223073,89.30603,,,,,,,,,,,,,,,,,,,,,,,,,,,,,,,,,,,,,,,,,,,,,,,,,,,,,,,,,,,,,,,,,,,,,,,,,,,,,,,,,,,,,,,,,,,,,,,,,,,,,,,,,,
1702360697,1702360697,109,0,4301.025879,4306.153809,4306.922852,4298.717773,4310.769043,4275.384766,4265.897461,4274.871582,4253.717773,4261.282227,4447.179688,4449.487305,4392.563965,4427.820313,7002,3,58,,,,0,4,4,4,4,4,4,4,4,4,4,4,4,4,4,100,1,100,4,4,4,4,4,4,4,4,4,4,4,4,4,4,,,,,,,,,,,,,,,,,,,,,,,,,,,,,,,,,,,,,,,,,,,,,,,,,7.534391,1.518877,0.636637,0.370191,0.127927,28.936604,3.871742,1.145165,0.52829,0.168825,3.3638,1.182414,0.418523,0.478383,0.181917,9.717847,1.178371,0.684053,0.504939,0.164853,0.753247,0.508635,0.230559,0.292982,0.199941,0.4822,0.185695,0.13523,0.306717,0.146826,0.580387,0.559584,0.28231,0.224002,0.111246,0.629446,1.220718,0.518268,0.248343,0.132097,1.752869,0.819099,0.366993,0.309161,0.192191,0.877304,0.381786,0.398563,0.57569,0.252925,5.762134,1.305886,1.037204,0.545609,0.203106,3.011238,1.466692,0.64341,0.519038,0.185036,16.059126,1.942966,1.333468,0.567905,0.215009,7.722114,1.217434,0.866012,0.470216,0.152927
1702360697,1702360697,110,0,4305.641113,4308.333496,4312.692383,4306.025879,4314.358887,4278.461426,4267.05127,4278.205078,4256.666504,4263.717773,4452.05127,4460,4402.563965,4433.846191,5856,3,58,,,,0,4,4,4,4,4,4,4,4,4,4,4,4,4,4,100,,,,,,,,,,,,,,,,,,,,,,,,,,,,,,,,,,,,,,,,,,,,,,,,,,,,,,,,,,,,,,,,,,,,,,,,,,,,,,,,,,,,,,,,,,,,,,,,,,,,,,,,,,,,,,,,,,,,,,,,,,,,,,,,,,,,,,
1702360697,1702360697,111,0,4300.512695,4311.538574,4313.461426,4300.769043,4323.974121,4280.256348,4273.333496,4280.384766,4264.487305,4272.692383,4453.589844,4461.410156,4406.153809,4434.871582,6235,3,58,,,,0,4,4,4,4,4,4,4,4,4,4,4,4,4,4,100,,,,,,,,,,,,,,,,,,,,,,,,,,,,,,,,,,,,,,,,,,,,,,,,,,,,,,,,,,,,,,,,,,,,,,,,,,,,,,,,,,,,,,,,,,,,,,,,,,,,,,,,,,,,,,,,,,,,,,,,,,,,,,,,,,,,,,
1702360697,1702360697,112,0,4294.358887,4309.615234,4311.666504,4292.94873,4326.922852,4278.461426,4278.077148,4281.153809,4266.025879,4280.897461,4457.436035,4460.128418,4396.153809,4429.743652,6761,3,58,,,,0,4,4,4,4,4,4,4,4,4,4,4,4,4,4,100,,,,,,,,,,,,,,,,,28,0,0.690145,-0.211243,-0.6828,-0.113403,0.979123,-0.140642,-0.019045,-12.787648,-4.384099,89.14209,,,,,,,,,,,,,,,,,,,,,,,,,,,,,,,,,,,,,,,,,,,,,,,,,,,,,,,,,,,,,,,,,,,,,,,,,,,,,,,,,,,,,,,,,,,,,,,,,,,,,,,,,,
1702360697,1702360697,113,0,4291.922852,4301.025879,4309.358887,4294.871582,4321.153809,4280.512695,4277.692383,4281.922852,4261.153809,4277.307617,4459.615234,4460,4400,4426.153809,7002,3,58,,,,0,4,4,4,4,4,4,4,4,4,4,4,4,4,4,100,,,,,,,,,,,,,,,,,,,,,,,,,,,,,,,,,,,,,,,,,,,,,,,,,,,,,,,,,,,,,,,,,,,,,,,,,,,,,,,,,,,,,,,,,,,,,,,,,,,,,,,,,,,,,,,,,,,,,,,,,,,,,,,,,,,,,,
1702360697,1702360697,114,0,4282.05127,4292.436035,4301.794922,4290.128418,4319.615234,4281.794922,4274.487305,4281.922852,4261.025879,4273.974121,4451.410156,4451.410156,4412.307617,4420.897461,5856,3,58,,,,0,4,4,4,4,4,4,4,4,4,4,4,4,4,4,100,,,,,,,,,,,,,,,,,,,,,,,,,,,,,,,,,,,,,,,,,,,,,,,,,,,,,,,,,,,,,,,,,,,,,,,,,,,,,,,,,,,,,,,,,,,,,,,,,,,,,,,,,,,,,,,,,,,,,,,,,,,,,,,,,,,,,,
1702360697,1702360697,115,0,4275,4288.717773,4296.794922,4281.410156,4323.589844,4278.333496,4272.05127,4280.256348,4261.794922,4272.05127,4441.538574,4449.358887,4403.333496,4412.692383,6235,3,58,,,,0,4,4,4,4,4,4,4,4,4,4,4,4,4,4,100,,,,,,,,,,,,,,,,,,,,,,,,,,,,,,,,,,,,,,,,,,,,,,,,,,,,,,,,,,,,,,,,,,,,,,,,,,,,,,,,,,,,,,,,,,,,,,,,,,,,,,,,,,,,,,,,,,,,,,,,,,,,,,,,,,,,,,
1702360697,1702360697,116,0,4286.153809,4291.794922,4304.743652,4288.846191,4326.922852,4281.922852,4275.128418,4280.641113,4260.384766,4261.538574,4446.922852,4458.974121,4398.077148,4416.922852,6761,3,58,,,,0,4,4,4,4,4,4,4,4,4,4,4,4,4,4,100,,,,,,,,,,,,,,,,,29,0,0.690132,-0.211121,-0.682861,-0.113342,0.984984,-0.125992,-0.02637,-12.542216,-4.445689,88.994553,,,,,,,,,,,,,,,,,,,,,,,,,,,,,,,,,,,,,,,,,,,,,,,,,,,,,,,,,,,,,,,,,,,,,,,,,,,,,,,,,,,,,,,,,,,,,,,,,,,,,,,,,,
1702360697,1702360697,117,0,4292.820313,4294.230957,4312.179688,4295.769043,4329.871582,4287.94873,4281.922852,4281.282227,4263.461426,4263.846191,4459.615234,4461.666504,4407.820313,4426.153809,7002,3,58,,,,0,4,4,4,4,4,4,4,4,4,4,4,4,4,4,100,,,,,,,,,,,,,,,,,,,,,,,,,,,,,,,,,,,,,,,,,,,,,,,,,,,,,,,,,,,,,,,,,,,,,,,,,,,,,,,,,,,,,,,,,,,,,,,,,,,,,,,,,,,,,,,,,,,,,,,,,,,,,,,,,,,,,,
1702360697,1702360697,118,0,4286.153809,4292.307617,4308.333496,4295.641113,4333.974121,4283.333496,4279.230957,4282.820313,4267.05127,4279.358887,4459.358887,4459.615234,4408.974121,4423.205078,5856,3,58,,,,0,4,4,4,4,4,4,4,4,4,4,4,4,4,4,100,,,,,,,,,,,,,,,,,,,,,,,,,,,,,,,,,,,,,,,,,,,,,,,,,,,,,,,,,,,,,,,,,,,,,,,,,,,,,,,,,,,,,,,,,,,,,,,,,,,,,,,,,,,,,,,,,,,,,,,,,,,,,,,,,,,,,,
1702360697,1702360697,119,0,4283.974121,4290.256348,4303.205078,4293.077148,4335.128418,4277.307617,4267.820313,4281.538574,4264.615234,4275,4448.589844,4455.641113,4406.538574,4415.641113,6235,3,58,,,,0,4,4,4,4,4,4,4,4,4,4,4,4,4,4,100,,,,,,,,,,,,,,,,,,,,,,,,,,,,,,,,,,,,,,,,,,,,,,,,,,,,,,,,,,,,,,,,,,,,,,,,,,,,,,,,,,,,,,,,,,,,,,,,,,,,,,,,,,,,,,,,,,,,,,,,,,,,,,,,,,,,,,
1702360697,1702360697,120,0,4284.871582,4289.615234,4300.128418,4285.128418,4330,4277.94873,4262.436035,4272.179688,4260,4260.128418,4447.05127,4447.307617,4410.128418,4413.461426,6761,3,58,,,,0,4,4,4,4,4,4,4,4,4,4,4,4,4,4,100,,,,,,,,,,,,,,,,,30,0,0.690097,-0.210938,-0.682983,-0.113159,0.990355,-0.13527,-0.020999,-12.721328,-4.45112,89.045097,,,,,,,,,,,,,,,,,,,,,,,,,,,,,,,,,,,,,,,,,,,,,,,,,,,,,,,,,,,,,,,,,,,,,,,,,,,,,,,,,,,,,,,,,,,,,,,,,,,,,,,,,,
1702360697,1702360697,121,0,4280.641113,4288.846191,4294.615234,4284.102539,4325,4277.820313,4263.461426,4264.487305,4259.615234,4262.692383,4452.307617,4442.94873,4405.384766,4412.436035,7002,3,58,,,,0,4,4,4,4,4,4,4,4,4,4,4,4,4,4,100,,,,,,,,,,,,,,,,,,,,,,,,,,,,,,,,,,,,,,,,,,,,,,,,,,,,,,,,,,,,,,,,,,,,,,,,,,,,,,,,,,,,,,,,,,,,,,,,,,,,,,,,,,,,,,,,,,,,,,,,,,,,,,,,,,,,,,
1702360697,1702360697,122,0,4278.717773,4288.077148,4296.538574,4295.897461,4326.282227,4277.820313,4263.205078,4266.666504,4260.128418,4266.025879,4448.205078,4446.153809,4398.333496,4412.436035,5856,3,58,,,,0,4,4,4,4,4,4,4,4,4,4,4,4,4,4,100,,,,,,,,,,,,,,,,,,,,,,,,,,,,,,,,,,,,,,,,,,,,,,,,,,,,,,,,,,,,,,,,,,,,,,,,,,,,,,,,,,,,,,,,,,,,,,,,,,,,,,,,,,,,,,,,,,,,,,,,,,,,,,,,,,,,,,
1702360697,1702360697,123,0,4281.538574,4289.743652,4304.871582,4300.128418,4327.563965,4278.205078,4261.666504,4265.897461,4253.589844,4252.820313,4439.871582,4447.307617,4400.897461,4414.102539,6235,3,58,,,,0,4,4,4,4,4,4,4,4,4,4,4,4,4,4,100,,,,,,,,,,,,,,,,,,,,,,,,,,,,,,,,,,,,,,,,,,,,,,,,,,,,,,,,,,,,,,,,,,,,,,,,,,,,,,,,,,,,,,,,,,,,,,,,,,,,,,,,,,,,,,,,,,,,,,,,,,,,,,,,,,,,,,
1702360697,1702360697,124,0,4282.05127,4292.307617,4304.487305,4294.358887,4324.230957,4274.358887,4260.384766,4259.743652,4247.436035,4244.358887,4439.102539,4445.512695,4404.230957,4411.794922,6761,3,58,,,,0,4,4,4,4,4,4,4,4,4,4,4,4,4,4,100,,,,,,,,,,,,,,,,,31,0,0.690063,-0.210754,-0.683044,-0.113342,0.968868,-0.119644,-0.025882,-12.732529,-4.589341,88.957253,,,,,,,,,,,,,,,,,,,,,,,,,,,,,,,,,,,,,,,,,,,,,,,,,,,,,,,,,,,,,,,,,,,,,,,,,,,,,,,,,,,,,,,,,,,,,,,,,,,,,,,,,,
1702360697,1702360697,125,0,4283.333496,4297.179688,4299.743652,4298.974121,4326.922852,4272.436035,4263.717773,4261.025879,4250.641113,4257.05127,4446.153809,4447.692383,4410.512695,4414.487305,7002,3,58,,,,0,4,4,4,4,4,4,4,4,4,4,4,4,4,4,100,,,,,,,,,,,,,,,,,,,,,,,,,,,,,,,,,,,,,,,,,,,,,,,,,,,,,,,,,,,,,,,,,8.824784,1.736789,0.648781,0.327108,0.123765,33.196056,4.435259,1.222135,0.525489,0.18165,3.472291,1.234143,0.412709,0.401583,0.186717,10.625451,1.200724,0.678162,0.504932,0.163357,0.774683,0.552955,0.222755,0.29201,0.192316,0.391512,0.175445,0.147672,0.305628,0.131987,0.553404,0.560525,0.255785,0.222498,0.099864,0.864841,1.163269,0.518575,0.216803,0.120321,2.004228,0.78687,0.368096,0.271406,0.190741,1.046483,0.439995,0.446512,0.565827,0.273126,7.398122,1.406787,1.16063,0.471209,0.17449,3.396108,1.514301,0.692466,0.448892,0.164535,20.038588,2.239718,1.506876,0.539098,0.225652,9.327826,1.409027,0.969173,0.446221,0.159203
1702360697,1702360697,126,0,4281.794922,4295.897461,4294.615234,4299.230957,4330.128418,4268.846191,4260.641113,4264.358887,4254.487305,4264.358887,4448.589844,4444.743652,4414.743652,4416.538574,5856,3,58,,,,0,4,4,4,4,4,4,4,4,4,4,4,4,4,4,100,,,,,,,,,,,,,,,,,,,,,,,,,,,,,,,,,,,,,,,,,,,,,,,,,,,,,,,,,,,,,,,,,,,,,,,,,,,,,,,,,,,,,,,,,,,,,,,,,,,,,,,,,,,,,,,,,,,,,,,,,,,,,,,,,,,,,,
1702360697,1702360697,127,0,4278.333496,4283.205078,4285.512695,4287.05127,4320.512695,4262.563965,4249.871582,4260.384766,4247.563965,4253.205078,4444.230957,4433.717773,4411.282227,4407.179688,58,3,58,,,,0,4,4,4,4,4,4,4,4,4,4,4,4,4,4,100,,,,,,,,,,,,,,,,,,,,,,,,,,,,,,,,,,,,,,,,,,,,,,,,,,,,,,,,,,,,,,,,,,,,,,,,,,,,,,,,,,,,,,,,,,,,,,,,,,,,,,,,,,,,,,,,,,,,,,,,,,,,,,,,,,,,,,
1702360697,1702360697,0,0,4278.333496,4279.743652,4284.102539,4287.179688,4318.205078,4266.666504,4251.538574,4259.230957,4246.153809,4243.717773,4445.256348,4433.461426,4409.487305,4402.05127,5419,3,58,,,,0,4,4,4,4,4,4,4,4,4,4,4,4,4,4,100,,,,,,,,,,,,,,,,,0,0,0.6899,-0.210693,-0.683228,-0.113342,0.984984,-0.140642,-0.017092,-12.759275,-4.497074,89.061523,,,,,,,,,,,,,,,,,,,,,,,,,,,,,,,,,,,,,,,,,,,,,,,,,,,,,,,,,,,,,,,,,,,,,,,,,,,,,,,,,,,,,,,,,,,,,,,,,,,,,,,,,,
1702360697,1702360697,1,0,4278.333496,4287.563965,4292.436035,4293.846191,4325.128418,4272.94873,4258.589844,4264.487305,4256.538574,4248.077148,4444.230957,4440.256348,4406.794922,4404.871582,5490,3,58,,,,0,4,4,4,4,4,4,4,4,4,4,4,4,4,4,100,,,,,,,,,,,,,,,,,,,,,,,,,,,,,,,,,,,,,,,,,,,,,,,,,,,,,,,,,,,,,,,,,,,,,,,,,,,,,,,,,,,,,,,,,,,,,,,,,,,,,,,,,,,,,,,,,,,,,,,,,,,,,,,,,,,,,,
1702360697,1702360697,2,0,4276.410156,4286.025879,4293.846191,4294.487305,4319.487305,4268.205078,4252.563965,4264.487305,4256.282227,4252.563965,4434.358887,4434.358887,4401.153809,4401.794922,5354,3,58,,,,0,4,4,4,4,4,4,4,4,4,4,4,4,4,4,100,,,,,,,,,,,,,,,,,,,,,,,,,,,,,,,,,,,,,,,,,,,,,,,,,,,,,,,,,,,,,,,,,,,,,,,,,,,,,,,,,,,,,,,,,,,,,,,,,,,,,,,,,,,,,,,,,,,,,,,,,,,,,,,,,,,,,,
1702360697,1702360697,3,0,4271.666504,4280,4285.128418,4291.153809,4308.333496,4262.307617,4245.256348,4256.153809,4247.179688,4241.410156,4427.436035,4426.153809,4396.282227,4395.384766,5360,3,58,,,,0,4,4,4,4,4,4,4,4,4,4,4,4,4,4,100,,,,,,,,,,,,,,,,,,,,,,,,,,,,,,,,,,,,,,,,,,,,,,,,,,,,,,,,,,,,,,,,,,,,,,,,,,,,,,,,,,,,,,,,,,,,,,,,,,,,,,,,,,,,,,,,,,,,,,,,,,,,,,,,,,,,,,
1702360697,1702360697,4,0,4265.512695,4281.922852,4280,4287.307617,4312.436035,4261.538574,4247.436035,4252.179688,4244.615234,4229.487305,4426.282227,4427.307617,4400.256348,4395.128418,5323,3,58,,,,0,4,4,4,4,4,4,4,4,4,4,4,4,4,4,100,,,,,,,,,,,,,,,,,1,0,0.68979,-0.210754,-0.68335,-0.113159,0.970333,-0.127457,-0.022952,-12.683349,-4.464033,88.972038,,,,,,,,,,,,,,,,,,,,,,,,,,,,,,,,,,,,,,,,,,,,,,,,,,,,,,,,,,,,,,,,,,,,,,,,,,,,,,,,,,,,,,,,,,,,,,,,,,,,,,,,,,
1702360697,1702360697,5,0,4263.333496,4282.563965,4280.128418,4283.077148,4320.641113,4262.563965,4247.692383,4258.333496,4250.384766,4238.717773,4433.717773,4429.230957,4410,4396.666504,5202,3,58,,,,0,4,4,4,4,4,4,4,4,4,4,4,4,4,4,100,,,,,,,,,,,,,,,,,,,,,,,,,,,,,,,,,,,,,,,,,,,,,,,,,,,,,,,,,,,,,,,,,,,,,,,,,,,,,,,,,,,,,,,,,,,,,,,,,,,,,,,,,,,,,,,,,,,,,,,,,,,,,,,,,,,,,,
1702360697,1702360697,6,0,4264.487305,4277.563965,4280.384766,4281.666504,4316.538574,4265.512695,4246.025879,4265.128418,4259.487305,4250.769043,4442.436035,4428.846191,4415.384766,4396.794922,5108,3,58,,,,0,4,4,4,4,4,4,4,4,4,4,4,4,4,4,100,,,,,,,,,,,,,,,,,,,,,,,,,,,,,,,,,,,,,,,,,,,,,,,,,,,,,,,,,,,,,,,,,,,,,,,,,,,,,,,,,,,,,,,,,,,,,,,,,,,,,,,,,,,,,,,,,,,,,,,,,,,,,,,,,,,,,,
1702360697,1702360697,7,0,4263.974121,4273.205078,4277.692383,4281.025879,4310,4266.282227,4246.922852,4259.871582,4256.794922,4235.641113,4436.410156,4427.563965,4409.871582,4395.641113,5146,3,58,,,,0,4,4,4,4,4,4,4,4,4,4,4,4,4,4,100,,,,,,,,,,,,,,,,,,,,,,,,,,,,,,,,,,,,,,,,,,,,,,,,,,,,,,,,,,,,,,,,,,,,,,,,,,,,,,,,,,,,,,,,,,,,,,,,,,,,,,,,,,,,,,,,,,,,,,,,,,,,,,,,,,,,,,
1702360697,1702360697,8,0,4262.94873,4272.05127,4277.179688,4279.743652,4310.128418,4260.384766,4246.410156,4252.05127,4248.333496,4225.128418,4425.641113,4425,4401.025879,4393.333496,5288,3,58,,,,0,4,4,4,4,4,4,4,4,4,4,4,4,4,4,100,,,,,,,,,,,,,,,,,2,0,0.68976,-0.210754,-0.683411,-0.112976,0.97717,-0.137224,-0.028812,-12.68168,-4.500963,88.941505,,,,,,,,,,,,,,,,,,,,,,,,,,,,,,,,,,,,,,,,,,,,,,,,,,,,,,,,,,,,,,,,,,,,,,,,,,,,,,,,,,,,,,,,,,,,,,,,,,,,,,,,,,
1702360697,1702360697,9,0,4266.025879,4276.282227,4285.256348,4279.615234,4315.384766,4260.512695,4247.563965,4256.153809,4253.205078,4241.410156,4430.897461,4427.179688,4406.666504,4395.769043,5354,3,58,,,,0,4,4,4,4,4,4,4,4,4,4,4,4,4,4,100,,,,,,,,,,,,,,,,,,,,,,,,,,,,,,,,,,,,,,,,,,,,,,,,,,,,,,,,,,,,,,,,,,,,,,,,,,,,,,,,,,,,,,,,,,,,,,,,,,,,,,,,,,,,,,,,,,,,,,,,,,,,,,,,,,,,,,
1702360697,1702360697,10,0,4271.282227,4280.256348,4291.410156,4281.794922,4317.436035,4269.871582,4249.102539,4266.282227,4259.743652,4244.487305,4441.153809,4430.641113,4417.563965,4402.05127,5861,3,58,,,,0,4,4,4,4,4,4,4,4,4,4,4,4,4,4,100,,,,,,,,,,,,,,,,,,,,,,,,,,,,,,,,,,,,,,,,,,,,,,,,,,,,,,,,,,,,,,,,,,,,,,,,,,,,,,,,,,,,,,,,,,,,,,,,,,,,,,,,,,,,,,,,,,,,,,,,,,,,,,,,,,,,,,
1702360697,1702360697,11,0,4275.512695,4276.794922,4292.94873,4285.769043,4313.205078,4270.128418,4248.589844,4262.307617,4251.282227,4231.025879,4441.666504,4431.153809,4418.461426,4402.94873,6244,3,58,,,,0,4,4,4,4,4,4,4,4,4,4,4,4,4,4,100,,,,,,,,,,,,,,,,,,,,,,,,,,,,,,,,,,,,,,,,,,,,,,,,,,,,,,,,,,,,,,,,,,,,,,,,,,,,,,,,,,,,,,,,,,,,,,,,,,,,,,,,,,,,,,,,,,,,,,,,,,,,,,,,,,,,,,
1702360697,1702360697,12,0,4276.153809,4273.717773,4295.512695,4285.897461,4306.153809,4265.769043,4247.307617,4250,4245.256348,4229.102539,4442.05127,4435.512695,4415.897461,4402.307617,6788,3,58,,,,0,4,4,4,4,4,4,4,4,4,4,4,4,4,4,100,,,,,,,,,,,,,,,,,3,0,0.689868,-0.210632,-0.68335,-0.112915,0.973752,-0.116225,-0.02051,-12.613512,-4.517533,88.814018,,,,,,,,,,,,,,,,,,,,,,,,,,,,,,,,,,,,,,,,,,,,,,,,,,,,,,,,,,,,,,,,,,,,,,,,,,,,,,,,,,,,,,,,,,,,,,,,,,,,,,,,,,
1702360697,1702360697,13,0,4277.563965,4278.974121,4298.077148,4284.230957,4303.974121,4271.410156,4247.436035,4253.589844,4247.820313,4234.358887,4446.282227,4442.94873,4418.205078,4406.410156,7002,3,58,,,,0,4,4,4,4,4,4,4,4,4,4,4,4,4,4,100,,,,,,,,,,,,,,,,,,,,,,,,,,,,,,,,,,,,,,,,,,,,,,,,,,,,,,,,,,,,,,,,,9.381337,1.811165,0.619002,0.292423,0.122845,34.475941,4.779319,1.314154,0.526583,0.197168,3.543808,1.209047,0.376812,0.326654,0.190388,10.547647,1.194711,0.633436,0.50402,0.168316,0.841989,0.589112,0.202034,0.28459,0.177835,0.300663,0.152902,0.148015,0.290764,0.116818,0.545569,0.52081,0.226943,0.213734,0.092137,1.195314,1.012343,0.519309,0.19719,0.108467,2.255721,0.693897,0.355672,0.235226,0.189038,1.253186,0.542923,0.485559,0.552523,0.301991,8.295684,1.407105,1.174288,0.403129,0.151805,3.6588,1.439955,0.681364,0.372685,0.14599,21.669739,2.314831,1.504836,0.498245,0.235041,10.069248,1.507499,0.980459,0.423325,0.166182
1702360697,1702360697,14,0,4282.307617,4276.922852,4298.205078,4291.153809,4308.846191,4274.615234,4251.282227,4262.05127,4247.692383,4236.025879,4445,4447.179688,4419.487305,4408.205078,5861,3,58,,,,0,4,4,4,4,4,4,4,4,4,4,4,4,4,4,100,,,,,,,,,,,,,,,,,,,,,,,,,,,,,,,,,,,,,,,,,,,,,,,,,,,,,,,,,,,,,,,,,,,,,,,,,,,,,,,,,,,,,,,,,,,,,,,,,,,,,,,,,,,,,,,,,,,,,,,,,,,,,,,,,,,,,,
1702360697,1702360697,15,0,4278.077148,4269.230957,4297.692383,4291.666504,4306.922852,4268.717773,4252.820313,4256.410156,4246.666504,4230.769043,4437.179688,4441.922852,4413.589844,4401.025879,6244,3,58,,,,0,4,4,4,4,4,4,4,4,4,4,4,4,4,4,100,,,,,,,,,,,,,,,,,,,,,,,,,,,,,,,,,,,,,,,,,,,,,,,,,,,,,,,,,,,,,,,,,,,,,,,,,,,,,,,,,,,,,,,,,,,,,,,,,,,,,,,,,,,,,,,,,,,,,,,,,,,,,,,,,,,,,,
1702360697,1702360697,16,0,4265.384766,4265.769043,4291.025879,4279.230957,4298.717773,4265,4248.333496,4244.615234,4245.512695,4217.436035,4429.102539,4430.641113,4408.333496,4393.205078,0,3,58,,,,0,4,4,4,4,4,4,4,4,4,4,4,4,4,4,100,,,,,,,,,,,,,,,,,4,0,0.689803,-0.210449,-0.683472,-0.112915,0.978635,-0.146991,-0.02051,-12.552161,-4.56578,88.899284,,,,,,,,,,,,,,,,,,,,,,,,,,,,,,,,,,,,,,,,,,,,,,,,,,,,,,,,,,,,,,,,,,,,,,,,,,,,,,,,,,,,,,,,,,,,,,,,,,,,,,,,,,
1702360697,1702360697,17,0,4263.589844,4267.94873,4284.743652,4280.769043,4300.128418,4265,4245.641113,4245.769043,4246.538574,4213.589844,4429.102539,4429.615234,4407.692383,4393.589844,0,3,58,,,,0,4,4,4,4,4,4,4,4,4,4,4,4,4,4,100,,,,,,,,,,,,,,,,,,,,,,,,,,,,,,,,,,,,,,,,,,,,,,,,,,,,,,,,,,,,,,,,,,,,,,,,,,,,,,,,,,,,,,,,,,,,,,,,,,,,,,,,,,,,,,,,,,,,,,,,,,,,,,,,,,,,,,
1702360697,1702360697,18,0,4268.717773,4272.692383,4291.922852,4288.589844,4304.358887,4264.615234,4247.436035,4253.974121,4249.871582,4220.769043,4430.769043,4435.256348,4410.769043,4396.282227,0,3,58,,,,0,4,4,4,4,4,4,4,4,4,4,4,4,4,4,100,,,,,,,,,,,,,,,,,,,,,,,,,,,,,,,,,,,,,,,,,,,,,,,,,,,,,,,,,,,,,,,,,,,,,,,,,,,,,,,,,,,,,,,,,,,,,,,,,,,,,,,,,,,,,,,,,,,,,,,,,,,,,,,,,,,,,,
1702360697,1702360697,19,0,4265.512695,4270.256348,4295.384766,4281.025879,4296.794922,4264.487305,4245.641113,4250.384766,4244.743652,4212.563965,4426.153809,4430,4409.743652,4393.205078,0,3,58,,,,0,4,4,4,4,4,4,4,4,4,4,4,4,4,4,100,,,,,,,,,,,,,,,,,,,,,,,,,,,,,,,,,,,,,,,,,,,,,,,,,,,,,,,,,,,,,,,,,,,,,,,,,,,,,,,,,,,,,,,,,,,,,,,,,,,,,,,,,,,,,,,,,,,,,,,,,,,,,,,,,,,,,,
1702360697,1702360697,20,0,4267.692383,4266.794922,4292.307617,4281.153809,4290.128418,4262.94873,4243.333496,4247.563965,4247.05127,4210.384766,4429.487305,4429.358887,4408.974121,4393.717773,0,3,58,,,,0,4,4,4,4,4,4,4,4,4,4,4,4,4,4,100,,,,,,,,,,,,,,,,,5,0,0.689761,-0.210388,-0.683533,-0.112915,0.97424,-0.133317,-0.031254,-12.413611,-4.525869,88.85936,,,,,,,,,,,,,,,,,,,,,,,,,,,,,,,,,,,,,,,,,,,,,,,,,,,,,,,,,,,,,,,,,,,,,,,,,,,,,,,,,,,,,,,,,,,,,,,,,,,,,,,,,,
1702360697,1702360697,21,0,4282.692383,4276.153809,4301.410156,4295,4296.025879,4264.487305,4247.692383,4257.179688,4259.230957,4230.256348,4444.743652,4444.743652,4420,4406.922852,0,3,58,,,,0,4,4,4,4,4,4,4,4,4,4,4,4,4,4,100,,,,,,,,,,,,,,,,,,,,,,,,,,,,,,,,,,,,,,,,,,,,,,,,,,,,,,,,,,,,,,,,,,,,,,,,,,,,,,,,,,,,,,,,,,,,,,,,,,,,,,,,,,,,,,,,,,,,,,,,,,,,,,,,,,,,,,
1702360697,1702360697,22,0,4287.563965,4285.641113,4308.205078,4299.358887,4299.230957,4268.717773,4250.897461,4260.897461,4259.358887,4236.025879,4450.897461,4452.307617,4432.05127,4417.692383,0,3,58,,,,0,4,4,4,4,4,4,4,4,4,4,4,4,4,4,100,,,,,,,,,,,,,,,,,,,,,,,,,,,,,,,,,,,,,,,,,,,,,,,,,,,,,,,,,,,,,,,,,,,,,,,,,,,,,,,,,,,,,,,,,,,,,,,,,,,,,,,,,,,,,,,,,,,,,,,,,,,,,,,,,,,,,,
1702360697,1702360697,23,0,4279.615234,4278.461426,4298.846191,4292.307617,4298.461426,4265.897461,4248.333496,4251.666504,4249.102539,4219.487305,4441.025879,4441.410156,4427.307617,4410,0,3,58,,,,0,4,4,4,4,4,4,4,4,4,4,4,4,4,4,100,,,,,,,,,,,,,,,,,,,,,,,,,,,,,,,,,,,,,,,,,,,,,,,,,,,,,,,,,,,,,,,,,,,,,,,,,,,,,,,,,,,,,,,,,,,,,,,,,,,,,,,,,,,,,,,,,,,,,,,,,,,,,,,,,,,,,,
1702360697,1702360697,24,0,4276.538574,4275,4292.05127,4286.410156,4297.307617,4262.692383,4247.820313,4248.333496,4246.153809,4213.589844,4433.077148,4431.153809,4416.282227,4400.384766,0,3,58,,,,0,4,4,4,4,4,4,4,4,4,4,4,4,4,4,100,,,,,,,,,,,,,,,,,6,0,0.689724,-0.21051,-0.683533,-0.112915,0.984984,-0.13234,-0.031742,-12.355583,-4.389948,89.006752,,,,,,,,,,,,,,,,,,,,,,,,,,,,,,,,,,,,,,,,,,,,,,,,,,,,,,,,,,,,,,,,,,,,,,,,,,,,,,,,,,,,,,,,,,,,,,,,,,,,,,,,,,
1702360697,1702360697,25,0,4274.615234,4278.461426,4288.846191,4279.743652,4286.666504,4261.794922,4246.538574,4252.307617,4247.820313,4219.358887,4430.128418,4429.102539,4415.897461,4397.692383,0,3,58,,,,0,4,4,4,4,4,4,4,4,4,4,4,4,4,4,100,,,,,,,,,,,,,,,,,,,,,,,,,,,,,,,,,,,,,,,,,,,,,,,,,,,,,,,,,,,,,,,,,,,,,,,,,,,,,,,,,,,,,,,,,,,,,,,,,,,,,,,,,,,,,,,,,,,,,,,,,,,,,,,,,,,,,,
1702360697,1702360697,26,0,4271.410156,4272.820313,4282.436035,4276.282227,4276.410156,4259.743652,4243.333496,4255.256348,4244.743652,4216.410156,4430.128418,4431.153809,4417.179688,4394.487305,0,3,58,,,,0,4,4,4,4,4,4,4,4,4,4,4,4,4,4,100,,,,,,,,,,,,,,,,,,,,,,,,,,,,,,,,,,,,,,,,,,,,,,,,,,,,,,,,,,,,,,,,,,,,,,,,,,,,,,,,,,,,,,,,,,,,,,,,,,,,,,,,,,,,,,,,,,,,,,,,,,,,,,,,,,,,,,
1702360697,1702360697,27,0,4277.692383,4273.333496,4289.230957,4279.871582,4279.230957,4262.94873,4247.436035,4262.179688,4249.230957,4215.512695,4443.717773,4441.666504,4419.871582,4401.410156,0,3,58,,,,0,4,4,4,4,4,4,4,4,4,4,4,4,4,4,100,,,,,,,,,,,,,,,,,,,,,,,,,,,,,,,,,,,,,,,,,,,,,,,,,,,,,,,,,,,,,,,,,,,,,,,,,,,,,,,,,,,,,,,,,,,,,,,,,,,,,,,,,,,,,,,,,,,,,,,,,,,,,,,,,,,,,,
1702360697,1702360697,28,0,4282.820313,4277.820313,4297.05127,4280.128418,4281.282227,4265.769043,4251.025879,4265.384766,4259.615234,4217.820313,4454.743652,4449.487305,4426.794922,4410.256348,0,3,58,,,,0,4,4,4,4,4,4,4,4,4,4,4,4,4,4,100,,,,,,,,,,,,,,,,,7,0,0.689454,-0.210632,-0.683777,-0.112854,0.990355,-0.136735,-0.027835,-12.370026,-4.334287,89.039413,,,,,,,,,,,,,,,,,,,,,,,,,,,,,,,,,,,,,,,,,,,,,,,,,,,,,,,,,,,,,,,,,,,,,,,,,,,,,,,,,,,,,,,,,,,,,,,,,,,,,,,,,,
1702360697,1702360697,29,0,4277.820313,4276.666504,4292.179688,4282.05127,4278.717773,4261.282227,4246.282227,4259.871582,4260.128418,4217.563965,4449.102539,4446.922852,4428.461426,4406.666504,0,3,58,,,,0,4,4,4,4,4,4,4,4,4,4,4,4,4,4,100,,,,,,,,,,,,,,,,,,,,,,,,,,,,,,,,,,,,,,,,,,,,,,,,,,,,,,,,,,,,,,,,,9.079058,1.73891,0.555359,0.271369,0.123367,32.570843,4.844138,1.405861,0.53181,0.211908,3.53964,1.124582,0.319589,0.267934,0.190303,9.597777,1.163361,0.558068,0.501936,0.175033,0.980012,0.626714,0.17445,0.270364,0.160719,0.229997,0.12224,0.13364,0.261899,0.103004,0.583828,0.445223,0.199259,0.198697,0.087883,1.600441,0.81272,0.525604,0.195141,0.100103,2.484417,0.567591,0.324527,0.204818,0.18829,1.451499,0.692255,0.487185,0.538245,0.331193,8.225068,1.356099,1.090425,0.348696,0.137557,3.774188,1.292601,0.622778,0.308835,0.130826,20.241634,2.191297,1.332456,0.45662,0.24248,9.757663,1.518698,0.899023,0.408869,0.172413
1702360697,1702360697,30,0,4283.077148,4278.846191,4299.871582,4291.794922,4280,4260.256348,4247.05127,4262.05127,4259.743652,4220.512695,4446.794922,4452.692383,4428.077148,4407.94873,0,3,58,,,,0,4,4,4,4,4,4,4,4,4,4,4,4,4,4,100,,,,,,,,,,,,,,,,,,,,,,,,,,,,,,,,,,,,,,,,,,,,,,,,,,,,,,,,,,,,,,,,,,,,,,,,,,,,,,,,,,,,,,,,,,,,,,,,,,,,,,,,,,,,,,,,,,,,,,,,,,,,,,,,,,,,,,
1702360697,1702360697,31,0,4294.743652,4283.461426,4314.743652,4299.743652,4279.615234,4264.358887,4251.922852,4266.794922,4265,4227.307617,4451.025879,4462.563965,4429.358887,4417.820313,0,3,58,,,,0,4,4,4,4,4,4,4,4,4,4,4,4,4,4,100,,,,,,,,,,,,,,,,,,,,,,,,,,,,,,,,,,,,,,,,,,,,,,,,,,,,,,,,,,,,,,,,,,,,,,,,,,,,,,,,,,,,,,,,,,,,,,,,,,,,,,,,,,,,,,,,,,,,,,,,,,,,,,,,,,,,,,
1702360697,1702360697,32,0,4290.128418,4282.05127,4307.179688,4294.230957,4276.666504,4263.589844,4247.94873,4261.282227,4264.871582,4232.820313,4452.436035,4456.538574,4430,4417.820313,0,3,58,,,,0,4,4,4,4,4,4,4,4,4,4,4,4,4,4,100,,,,,,,,,,,,,,,,,8,0,0.689543,-0.210571,-0.683716,-0.112793,0.984007,-0.12941,-0.024417,-12.433022,-4.267525,89.135468,,,,,,,,,,,,,,,,,,,,,,,,,,,,,,,,,,,,,,,,,,,,,,,,,,,,,,,,,,,,,,,,,,,,,,,,,,,,,,,,,,,,,,,,,,,,,,,,,,,,,,,,,,
1702360697,1702360697,33,0,4279.871582,4275.384766,4293.717773,4283.974121,4277.179688,4260.384766,4243.846191,4256.922852,4258.205078,4225.384766,4454.358887,4447.692383,4424.871582,4409.871582,0,3,58,,,,0,4,4,4,4,4,4,4,4,4,4,4,4,4,4,100,,,,,,,,,,,,,,,,,,,,,,,,,,,,,,,,,,,,,,,,,,,,,,,,,,,,,,,,,,,,,,,,,,,,,,,,,,,,,,,,,,,,,,,,,,,,,,,,,,,,,,,,,,,,,,,,,,,,,,,,,,,,,,,,,,,,,,
1702360697,1702360697,34,0,4277.307617,4267.692383,4296.538574,4282.436035,4278.205078,4260.897461,4246.538574,4262.820313,4259.358887,4213.717773,4455.256348,4450,4417.307617,4403.846191,0,3,58,,,,0,4,4,4,4,4,4,4,4,4,4,4,4,4,4,100,,,,,,,,,,,,,,,,,,,,,,,,,,,,,,,,,,,,,,,,,,,,,,,,,,,,,,,,,,,,,,,,,,,,,,,,,,,,,,,,,,,,,,,,,,,,,,,,,,,,,,,,,,,,,,,,,,,,,,,,,,,,,,,,,,,,,,
1702360697,1702360697,35,0,4274.743652,4259.358887,4296.922852,4280.512695,4273.461426,4261.922852,4246.794922,4265.769043,4261.922852,4212.692383,4452.820313,4449.358887,4414.871582,4401.153809,0,3,58,,,,0,4,4,4,4,4,4,4,4,4,4,4,4,4,4,100,,,,,,,,,,,,,,,,,,,,,,,,,,,,,,,,,,,,,,,,,,,,,,,,,,,,,,,,,,,,,,,,,,,,,,,,,,,,,,,,,,,,,,,,,,,,,,,,,,,,,,,,,,,,,,,,,,,,,,,,,,,,,,,,,,,,,,
1702360697,1702360697,36,0,4275.128418,4257.563965,4294.871582,4276.410156,4273.974121,4263.333496,4247.307617,4263.589844,4261.025879,4218.846191,4458.077148,4451.282227,4425.384766,4407.563965,0,3,58,,,,0,4,4,4,4,4,4,4,4,4,4,4,4,4,4,100,,,,,,,,,,,,,,,,,9,0,0.689667,-0.210693,-0.683594,-0.112549,0.984984,-0.131364,-0.027347,-12.356387,-4.424106,89.071922,,,,,,,,,,,,,,,,,,,,,,,,,,,,,,,,,,,,,,,,,,,,,,,,,,,,,,,,,,,,,,,,,,,,,,,,,,,,,,,,,,,,,,,,,,,,,,,,,,,,,,,,,,
1702360697,1702360697,37,0,4280.384766,4263.333496,4307.179688,4281.666504,4289.358887,4266.538574,4254.487305,4264.230957,4259.230957,4218.974121,4461.538574,4459.358887,4433.205078,4416.153809,0,3,58,,,,0,4,4,4,4,4,4,4,4,4,4,4,4,4,4,100,,,,,,,,,,,,,,,,,,,,,,,,,,,,,,,,,,,,,,,,,,,,,,,,,,,,,,,,,,,,,,,,,,,,,,,,,,,,,,,,,,,,,,,,,,,,,,,,,,,,,,,,,,,,,,,,,,,,,,,,,,,,,,,,,,,,,,
1702360697,1702360697,38,0,4281.282227,4262.307617,4310.128418,4285.384766,4296.282227,4266.794922,4261.282227,4264.871582,4252.820313,4216.922852,4452.05127,4455.256348,4420.897461,4415.641113,0,3,58,,,,0,4,4,4,4,4,4,4,4,4,4,4,4,4,4,100,,,,,,,,,,,,,,,,,,,,,,,,,,,,,,,,,,,,,,,,,,,,,,,,,,,,,,,,,,,,,,,,,,,,,,,,,,,,,,,,,,,,,,,,,,,,,,,,,,,,,,,,,,,,,,,,,,,,,,,,,,,,,,,,,,,,,,
1702360697,1702360697,39,0,4279.358887,4251.025879,4298.589844,4272.692383,4292.692383,4265.641113,4259.230957,4265.512695,4248.717773,4215.641113,4446.410156,4443.589844,4407.820313,4409.487305,0,3,58,,,,0,4,4,4,4,4,4,4,4,4,4,4,4,4,4,100,,,,,,,,,,,,,,,,,,,,,,,,,,,,,,,,,,,,,,,,,,,,,,,,,,,,,,,,,,,,,,,,,,,,,,,,,,,,,,,,,,,,,,,,,,,,,,,,,,,,,,,,,,,,,,,,,,,,,,,,,,,,,,,,,,,,,,
1702360697,1702360697,40,0,4273.461426,4245.128418,4293.846191,4261.538574,4298.717773,4264.102539,4252.179688,4261.153809,4243.717773,4208.333496,4439.487305,4435.769043,4402.692383,4398.333496,0,3,58,,,,0,4,4,4,4,4,4,4,4,4,4,4,4,4,4,100,,,,,,,,,,,,,,,,,10,0,0.689852,-0.210449,-0.683533,-0.112244,0.968868,-0.143572,-0.02344,-12.370749,-4.481695,89.064728,,,,,,,,,,,,,,,,,,,,,,,,,,,,,,,,,,,,,,,,,,,,,,,,,,,,,,,,,,,,,,,,,,,,,,,,,,,,,,,,,,,,,,,,,,,,,,,,,,,,,,,,,,
1702360697,1702360697,41,0,4265.769043,4247.94873,4289.230957,4260.769043,4301.538574,4260.256348,4246.282227,4249.615234,4233.974121,4200.256348,4423.205078,4425.897461,4401.922852,4393.205078,0,3,58,,,,0,4,4,4,4,4,4,4,4,4,4,4,4,4,4,100,,,,,,,,,,,,,,,,,,,,,,,,,,,,,,,,,,,,,,,,,,,,,,,,,,,,,,,,,,,,,,,,,,,,,,,,,,,,,,,,,,,,,,,,,,,,,,,,,,,,,,,,,,,,,,,,,,,,,,,,,,,,,,,,,,,,,,
1702360697,1702360697,42,0,4263.717773,4246.794922,4278.846191,4253.461426,4291.025879,4259.358887,4241.282227,4243.461426,4225.897461,4190.897461,4417.307617,4417.307617,4399.230957,4395,0,3,58,,,,0,4,4,4,4,4,4,4,4,4,4,4,4,4,4,100,,,,,,,,,,,,,,,,,,,,,,,,,,,,,,,,,,,,,,,,,,,,,,,,,,,,,,,,,,,,,,,,,,,,,,,,,,,,,,,,,,,,,,,,,,,,,,,,,,,,,,,,,,,,,,,,,,,,,,,,,,,,,,,,,,,,,,
1702360697,1702360697,43,0,4257.692383,4232.307617,4279.743652,4245.512695,4291.666504,4261.538574,4242.563965,4246.666504,4222.307617,4181.794922,4415.384766,4418.333496,4381.666504,4382.820313,0,3,58,,,,0,4,4,4,4,4,4,4,4,4,4,4,4,4,4,100,,,,,,,,,,,,,,,,,,,,,,,,,,,,,,,,,,,,,,,,,,,,,,,,,,,,,,,,,,,,,,,,,,,,,,,,,,,,,,,,,,,,,,,,,,,,,,,,,,,,,,,,,,,,,,,,,,,,,,,,,,,,,,,,,,,,,,
1702360697,1702360697,44,0,4245.769043,4218.461426,4280.897461,4243.077148,4297.307617,4262.94873,4245.769043,4246.794922,4217.179688,4183.461426,4408.461426,4416.666504,4368.846191,4368.461426,0,3,58,,,,0,4,4,4,4,4,4,4,4,4,4,4,4,4,4,100,,,,,,,,,,,,,,,,,11,0,0.69003,-0.210327,-0.683411,-0.112122,0.982542,-0.138689,-0.025882,-12.25034,-4.583526,88.974922,,,,,,,,,,,,,,,,,,,,,,,,,,,,,,,,,,,,,,,,,,,,,,,,,,,,,,,,,,,,,,,,,,,,,,,,,,,,,,,,,,,,,,,,,,,,,,,,,,,,,,,,,,
1702360697,1702360697,45,0,4246.794922,4216.794922,4269.230957,4236.922852,4288.077148,4258.717773,4242.94873,4243.846191,4217.307617,4191.794922,4413.461426,4412.94873,4385.128418,4375.128418,0,3,58,,,,0,4,4,4,4,4,4,4,4,4,4,4,4,4,4,100,1,100,4,4,4,4,4,4,4,4,4,4,4,4,4,4,,,,,,,,,,,,,,,,,,,,,,,,,,,,,,,,,,,,,,,,,,,,,,,,,8.003522,1.564946,0.482661,0.266689,0.12274,27.913544,4.604897,1.465441,0.534388,0.220404,3.394927,1.022658,0.263241,0.2373,0.184215,7.894161,1.111687,0.472518,0.499155,0.178484,1.158055,0.678573,0.147372,0.250666,0.145097,0.194401,0.090972,0.108004,0.222539,0.091243,0.665054,0.354674,0.173641,0.180868,0.085863,1.995225,0.6207,0.531615,0.20781,0.098017,2.61973,0.439426,0.279723,0.18048,0.18869,1.579902,0.861841,0.444084,0.520743,0.355001,7.181183,1.314357,0.954707,0.316861,0.132859,3.657918,1.138828,0.54156,0.273503,0.119013,16.381836,1.957687,1.056541,0.425196,0.246868,8.506691,1.482573,0.760874,0.407436,0.174908
1702360697,1702360697,46,0,4252.820313,4217.692383,4267.820313,4230.384766,4279.743652,4252.05127,4239.743652,4245.641113,4227.307617,4197.05127,4427.563965,4418.333496,4410.384766,4386.153809,0,3,58,,,,0,4,4,4,4,4,4,4,4,4,4,4,4,4,4,100,,,,,,,,,,,,,,,,,,,,,,,,,,,,,,,,,,,,,,,,,,,,,,,,,,,,,,,,,,,,,,,,,,,,,,,,,,,,,,,,,,,,,,,,,,,,,,,,,,,,,,,,,,,,,,,,,,,,,,,,,,,,,,,,,,,,,,
1702360697,1702360697,47,0,4248.077148,4213.846191,4276.666504,4227.94873,4276.410156,4247.820313,4239.230957,4247.179688,4232.307617,4201.282227,4430.512695,4423.333496,4415,4382.307617,0,3,58,,,,0,4,4,4,4,4,4,4,4,4,4,4,4,4,4,100,,,,,,,,,,,,,,,,,,,,,,,,,,,,,,,,,,,,,,,,,,,,,,,,,,,,,,,,,,,,,,,,,,,,,,,,,,,,,,,,,,,,,,,,,,,,,,,,,,,,,,,,,,,,,,,,,,,,,,,,,,,,,,,,,,,,,,
1702360697,1702360697,48,0,4251.282227,4211.282227,4280.641113,4230.384766,4273.974121,4249.102539,4241.025879,4250.769043,4233.461426,4205.897461,4430.641113,4425.769043,4412.692383,4383.205078,0,3,58,,,,0,4,4,4,4,4,4,4,4,4,4,4,4,4,4,100,,,,,,,,,,,,,,,,,12,0,0.690165,-0.210083,-0.68335,-0.112122,0.984007,-0.146502,-0.028324,-12.125306,-4.775173,88.910767,,,,,,,,,,,,,,,,,,,,,,,,,,,,,,,,,,,,,,,,,,,,,,,,,,,,,,,,,,,,,,,,,,,,,,,,,,,,,,,,,,,,,,,,,,,,,,,,,,,,,,,,,,
1702360697,1702360697,49,0,4261.025879,4213.717773,4285,4239.615234,4277.179688,4253.205078,4241.025879,4250.384766,4231.922852,4199.102539,4432.692383,4426.282227,4412.05127,4392.179688,0,3,58,,,,0,4,4,4,4,4,4,4,4,4,4,4,4,4,4,100,,,,,,,,,,,,,,,,,,,,,,,,,,,,,,,,,,,,,,,,,,,,,,,,,,,,,,,,,,,,,,,,,,,,,,,,,,,,,,,,,,,,,,,,,,,,,,,,,,,,,,,,,,,,,,,,,,,,,,,,,,,,,,,,,,,,,,
1702360697,1702360697,50,0,4266.410156,4221.666504,4294.102539,4250.641113,4282.820313,4258.205078,4241.410156,4246.025879,4231.282227,4197.05127,4438.717773,4427.692383,4416.025879,4396.794922,0,3,58,,,,0,4,4,4,4,4,4,4,4,4,4,4,4,4,4,100,,,,,,,,,,,,,,,,,,,,,,,,,,,,,,,,,,,,,,,,,,,,,,,,,,,,,,,,,,,,,,,,,,,,,,,,,,,,,,,,,,,,,,,,,,,,,,,,,,,,,,,,,,,,,,,,,,,,,,,,,,,,,,,,,,,,,,
1702360697,1702360697,51,0,4272.563965,4235,4300.384766,4259.487305,4281.025879,4264.230957,4245.897461,4254.230957,4240,4215,4452.436035,4439.615234,4428.333496,4402.692383,0,3,58,,,,0,4,4,4,4,4,4,4,4,4,4,4,4,4,4,100,,,,,,,,,,,,,,,,,,,,,,,,,,,,,,,,,,,,,,,,,,,,,,,,,,,,,,,,,,,,,,,,,,,,,,,,,,,,,,,,,,,,,,,,,,,,,,,,,,,,,,,,,,,,,,,,,,,,,,,,,,,,,,,,,,,,,,
1702360697,1702360697,52,0,4273.077148,4233.589844,4298.077148,4261.025879,4278.589844,4262.05127,4249.743652,4261.410156,4242.05127,4218.974121,4454.230957,4444.871582,4427.820313,4401.025879,0,3,58,,,,0,4,4,4,4,4,4,4,4,4,4,4,4,4,4,100,,,,,,,,,,,,,,,,,13,0,0.690146,-0.210144,-0.68335,-0.112122,0.996215,-0.138689,-0.034672,-12.079442,-4.680989,89.036354,,,,,,,,,,,,,,,,,,,,,,,,,,,,,,,,,,,,,,,,,,,,,,,,,,,,,,,,,,,,,,,,,,,,,,,,,,,,,,,,,,,,,,,,,,,,,,,,,,,,,,,,,,
1702360697,1702360697,53,0,4264.102539,4219.102539,4294.102539,4252.94873,4284.230957,4255,4247.563965,4253.461426,4234.487305,4199.358887,4440.769043,4431.282227,4412.563965,4390.384766,0,3,58,,,,0,4,4,4,4,4,4,4,4,4,4,4,4,4,4,100,,,,,,,,,,,,,,,,,,,,,,,,,,,,,,,,,,,,,,,,,,,,,,,,,,,,,,,,,,,,,,,,,,,,,,,,,,,,,,,,,,,,,,,,,,,,,,,,,,,,,,,,,,,,,,,,,,,,,,,,,,,,,,,,,,,,,,
1702360697,1702360697,54,0,4259.743652,4220,4292.820313,4251.025879,4284.230957,4257.05127,4247.179688,4253.589844,4236.922852,4199.871582,4438.205078,4429.743652,4409.358887,4389.615234,0,3,58,,,,0,4,4,4,4,4,4,4,4,4,4,4,4,4,4,100,,,,,,,,,,,,,,,,,,,,,,,,,,,,,,,,,,,,,,,,,,,,,,,,,,,,,,,,,,,,,,,,,,,,,,,,,,,,,,,,,,,,,,,,,,,,,,,,,,,,,,,,,,,,,,,,,,,,,,,,,,,,,,,,,,,,,,
1702360697,1702360697,55,0,4267.820313,4232.436035,4297.307617,4261.922852,4281.282227,4262.692383,4252.307617,4263.589844,4245.897461,4219.615234,4450.256348,4443.461426,4422.563965,4399.230957,0,3,58,,,,0,4,4,4,4,4,4,4,4,4,4,4,4,4,4,100,,,,,,,,,,,,,,,,,,,,,,,,,,,,,,,,,,,,,,,,,,,,,,,,,,,,,,,,,,,,,,,,,,,,,,,,,,,,,,,,,,,,,,,,,,,,,,,,,,,,,,,,,,,,,,,,,,,,,,,,,,,,,,,,,,,,,,
1702360697,1702360697,56,0,4270.384766,4234.743652,4298.717773,4264.743652,4277.820313,4263.589844,4250.384766,4256.410156,4238.974121,4219.358887,4448.333496,4439.230957,4423.717773,4400.128418,0,3,58,,,,0,4,4,4,4,4,4,4,4,4,4,4,4,4,4,100,,,,,,,,,,,,,,,,,14,0,0.690143,-0.210022,-0.683411,-0.112,0.98303,-0.134294,-0.02637,-12.238165,-4.596223,89.099388,,,,,,,,,,,,,,,,,,,,,,,,,,,,,,,,,,,,,,,,,,,,,,,,,,,,,,,,,,,,,,,,,,,,,,,,,,,,,,,,,,,,,,,,,,,,,,,,,,,,,,,,,,
1702360697,1702360697,57,0,4266.794922,4230.256348,4294.743652,4260.128418,4270.512695,4258.717773,4246.922852,4243.589844,4227.307617,4207.05127,4434.230957,4427.820313,4411.282227,4395.256348,0,3,58,,,,0,4,4,4,4,4,4,4,4,4,4,4,4,4,4,100,,,,,,,,,,,,,,,,,,,,,,,,,,,,,,,,,,,,,,,,,,,,,,,,,,,,,,,,,,,,,,,,,,,,,,,,,,,,,,,,,,,,,,,,,,,,,,,,,,,,,,,,,,,,,,,,,,,,,,,,,,,,,,,,,,,,,,
1702360697,1702360697,58,0,4268.846191,4228.205078,4295.897461,4262.563965,4268.717773,4252.563965,4248.589844,4247.307617,4230.128418,4203.077148,4433.461426,4428.974121,4414.102539,4397.820313,0,3,58,,,,0,4,4,4,4,4,4,4,4,4,4,4,4,4,4,100,,,,,,,,,,,,,,,,,,,,,,,,,,,,,,,,,,,,,,,,,,,,,,,,,,,,,,,,,,,,,,,,,,,,,,,,,,,,,,,,,,,,,,,,,,,,,,,,,,,,,,,,,,,,,,,,,,,,,,,,,,,,,,,,,,,,,,
1702360697,1702360697,59,0,4276.153809,4232.820313,4302.436035,4266.922852,4277.436035,4254.102539,4250.769043,4255.512695,4237.94873,4200.512695,4441.410156,4436.666504,4426.922852,4405,0,3,58,,,,0,4,4,4,4,4,4,4,4,4,4,4,4,4,4,100,,,,,,,,,,,,,,,,,,,,,,,,,,,,,,,,,,,,,,,,,,,,,,,,,,,,,,,,,,,,,,,,,,,,,,,,,,,,,,,,,,,,,,,,,,,,,,,,,,,,,,,,,,,,,,,,,,,,,,,,,,,,,,,,,,,,,,
1702360697,1702360697,60,0,4281.410156,4242.436035,4305.512695,4267.05127,4278.461426,4264.102539,4251.666504,4266.025879,4247.307617,4208.077148,4451.282227,4445.897461,4429.615234,4412.563965,0,3,58,,,,0,4,4,4,4,4,4,4,4,4,4,4,4,4,4,100,,,,,,,,,,,,,,,,,15,0,0.690102,-0.210022,-0.683472,-0.111877,0.988402,-0.140642,-0.021975,-12.114348,-4.536601,88.972778,,,,,,,,,,,,,,,,,,,,,,,,,,,,,,,,,,,,,,,,,,,,,,,,,,,,,,,,,,,,,,,,,,,,,,,,,,,,,,,,,,,,,,,,,,,,,,,,,,,,,,,,,,
1702360697,1702360697,61,0,4278.974121,4242.307617,4298.717773,4265,4268.205078,4264.230957,4249.615234,4275.512695,4253.974121,4223.589844,4458.461426,4450,4430.128418,4413.974121,0,3,58,,,,0,4,4,4,4,4,4,4,4,4,4,4,4,4,4,100,,,,,,,,,,,,,,,,,,,,,,,,,,,,,,,,,,,,,,,,,,,,,,,,,,,,,,,,,,,,,,,,,6.551591,1.377585,0.439473,0.276918,0.119742,21.857897,4.138052,1.464724,0.523426,0.218536,3.110158,0.951272,0.241982,0.239232,0.17197,5.966434,1.068084,0.407249,0.494612,0.1762,1.351856,0.738013,0.128255,0.228295,0.133779,0.198688,0.069321,0.079672,0.179632,0.081701,0.763323,0.275773,0.151572,0.164491,0.084829,2.268777,0.476518,0.525211,0.226359,0.103785,2.600077,0.334703,0.235802,0.162545,0.189699,1.594062,1.007104,0.378308,0.498045,0.372925,5.568105,1.331523,0.827777,0.317769,0.136871,3.325212,1.039278,0.471418,0.275409,0.1106,11.351284,1.729986,0.778345,0.412765,0.247226,6.78428,1.457819,0.627755,0.418834,0.171495
1702360697,1702360697,62,0,4274.871582,4234.230957,4295,4267.179688,4265.641113,4258.974121,4247.94873,4270.641113,4251.538574,4225.256348,4458.333496,4447.820313,4432.563965,4406.410156,0,3,58,,,,0,4,4,4,4,4,4,4,4,4,4,4,4,4,4,100,,,,,,,,,,,,,,,,,,,,,,,,,,,,,,,,,,,,,,,,,,,,,,,,,,,,,,,,,,,,,,,,,,,,,,,,,,,,,,,,,,,,,,,,,,,,,,,,,,,,,,,,,,,,,,,,,,,,,,,,,,,,,,,,,,,,,,
1702360697,1702360697,63,0,4271.410156,4233.589844,4296.282227,4265.641113,4265.256348,4260,4246.153809,4262.179688,4245.384766,4206.153809,4448.205078,4437.563965,4422.692383,4394.102539,0,3,58,,,,0,4,4,4,4,4,4,4,4,4,4,4,4,4,4,100,,,,,,,,,,,,,,,,,,,,,,,,,,,,,,,,,,,,,,,,,,,,,,,,,,,,,,,,,,,,,,,,,,,,,,,,,,,,,,,,,,,,,,,,,,,,,,,,,,,,,,,,,,,,,,,,,,,,,,,,,,,,,,,,,,,,,,
1702360697,1702360697,64,0,4272.179688,4233.974121,4293.974121,4261.922852,4264.230957,4254.102539,4245.897461,4264.102539,4246.666504,4194.871582,4442.307617,4430.897461,4418.717773,4388.846191,5419,3,58,,,,0,4,4,4,4,4,4,4,4,4,4,4,4,4,4,100,,,,,,,,,,,,,,,,,16,0,0.690162,-0.210022,-0.683411,-0.111877,0.984984,-0.139665,-0.027347,-12.152913,-4.549608,89.008835,,,,,,,,,,,,,,,,,,,,,,,,,,,,,,,,,,,,,,,,,,,,,,,,,,,,,,,,,,,,,,,,,,,,,,,,,,,,,,,,,,,,,,,,,,,,,,,,,,,,,,,,,,
1702360697,1702360697,65,0,4278.077148,4234.487305,4293.846191,4270.384766,4267.05127,4247.436035,4249.102539,4267.307617,4252.05127,4211.794922,4453.461426,4441.025879,4431.794922,4397.563965,5507,3,58,,,,0,4,4,4,4,4,4,4,4,4,4,4,4,4,4,100,,,,,,,,,,,,,,,,,,,,,,,,,,,,,,,,,,,,,,,,,,,,,,,,,,,,,,,,,,,,,,,,,,,,,,,,,,,,,,,,,,,,,,,,,,,,,,,,,,,,,,,,,,,,,,,,,,,,,,,,,,,,,,,,,,,,,,
1702360697,1702360697,66,0,4280,4240.128418,4296.282227,4278.974121,4262.436035,4254.358887,4250.512695,4263.077148,4247.692383,4216.153809,4458.077148,4445.256348,4430.256348,4405.384766,5365,3,58,,,,0,4,4,4,4,4,4,4,4,4,4,4,4,4,4,100,,,,,,,,,,,,,,,,,,,,,,,,,,,,,,,,,,,,,,,,,,,,,,,,,,,,,,,,,,,,,,,,,,,,,,,,,,,,,,,,,,,,,,,,,,,,,,,,,,,,,,,,,,,,,,,,,,,,,,,,,,,,,,,,,,,,,,
1702360697,1702360697,67,0,4277.307617,4239.871582,4295.384766,4276.025879,4256.282227,4259.358887,4249.230957,4257.436035,4245.128418,4199.358887,4447.692383,4430.512695,4416.922852,4398.589844,5375,3,58,,,,0,4,4,4,4,4,4,4,4,4,4,4,4,4,4,100,,,,,,,,,,,,,,,,,,,,,,,,,,,,,,,,,,,,,,,,,,,,,,,,,,,,,,,,,,,,,,,,,,,,,,,,,,,,,,,,,,,,,,,,,,,,,,,,,,,,,,,,,,,,,,,,,,,,,,,,,,,,,,,,,,,,,,
1702360697,1702360697,68,0,4272.05127,4233.333496,4293.589844,4270.384766,4263.205078,4258.333496,4249.487305,4253.589844,4249.102539,4203.333496,4442.307617,4426.153809,4416.153809,4389.358887,5332,3,58,,,,0,4,4,4,4,4,4,4,4,4,4,4,4,4,4,100,,,,,,,,,,,,,,,,,17,0,0.690012,-0.210022,-0.683533,-0.112061,0.973752,-0.125015,-0.022464,-11.870955,-4.544647,89.057953,,,,,,,,,,,,,,,,,,,,,,,,,,,,,,,,,,,,,,,,,,,,,,,,,,,,,,,,,,,,,,,,,,,,,,,,,,,,,,,,,,,,,,,,,,,,,,,,,,,,,,,,,,
1702360697,1702360697,69,0,4267.05127,4234.230957,4290,4267.05127,4263.333496,4259.487305,4247.692383,4248.717773,4240.384766,4211.025879,4440.769043,4429.487305,4417.94873,4387.307617,5207,3,58,,,,0,4,4,4,4,4,4,4,4,4,4,4,4,4,4,100,,,,,,,,,,,,,,,,,,,,,,,,,,,,,,,,,,,,,,,,,,,,,,,,,,,,,,,,,,,,,,,,,,,,,,,,,,,,,,,,,,,,,,,,,,,,,,,,,,,,,,,,,,,,,,,,,,,,,,,,,,,,,,,,,,,,,,
1702360697,1702360697,70,0,4263.717773,4236.282227,4281.538574,4264.230957,4248.974121,4258.717773,4245.384766,4246.666504,4231.666504,4192.436035,4433.589844,4421.153809,4411.153809,4385.641113,5108,3,58,,,,0,4,4,4,4,4,4,4,4,4,4,4,4,4,4,100,,,,,,,,,,,,,,,,,,,,,,,,,,,,,,,,,,,,,,,,,,,,,,,,,,,,,,,,,,,,,,,,,,,,,,,,,,,,,,,,,,,,,,,,,,,,,,,,,,,,,,,,,,,,,,,,,,,,,,,,,,,,,,,,,,,,,,
1702360698,1702360698,71,0,4261.666504,4233.846191,4275.897461,4261.410156,4250.512695,4256.282227,4244.871582,4246.410156,4236.282227,4184.487305,4430.128418,4416.153809,4408.461426,4382.94873,5151,3,58,,,,0,4,4,4,4,4,4,4,4,4,4,4,4,4,4,100,,,,,,,,,,,,,,,,,,,,,,,,,,,,,,,,,,,,,,,,,,,,,,,,,,,,,,,,,,,,,,,,,,,,,,,,,,,,,,,,,,,,,,,,,,,,,,,,,,,,,,,,,,,,,,,,,,,,,,,,,,,,,,,,,,,,,,
1702360698,1702360698,72,0,4265.128418,4239.615234,4283.846191,4261.538574,4259.743652,4261.666504,4245.769043,4254.230957,4247.436035,4202.179688,4438.974121,4427.94873,4418.205078,4389.102539,5302,3,58,,,,0,4,4,4,4,4,4,4,4,4,4,4,4,4,4,100,,,,,,,,,,,,,,,,,18,0,0.689975,-0.210144,-0.683533,-0.112061,0.973752,-0.133317,-0.016604,-12.117193,-4.656849,89.102158,,,,,,,,,,,,,,,,,,,,,,,,,,,,,,,,,,,,,,,,,,,,,,,,,,,,,,,,,,,,,,,,,,,,,,,,,,,,,,,,,,,,,,,,,,,,,,,,,,,,,,,,,,
1702360698,1702360698,73,0,4274.871582,4250.769043,4296.410156,4269.743652,4257.179688,4265.641113,4255.512695,4268.846191,4258.717773,4213.589844,4452.692383,4444.102539,4430.128418,4404.487305,5357,3,58,,,,0,4,4,4,4,4,4,4,4,4,4,4,4,4,4,100,,,,,,,,,,,,,,,,,,,,,,,,,,,,,,,,,,,,,,,,,,,,,,,,,,,,,,,,,,,,,,,,,,,,,,,,,,,,,,,,,,,,,,,,,,,,,,,,,,,,,,,,,,,,,,,,,,,,,,,,,,,,,,,,,,,,,,
1702360698,1702360698,74,0,4282.05127,4248.589844,4298.717773,4280.384766,4264.615234,4264.487305,4263.461426,4271.666504,4257.820313,4216.666504,4458.717773,4448.333496,4431.025879,4408.333496,5866,3,58,,,,0,4,4,4,4,4,4,4,4,4,4,4,4,4,4,100,,,,,,,,,,,,,,,,,,,,,,,,,,,,,,,,,,,,,,,,,,,,,,,,,,,,,,,,,,,,,,,,,,,,,,,,,,,,,,,,,,,,,,,,,,,,,,,,,,,,,,,,,,,,,,,,,,,,,,,,,,,,,,,,,,,,,,
1702360698,1702360698,75,0,4278.846191,4237.94873,4294.743652,4277.692383,4265.128418,4265,4254.615234,4264.743652,4248.717773,4216.922852,4452.179688,4445.256348,4426.282227,4399.615234,6257,3,58,,,,0,4,4,4,4,4,4,4,4,4,4,4,4,4,4,100,,,,,,,,,,,,,,,,,,,,,,,,,,,,,,,,,,,,,,,,,,,,,,,,,,,,,,,,,,,,,,,,,,,,,,,,,,,,,,,,,,,,,,,,,,,,,,,,,,,,,,,,,,,,,,,,,,,,,,,,,,,,,,,,,,,,,,
1702360698,1702360698,76,0,4268.589844,4233.333496,4291.922852,4267.692383,4235.384766,4257.436035,4242.820313,4260.897461,4246.410156,4206.922852,4442.436035,4437.820313,4424.487305,4393.589844,6790,3,58,,,,0,4,4,4,4,4,4,4,4,4,4,4,4,4,4,100,,,,,,,,,,,,,,,,,19,0,0.689965,-0.210144,-0.683533,-0.112122,0.980588,-0.134782,-0.012697,-12.17214,-4.474497,89.058609,,,,,,,,,,,,,,,,,,,,,,,,,,,,,,,,,,,,,,,,,,,,,,,,,,,,,,,,,,,,,,,,,,,,,,,,,,,,,,,,,,,,,,,,,,,,,,,,,,,,,,,,,,
1702360698,1702360698,77,0,4265.769043,4235,4290.256348,4267.563965,4229.102539,4251.410156,4246.153809,4262.307617,4249.615234,4195.256348,4439.743652,4435.256348,4415.512695,4394.102539,7010,3,58,,,,0,4,4,4,4,4,4,4,4,4,4,4,4,4,4,100,,,,,,,,,,,,,,,,,,,,,,,,,,,,,,,,,,,,,,,,,,,,,,,,,,,,,,,,,,,,,,,,,5.173033,1.222885,0.458842,0.293701,0.115545,15.881866,3.512976,1.390478,0.490869,0.206718,2.730414,0.909341,0.286496,0.267099,0.156311,4.330411,1.024657,0.388714,0.487881,0.169761,1.536672,0.788716,0.121435,0.208176,0.128196,0.231047,0.062888,0.058715,0.142437,0.074665,0.82067,0.225427,0.134066,0.152899,0.083981,2.310557,0.390743,0.495787,0.238337,0.117374,2.411091,0.275878,0.207662,0.150179,0.190358,1.47332,1.086522,0.326942,0.471479,0.38832,3.903415,1.414092,0.752866,0.355535,0.148385,2.843335,1.001413,0.444699,0.310872,0.107015,6.752177,1.586286,0.589199,0.421045,0.246012,5.122157,1.451972,0.560023,0.435567,0.163847
1702360698,1702360698,78,0,4275.256348,4235.256348,4292.563965,4277.563965,4260,4260.641113,4253.846191,4264.743652,4247.05127,4197.94873,4438.974121,4442.307617,4405,4395.641113,5866,3,58,,,,0,4,4,4,4,4,4,4,4,4,4,4,4,4,4,100,,,,,,,,,,,,,,,,,,,,,,,,,,,,,,,,,,,,,,,,,,,,,,,,,,,,,,,,,,,,,,,,,,,,,,,,,,,,,,,,,,,,,,,,,,,,,,,,,,,,,,,,,,,,,,,,,,,,,,,,,,,,,,,,,,,,,,
1702360698,1702360698,79,0,4278.717773,4233.846191,4295,4276.794922,4263.717773,4264.871582,4249.871582,4263.205078,4245.128418,4202.436035,4442.05127,4440.256348,4415.641113,4394.487305,6257,3,58,,,,0,4,4,4,4,4,4,4,4,4,4,4,4,4,4,100,,,,,,,,,,,,,,,,,,,,,,,,,,,,,,,,,,,,,,,,,,,,,,,,,,,,,,,,,,,,,,,,,,,,,,,,,,,,,,,,,,,,,,,,,,,,,,,,,,,,,,,,,,,,,,,,,,,,,,,,,,,,,,,,,,,,,,
1702360698,1702360698,80,0,4276.410156,4232.820313,4293.461426,4265,4239.615234,4259.358887,4247.94873,4260,4251.794922,4197.05127,4450.384766,4434.230957,4434.743652,4396.282227,6790,3,58,,,,0,4,4,4,4,4,4,4,4,4,4,4,4,4,4,100,,,,,,,,,,,,,,,,,20,0,0.689973,-0.210083,-0.683533,-0.112183,0.984007,-0.141619,-0.025394,-12.154926,-4.443714,89.119415,,,,,,,,,,,,,,,,,,,,,,,,,,,,,,,,,,,,,,,,,,,,,,,,,,,,,,,,,,,,,,,,,,,,,,,,,,,,,,,,,,,,,,,,,,,,,,,,,,,,,,,,,,
1702360698,1702360698,81,0,4287.05127,4235.128418,4300.128418,4267.94873,4239.487305,4262.179688,4255.641113,4263.461426,4260.769043,4213.717773,4462.820313,4446.282227,4452.692383,4407.94873,7010,3,58,,,,0,4,4,4,4,4,4,4,4,4,4,4,4,4,4,100,,,,,,,,,,,,,,,,,,,,,,,,,,,,,,,,,,,,,,,,,,,,,,,,,,,,,,,,,,,,,,,,,,,,,,,,,,,,,,,,,,,,,,,,,,,,,,,,,,,,,,,,,,,,,,,,,,,,,,,,,,,,,,,,,,,,,,
1702360698,1702360698,82,0,4299.102539,4234.743652,4313.974121,4281.153809,4251.538574,4267.307617,4262.94873,4275.128418,4267.307617,4248.333496,4484.743652,4466.153809,4472.820313,4422.05127,5866,3,58,,,,0,4,4,4,4,4,4,4,4,4,4,4,4,4,4,100,,,,,,,,,,,,,,,,,,,,,,,,,,,,,,,,,,,,,,,,,,,,,,,,,,,,,,,,,,,,,,,,,,,,,,,,,,,,,,,,,,,,,,,,,,,,,,,,,,,,,,,,,,,,,,,,,,,,,,,,,,,,,,,,,,,,,,
1702360698,1702360698,83,0,4295.897461,4227.94873,4313.589844,4283.205078,4247.563965,4262.436035,4260.256348,4280.512695,4269.487305,4242.94873,4492.820313,4466.538574,4478.589844,4422.307617,6257,3,58,,,,0,4,4,4,4,4,4,4,4,4,4,4,4,4,4,100,,,,,,,,,,,,,,,,,,,,,,,,,,,,,,,,,,,,,,,,,,,,,,,,,,,,,,,,,,,,,,,,,,,,,,,,,,,,,,,,,,,,,,,,,,,,,,,,,,,,,,,,,,,,,,,,,,,,,,,,,,,,,,,,,,,,,,
1702360698,1702360698,84,0,4288.589844,4226.794922,4302.820313,4276.410156,4241.282227,4260.256348,4253.333496,4273.589844,4268.846191,4215.769043,4475.128418,4454.230957,4467.820313,4412.94873,6790,3,58,,,,0,4,4,4,4,4,4,4,4,4,4,4,4,4,4,100,,,,,,,,,,,,,,,,,21,0,0.689946,-0.210205,-0.683533,-0.112122,0.987914,-0.13234,-0.02344,-12.289433,-4.449343,89.157471,,,,,,,,,,,,,,,,,,,,,,,,,,,,,,,,,,,,,,,,,,,,,,,,,,,,,,,,,,,,,,,,,,,,,,,,,,,,,,,,,,,,,,,,,,,,,,,,,,,,,,,,,,
1702360698,1702360698,85,0,4283.846191,4227.307617,4293.974121,4268.461426,4238.589844,4261.666504,4249.615234,4263.205078,4262.94873,4219.743652,4460.769043,4444.358887,4463.717773,4405.769043,7010,3,58,,,,0,4,4,4,4,4,4,4,4,4,4,4,4,4,4,100,,,,,,,,,,,,,,,,,,,,,,,,,,,,,,,,,,,,,,,,,,,,,,,,,,,,,,,,,,,,,,,,,,,,,,,,,,,,,,,,,,,,,,,,,,,,,,,,,,,,,,,,,,,,,,,,,,,,,,,,,,,,,,,,,,,,,,
1702360698,1702360698,86,0,4279.230957,4219.743652,4287.820313,4260.897461,4230.384766,4259.230957,4248.205078,4260.769043,4259.358887,4226.153809,4462.05127,4438.846191,4465,4401.153809,5866,3,58,,,,0,4,4,4,4,4,4,4,4,4,4,4,4,4,4,100,,,,,,,,,,,,,,,,,,,,,,,,,,,,,,,,,,,,,,,,,,,,,,,,,,,,,,,,,,,,,,,,,,,,,,,,,,,,,,,,,,,,,,,,,,,,,,,,,,,,,,,,,,,,,,,,,,,,,,,,,,,,,,,,,,,,,,
1702360698,1702360698,87,0,4276.153809,4213.846191,4289.230957,4259.358887,4225.384766,4257.692383,4245.512695,4262.820313,4259.615234,4215.128418,4460.897461,4436.153809,4458.333496,4398.717773,6257,3,58,,,,0,4,4,4,4,4,4,4,4,4,4,4,4,4,4,100,,,,,,,,,,,,,,,,,,,,,,,,,,,,,,,,,,,,,,,,,,,,,,,,,,,,,,,,,,,,,,,,,,,,,,,,,,,,,,,,,,,,,,,,,,,,,,,,,,,,,,,,,,,,,,,,,,,,,,,,,,,,,,,,,,,,,,
1702360698,1702360698,88,0,4276.410156,4216.153809,4294.230957,4262.436035,4229.743652,4259.871582,4245.512695,4260.128418,4253.717773,4217.05127,4453.205078,4432.94873,4455.256348,4396.410156,6790,3,58,,,,0,4,4,4,4,4,4,4,4,4,4,4,4,4,4,100,,,,,,,,,,,,,,,,,22,0,0.69004,-0.210327,-0.683411,-0.112061,0.99475,-0.140154,-0.021975,-12.16049,-4.287742,89.158394,,,,,,,,,,,,,,,,,,,,,,,,,,,,,,,,,,,,,,,,,,,,,,,,,,,,,,,,,,,,,,,,,,,,,,,,,,,,,,,,,,,,,,,,,,,,,,,,,,,,,,,,,,
1702360698,1702360698,89,0,4279.358887,4220.641113,4295.256348,4262.94873,4236.538574,4264.871582,4259.487305,4265,4255,4220.897461,4457.179688,4439.102539,4457.436035,4395.897461,7010,3,58,,,,0,4,4,4,4,4,4,4,4,4,4,4,4,4,4,100,,,,,,,,,,,,,,,,,,,,,,,,,,,,,,,,,,,,,,,,,,,,,,,,,,,,,,,,,,,,,,,,,,,,,,,,,,,,,,,,,,,,,,,,,,,,,,,,,,,,,,,,,,,,,,,,,,,,,,,,,,,,,,,,,,,,,,
1702360698,1702360698,90,0,4280.641113,4220.897461,4293.974121,4262.05127,4241.025879,4263.974121,4265.384766,4271.282227,4264.615234,4207.94873,4460.128418,4442.692383,4451.410156,4396.410156,5866,3,58,,,,0,4,4,4,4,4,4,4,4,4,4,4,4,4,4,100,,,,,,,,,,,,,,,,,,,,,,,,,,,,,,,,,,,,,,,,,,,,,,,,,,,,,,,,,,,,,,,,,,,,,,,,,,,,,,,,,,,,,,,,,,,,,,,,,,,,,,,,,,,,,,,,,,,,,,,,,,,,,,,,,,,,,,
1702360698,1702360698,91,0,4275.897461,4219.871582,4293.077148,4261.538574,4234.102539,4259.871582,4253.205078,4265.897461,4263.461426,4201.282227,4451.666504,4432.820313,4442.307617,4390.769043,6257,3,58,,,,0,4,4,4,4,4,4,4,4,4,4,4,4,4,4,100,,,,,,,,,,,,,,,,,,,,,,,,,,,,,,,,,,,,,,,,,,,,,,,,,,,,,,,,,,,,,,,,,,,,,,,,,,,,,,,,,,,,,,,,,,,,,,,,,,,,,,,,,,,,,,,,,,,,,,,,,,,,,,,,,,,,,,
1702360698,1702360698,92,0,4273.589844,4222.179688,4294.358887,4263.205078,4222.94873,4263.846191,4254.230957,4261.282227,4256.922852,4205.769043,4447.563965,4429.487305,4442.563965,4386.282227,6790,3,58,,,,0,4,4,4,4,4,4,4,4,4,4,4,4,4,4,100,,,,,,,,,,,,,,,,,23,0,0.689922,-0.210449,-0.683472,-0.112183,0.984984,-0.134294,-0.022952,-12.127775,-4.175634,89.242554,,,,,,,,,,,,,,,,,,,,,,,,,,,,,,,,,,,,,,,,,,,,,,,,,,,,,,,,,,,,,,,,,,,,,,,,,,,,,,,,,,,,,,,,,,,,,,,,,,,,,,,,,,
1702360698,1702360698,93,0,4274.102539,4226.666504,4292.820313,4262.692383,4226.282227,4267.436035,4266.410156,4265.512695,4255.256348,4206.410156,4450.128418,4433.461426,4445.897461,4385.769043,7010,3,58,,,,0,4,4,4,4,4,4,4,4,4,4,4,4,4,4,100,,,,,,,,,,,,,,,,,,,,,,,,,,,,,,,,,,,,,,,,,,,,,,,,,,,,,,,,,,,,,,,,,4.162858,1.099115,0.549909,0.305495,0.112726,11.133156,2.829635,1.257096,0.437499,0.19134,2.377968,0.865512,0.401066,0.307218,0.142014,3.311419,0.96398,0.425564,0.478689,0.162,1.678293,0.813963,0.130277,0.195043,0.128643,0.286589,0.070163,0.052243,0.119887,0.069901,0.826573,0.205513,0.121686,0.147722,0.082614,2.140422,0.355389,0.44243,0.239795,0.137262,2.173001,0.281677,0.20034,0.145699,0.189328,1.35033,1.076117,0.316777,0.449599,0.406562,2.737571,1.530808,0.730021,0.423104,0.165911,2.428144,0.988026,0.467814,0.367031,0.111288,3.66131,1.543436,0.525861,0.442227,0.25033,3.91057,1.431268,0.582228,0.445706,0.157378
1702360698,1702360698,94,0,4268.846191,4229.871582,4291.025879,4262.179688,4238.333496,4265.256348,4268.077148,4273.461426,4259.358887,4203.205078,4449.358887,4432.563965,4442.05127,4382.692383,5866,3,58,,,,0,4,4,4,4,4,4,4,4,4,4,4,4,4,4,100,,,,,,,,,,,,,,,,,,,,,,,,,,,,,,,,,,,,,,,,,,,,,,,,,,,,,,,,,,,,,,,,,,,,,,,,,,,,,,,,,,,,,,,,,,,,,,,,,,,,,,,,,,,,,,,,,,,,,,,,,,,,,,,,,,,,,,
1702360698,1702360698,95,0,4264.358887,4229.102539,4290.256348,4263.974121,4232.307617,4265.384766,4265.128418,4278.846191,4264.871582,4200.128418,4446.410156,4429.358887,4435.769043,4380.512695,6257,3,58,,,,0,4,4,4,4,4,4,4,4,4,4,4,4,4,4,100,,,,,,,,,,,,,,,,,,,,,,,,,,,,,,,,,,,,,,,,,,,,,,,,,,,,,,,,,,,,,,,,,,,,,,,,,,,,,,,,,,,,,,,,,,,,,,,,,,,,,,,,,,,,,,,,,,,,,,,,,,,,,,,,,,,,,,
1702360698,1702360698,96,0,4264.102539,4220.512695,4284.487305,4260.512695,4219.358887,4265.256348,4264.743652,4278.333496,4265,4206.025879,4445.128418,4428.974121,4430.384766,4382.692383,6790,3,58,,,,0,4,4,4,4,4,4,4,4,4,4,4,4,4,4,100,,,,,,,,,,,,,,,,,24,0,0.68981,-0.210388,-0.683594,-0.112244,0.981565,-0.13234,-0.024417,-12.314998,-4.208071,89.268295,,,,,,,,,,,,,,,,,,,,,,,,,,,,,,,,,,,,,,,,,,,,,,,,,,,,,,,,,,,,,,,,,,,,,,,,,,,,,,,,,,,,,,,,,,,,,,,,,,,,,,,,,,
1702360698,1702360698,97,0,4265.897461,4213.974121,4279.615234,4256.666504,4222.820313,4261.538574,4262.179688,4275.128418,4260.641113,4212.94873,4443.589844,4429.230957,4430.897461,4380.641113,7010,3,58,,,,0,4,4,4,4,4,4,4,4,4,4,4,4,4,4,100,,,,,,,,,,,,,,,,,,,,,,,,,,,,,,,,,,,,,,,,,,,,,,,,,,,,,,,,,,,,,,,,,,,,,,,,,,,,,,,,,,,,,,,,,,,,,,,,,,,,,,,,,,,,,,,,,,,,,,,,,,,,,,,,,,,,,,
1702360698,1702360698,98,0,4270.384766,4223.717773,4288.717773,4260.512695,4231.410156,4263.077148,4263.589844,4276.922852,4263.974121,4210.128418,4446.666504,4432.94873,4440.641113,4381.025879,5866,3,58,,,,0,4,4,4,4,4,4,4,4,4,4,4,4,4,4,100,,,,,,,,,,,,,,,,,,,,,,,,,,,,,,,,,,,,,,,,,,,,,,,,,,,,,,,,,,,,,,,,,,,,,,,,,,,,,,,,,,,,,,,,,,,,,,,,,,,,,,,,,,,,,,,,,,,,,,,,,,,,,,,,,,,,,,
1702360698,1702360698,99,0,4276.410156,4236.153809,4297.307617,4264.743652,4235,4267.307617,4268.333496,4281.922852,4273.974121,4210.769043,4451.666504,4438.846191,4449.871582,4393.461426,6257,3,58,,,,0,4,4,4,4,4,4,4,4,4,4,4,4,4,4,100,,,,,,,,,,,,,,,,,,,,,,,,,,,,,,,,,,,,,,,,,,,,,,,,,,,,,,,,,,,,,,,,,,,,,,,,,,,,,,,,,,,,,,,,,,,,,,,,,,,,,,,,,,,,,,,,,,,,,,,,,,,,,,,,,,,,,,
1702360698,1702360698,100,0,4274.743652,4233.717773,4289.615234,4262.179688,4228.333496,4265,4262.94873,4278.077148,4272.820313,4212.179688,4444.871582,4435.128418,4440.897461,4397.94873,6790,3,58,,,,0,4,4,4,4,4,4,4,4,4,4,4,4,4,4,100,,,,,,,,,,,,,,,,,25,0,0.689619,-0.210388,-0.683777,-0.112305,0.987425,-0.126969,-0.019534,-12.433497,-4.10393,89.258133,,,,,,,,,,,,,,,,,,,,,,,,,,,,,,,,,,,,,,,,,,,,,,,,,,,,,,,,,,,,,,,,,,,,,,,,,,,,,,,,,,,,,,,,,,,,,,,,,,,,,,,,,,
1702360698,1702360698,101,0,4272.436035,4231.410156,4286.922852,4261.794922,4217.692383,4262.179688,4256.410156,4271.153809,4263.333496,4203.333496,4442.179688,4431.538574,4427.94873,4391.282227,7010,3,58,,,,0,4,4,4,4,4,4,4,4,4,4,4,4,4,4,100,,,,,,,,,,,,,,,,,,,,,,,,,,,,,,,,,,,,,,,,,,,,,,,,,,,,,,,,,,,,,,,,,,,,,,,,,,,,,,,,,,,,,,,,,,,,,,,,,,,,,,,,,,,,,,,,,,,,,,,,,,,,,,,,,,,,,,
1702360698,1702360698,102,0,4279.358887,4236.025879,4296.538574,4267.436035,4215.512695,4264.102539,4257.563965,4270.512695,4264.230957,4200.641113,4456.538574,4440.641113,4436.153809,4393.846191,5866,3,58,,,,0,4,4,4,4,4,4,4,4,4,4,4,4,4,4,100,,,,,,,,,,,,,,,,,,,,,,,,,,,,,,,,,,,,,,,,,,,,,,,,,,,,,,,,,,,,,,,,,,,,,,,,,,,,,,,,,,,,,,,,,,,,,,,,,,,,,,,,,,,,,,,,,,,,,,,,,,,,,,,,,,,,,,
1702360698,1702360698,103,0,4282.436035,4235.384766,4298.333496,4267.820313,4216.794922,4263.205078,4253.974121,4269.487305,4268.717773,4202.94873,4460.256348,4446.538574,4447.179688,4399.487305,6257,3,58,,,,0,4,4,4,4,4,4,4,4,4,4,4,4,4,4,100,,,,,,,,,,,,,,,,,,,,,,,,,,,,,,,,,,,,,,,,,,,,,,,,,,,,,,,,,,,,,,,,,,,,,,,,,,,,,,,,,,,,,,,,,,,,,,,,,,,,,,,,,,,,,,,,,,,,,,,,,,,,,,,,,,,,,,
1702360698,1702360698,104,0,4278.846191,4231.410156,4292.94873,4265.769043,4219.102539,4260.256348,4246.153809,4262.692383,4263.461426,4195.384766,4450,4440.256348,4441.282227,4396.025879,6790,3,58,,,,0,4,4,4,4,4,4,4,4,4,4,4,4,4,4,100,,,,,,,,,,,,,,,,,26,0,0.68973,-0.210388,-0.683655,-0.112366,0.989867,-0.134782,-0.016604,-12.490148,-4.176871,89.398987,,,,,,,,,,,,,,,,,,,,,,,,,,,,,,,,,,,,,,,,,,,,,,,,,,,,,,,,,,,,,,,,,,,,,,,,,,,,,,,,,,,,,,,,,,,,,,,,,,,,,,,,,,
1702360698,1702360698,105,0,4280.384766,4234.743652,4296.666504,4274.102539,4230.128418,4263.205078,4253.717773,4261.666504,4260.769043,4206.153809,4453.846191,4441.410156,4437.563965,4398.717773,7010,3,58,,,,0,4,4,4,4,4,4,4,4,4,4,4,4,4,4,100,,,,,,,,,,,,,,,,,,,,,,,,,,,,,,,,,,,,,,,,,,,,,,,,,,,,,,,,,,,,,,,,,,,,,,,,,,,,,,,,,,,,,,,,,,,,,,,,,,,,,,,,,,,,,,,,,,,,,,,,,,,,,,,,,,,,,,
1702360698,1702360698,106,0,4283.205078,4236.282227,4301.922852,4278.205078,4237.692383,4265.512695,4262.05127,4266.538574,4264.230957,4218.717773,4462.436035,4448.974121,4444.358887,4403.205078,5866,3,58,,,,0,4,4,4,4,4,4,4,4,4,4,4,4,4,4,100,,,,,,,,,,,,,,,,,,,,,,,,,,,,,,,,,,,,,,,,,,,,,,,,,,,,,,,,,,,,,,,,,,,,,,,,,,,,,,,,,,,,,,,,,,,,,,,,,,,,,,,,,,,,,,,,,,,,,,,,,,,,,,,,,,,,,,
1702360698,1702360698,107,0,4281.410156,4230.897461,4297.820313,4266.282227,4231.410156,4263.846191,4254.230957,4264.743652,4262.692383,4203.846191,4458.205078,4444.743652,4446.025879,4398.461426,6257,3,58,,,,0,4,4,4,4,4,4,4,4,4,4,4,4,4,4,100,,,,,,,,,,,,,,,,,,,,,,,,,,,,,,,,,,,,,,,,,,,,,,,,,,,,,,,,,,,,,,,,,,,,,,,,,,,,,,,,,,,,,,,,,,,,,,,,,,,,,,,,,,,,,,,,,,,,,,,,,,,,,,,,,,,,,,
1702360698,1702360698,108,0,4280.512695,4232.307617,4293.589844,4254.871582,4233.589844,4262.692383,4250.128418,4262.436035,4259.871582,4202.307617,4454.743652,4438.717773,4445.897461,4398.589844,6790,3,58,,,,0,4,4,4,4,4,4,4,4,4,4,4,4,4,4,100,,,,,,,,,,,,,,,,,27,0,0.689631,-0.21051,-0.683777,-0.112,0.979123,-0.131364,-0.026859,-12.741133,-4.225851,89.425758,,,,,,,,,,,,,,,,,,,,,,,,,,,,,,,,,,,,,,,,,,,,,,,,,,,,,,,,,,,,,,,,,,,,,,,,,,,,,,,,,,,,,,,,,,,,,,,,,,,,,,,,,,
1702360698,1702360698,109,0,4277.436035,4231.666504,4291.538574,4249.102539,4237.05127,4254.743652,4253.974121,4265,4254.487305,4212.179688,4450.512695,4433.205078,4442.692383,4397.94873,7010,3,58,,,,0,4,4,4,4,4,4,4,4,4,4,4,4,4,4,100,1,91.666664,4,4,4,4,3,4,4,4,4,4,4,4,4,4,,,,,,,,,,,,,,,,,,,,,,,,,,,,,,,,,,,,,,,,,,,,,,,,,3.567098,0.988006,0.690405,0.30468,0.113481,8.048341,2.154981,1.095985,0.370774,0.180736,2.149254,0.796033,0.563592,0.346159,0.133554,3.025039,0.874986,0.506482,0.466836,0.155977,1.780834,0.804827,0.154296,0.191939,0.138893,0.343907,0.084658,0.062224,0.116684,0.067199,0.775905,0.20784,0.11724,0.148404,0.080641,1.840079,0.365481,0.38314,0.235165,0.159732,2.036254,0.366405,0.217501,0.15288,0.185884,1.344065,0.997122,0.364385,0.447662,0.432878,2.344641,1.657482,0.73419,0.504806,0.187015,2.247856,0.96958,0.52615,0.428822,0.126515,2.386727,1.598763,0.577078,0.461917,0.267221,3.242768,1.370041,0.677272,0.44244,0.158184
1702360698,1702360698,110,0,4271.666504,4221.666504,4288.717773,4243.333496,4230.641113,4247.179688,4248.333496,4262.94873,4245,4200.769043,4441.794922,4428.717773,4433.461426,4390.769043,5866,3,58,,,,0,4,4,4,4,4,4,4,4,4,4,4,4,4,4,100,,,,,,,,,,,,,,,,,,,,,,,,,,,,,,,,,,,,,,,,,,,,,,,,,,,,,,,,,,,,,,,,,,,,,,,,,,,,,,,,,,,,,,,,,,,,,,,,,,,,,,,,,,,,,,,,,,,,,,,,,,,,,,,,,,,,,,
1702360698,1702360698,111,0,4277.179688,4223.589844,4291.794922,4245.641113,4235.769043,4256.410156,4248.717773,4265.384766,4251.153809,4199.743652,4449.871582,4438.205078,4438.974121,4400.384766,6257,3,58,,,,0,4,4,4,4,4,4,4,4,4,4,4,4,4,4,100,,,,,,,,,,,,,,,,,,,,,,,,,,,,,,,,,,,,,,,,,,,,,,,,,,,,,,,,,,,,,,,,,,,,,,,,,,,,,,,,,,,,,,,,,,,,,,,,,,,,,,,,,,,,,,,,,,,,,,,,,,,,,,,,,,,,,,
1702360698,1702360698,112,0,4287.307617,4232.307617,4299.871582,4249.230957,4242.94873,4266.025879,4256.410156,4271.282227,4261.666504,4218.846191,4463.461426,4447.820313,4448.589844,4413.077148,6790,3,58,,,,0,4,4,4,4,4,4,4,4,4,4,4,4,4,4,100,,,,,,,,,,,,,,,,,28,0,0.689585,-0.210693,-0.683777,-0.111938,0.972775,-0.131852,-0.031742,-12.650353,-4.286599,89.399849,,,,,,,,,,,,,,,,,,,,,,,,,,,,,,,,,,,,,,,,,,,,,,,,,,,,,,,,,,,,,,,,,,,,,,,,,,,,,,,,,,,,,,,,,,,,,,,,,,,,,,,,,,
1702360698,1702360698,113,0,4290,4229.871582,4304.102539,4245.384766,4248.589844,4258.205078,4252.820313,4269.102539,4253.461426,4220,4461.666504,4444.230957,4444.102539,4404.871582,7010,3,58,,,,0,4,4,4,4,4,4,4,4,4,4,4,4,4,4,100,,,,,,,,,,,,,,,,,,,,,,,,,,,,,,,,,,,,,,,,,,,,,,,,,,,,,,,,,,,,,,,,,,,,,,,,,,,,,,,,,,,,,,,,,,,,,,,,,,,,,,,,,,,,,,,,,,,,,,,,,,,,,,,,,,,,,,
1702360698,1702360698,114,0,4289.487305,4228.589844,4308.077148,4248.077148,4257.05127,4257.436035,4250.897461,4264.230957,4245.128418,4217.179688,4460.641113,4444.615234,4442.563965,4402.307617,5866,3,58,,,,0,4,4,4,4,4,4,4,4,4,4,4,4,4,4,100,,,,,,,,,,,,,,,,,,,,,,,,,,,,,,,,,,,,,,,,,,,,,,,,,,,,,,,,,,,,,,,,,,,,,,,,,,,,,,,,,,,,,,,,,,,,,,,,,,,,,,,,,,,,,,,,,,,,,,,,,,,,,,,,,,,,,,
1702360698,1702360698,115,0,4286.025879,4233.205078,4310.512695,4251.025879,4253.846191,4265.256348,4258.589844,4262.563965,4247.436035,4215,4460.512695,4443.333496,4443.461426,4409.487305,6257,3,58,,,,0,4,4,4,4,4,4,4,4,4,4,4,4,4,4,100,,,,,,,,,,,,,,,,,,,,,,,,,,,,,,,,,,,,,,,,,,,,,,,,,,,,,,,,,,,,,,,,,,,,,,,,,,,,,,,,,,,,,,,,,,,,,,,,,,,,,,,,,,,,,,,,,,,,,,,,,,,,,,,,,,,,,,
1702360698,1702360698,116,0,4281.922852,4233.333496,4307.307617,4247.820313,4241.538574,4264.102539,4259.615234,4258.974121,4246.794922,4207.307617,4453.077148,4435.897461,4435.512695,4402.820313,6790,3,58,,,,0,4,4,4,4,4,4,4,4,4,4,4,4,4,4,100,,,,,,,,,,,,,,,,,29,0,0.689585,-0.210693,-0.683777,-0.111938,0.982053,-0.130387,-0.039556,-12.751985,-4.274605,89.393196,,,,,,,,,,,,,,,,,,,,,,,,,,,,,,,,,,,,,,,,,,,,,,,,,,,,,,,,,,,,,,,,,,,,,,,,,,,,,,,,,,,,,,,,,,,,,,,,,,,,,,,,,,
1702360698,1702360698,117,0,4289.358887,4238.333496,4308.461426,4253.974121,4246.282227,4265.512695,4258.974121,4260.769043,4246.538574,4217.94873,4453.333496,4444.487305,4435.256348,4400.641113,7010,3,58,,,,0,4,4,4,4,4,4,4,4,4,4,4,4,4,4,100,,,,,,,,,,,,,,,,,,,,,,,,,,,,,,,,,,,,,,,,,,,,,,,,,,,,,,,,,,,,,,,,,,,,,,,,,,,,,,,,,,,,,,,,,,,,,,,,,,,,,,,,,,,,,,,,,,,,,,,,,,,,,,,,,,,,,,
1702360698,1702360698,118,0,4301.282227,4248.589844,4316.153809,4265.384766,4260.512695,4275.769043,4264.230957,4272.307617,4256.153809,4228.974121,4467.94873,4460.128418,4448.717773,4416.666504,5866,3,58,,,,0,4,4,4,4,4,4,4,4,4,4,4,4,4,4,100,,,,,,,,,,,,,,,,,,,,,,,,,,,,,,,,,,,,,,,,,,,,,,,,,,,,,,,,,,,,,,,,,,,,,,,,,,,,,,,,,,,,,,,,,,,,,,,,,,,,,,,,,,,,,,,,,,,,,,,,,,,,,,,,,,,,,,
1702360698,1702360698,119,0,4302.307617,4252.179688,4322.05127,4267.94873,4262.820313,4278.461426,4265,4278.717773,4265,4232.563965,4482.563965,4463.846191,4458.974121,4426.794922,6257,3,58,,,,0,4,4,4,4,4,4,4,4,4,4,4,4,4,4,100,,,,,,,,,,,,,,,,,,,,,,,,,,,,,,,,,,,,,,,,,,,,,,,,,,,,,,,,,,,,,,,,,,,,,,,,,,,,,,,,,,,,,,,,,,,,,,,,,,,,,,,,,,,,,,,,,,,,,,,,,,,,,,,,,,,,,,
1702360698,1702360698,120,0,4299.102539,4251.538574,4320.256348,4266.410156,4262.563965,4270.897461,4262.179688,4275,4268.717773,4249.743652,4486.794922,4464.102539,4461.538574,4422.436035,6790,3,58,,,,0,4,4,4,4,4,4,4,4,4,4,4,4,4,4,100,,,,,,,,,,,,,,,,,30,0,0.689495,-0.210693,-0.683838,-0.112122,0.990844,-0.146502,-0.030765,-12.743453,-4.330478,89.370544,,,,,,,,,,,,,,,,,,,,,,,,,,,,,,,,,,,,,,,,,,,,,,,,,,,,,,,,,,,,,,,,,,,,,,,,,,,,,,,,,,,,,,,,,,,,,,,,,,,,,,,,,,
1702360698,1702360698,121,0,4293.589844,4244.871582,4312.692383,4263.974121,4253.205078,4265.897461,4261.666504,4268.974121,4262.820313,4247.179688,4478.589844,4457.563965,4456.538574,4413.846191,7010,3,58,,,,0,4,4,4,4,4,4,4,4,4,4,4,4,4,4,100,,,,,,,,,,,,,,,,,,,,,,,,,,,,,,,,,,,,,,,,,,,,,,,,,,,,,,,,,,,,,,,,,,,,,,,,,,,,,,,,,,,,,,,,,,,,,,,,,,,,,,,,,,,,,,,,,,,,,,,,,,,,,,,,,,,,,,
1702360698,1702360698,122,0,4283.333496,4238.333496,4304.230957,4256.922852,4240.897461,4264.871582,4260.384766,4261.410156,4250.512695,4221.153809,4469.102539,4443.461426,4444.230957,4405.897461,5866,3,58,,,,0,4,4,4,4,4,4,4,4,4,4,4,4,4,4,100,,,,,,,,,,,,,,,,,,,,,,,,,,,,,,,,,,,,,,,,,,,,,,,,,,,,,,,,,,,,,,,,,,,,,,,,,,,,,,,,,,,,,,,,,,,,,,,,,,,,,,,,,,,,,,,,,,,,,,,,,,,,,,,,,,,,,,
1702360698,1702360698,123,0,4285.512695,4243.589844,4309.487305,4260.512695,4250.897461,4267.692383,4262.563965,4264.615234,4255.769043,4225.256348,4475.641113,4448.717773,4442.563965,4412.307617,6257,3,58,,,,0,4,4,4,4,4,4,4,4,4,4,4,4,4,4,100,,,,,,,,,,,,,,,,,,,,,,,,,,,,,,,,,,,,,,,,,,,,,,,,,,,,,,,,,,,,,,,,,,,,,,,,,,,,,,,,,,,,,,,,,,,,,,,,,,,,,,,,,,,,,,,,,,,,,,,,,,,,,,,,,,,,,,
1702360698,1702360698,124,0,4299.871582,4251.153809,4324.230957,4275.897461,4262.563965,4272.563965,4264.615234,4274.871582,4267.563965,4243.077148,4481.025879,4467.692383,4453.205078,4427.436035,6790,3,58,,,,0,4,4,4,4,4,4,4,4,4,4,4,4,4,4,100,,,,,,,,,,,,,,,,,31,0,0.689527,-0.210754,-0.683777,-0.112183,0.98596,-0.12941,-0.016115,-12.652441,-4.34743,89.350159,,,,,,,,,,,,,,,,,,,,,,,,,,,,,,,,,,,,,,,,,,,,,,,,,,,,,,,,,,,,,,,,,,,,,,,,,,,,,,,,,,,,,,,,,,,,,,,,,,,,,,,,,,
1702360698,1702360698,125,0,4307.820313,4254.358887,4329.487305,4281.794922,4256.794922,4275,4263.974121,4273.461426,4261.922852,4238.717773,4475.384766,4473.461426,4460,4432.94873,7010,3,58,,,,0,4,4,4,4,4,4,4,4,4,4,4,4,4,4,100,,,,,,,,,,,,,,,,,,,,,,,,,,,,,,,,,,,,,,,,,,,,,,,,,,,,,,,,,,,,,,,,,3.223481,0.872571,0.843921,0.292979,0.118152,6.157193,1.552743,0.943507,0.302347,0.179792,2.098289,0.706667,0.740063,0.376913,0.13271,3.150127,0.776699,0.606739,0.452536,0.153487,1.814771,0.755554,0.189523,0.201817,0.166317,0.392557,0.10238,0.084821,0.130868,0.066348,0.702792,0.221677,0.122152,0.154584,0.079484,1.550432,0.423417,0.339527,0.233542,0.179575,2.080297,0.526405,0.260843,0.173797,0.180312,1.565673,0.909631,0.468892,0.481574,0.470607,2.677624,1.778089,0.75665,0.587093,0.209496,2.401973,0.944145,0.606375,0.486407,0.153144,2.526922,1.715752,0.712828,0.473896,0.298388,2.982729,1.259904,0.809487,0.431476,0.168619
1702360698,1702360698,126,0,4306.410156,4257.820313,4328.717773,4279.102539,4258.205078,4272.179688,4263.461426,4265.641113,4255.769043,4235.512695,4481.153809,4471.153809,4461.282227,4432.436035,5866,3,58,,,,0,4,4,4,4,4,4,4,4,4,4,4,4,4,4,100,,,,,,,,,,,,,,,,,,,,,,,,,,,,,,,,,,,,,,,,,,,,,,,,,,,,,,,,,,,,,,,,,,,,,,,,,,,,,,,,,,,,,,,,,,,,,,,,,,,,,,,,,,,,,,,,,,,,,,,,,,,,,,,,,,,,,,
1702360698,1702360698,127,0,4300.641113,4255.641113,4325,4276.153809,4269.102539,4263.333496,4258.077148,4265,4258.077148,4237.179688,4489.102539,4466.666504,4455.897461,4431.153809,58,3,58,,,,0,4,4,4,4,4,4,4,4,4,4,4,4,4,4,100,,,,,,,,,,,,,,,,,,,,,,,,,,,,,,,,,,,,,,,,,,,,,,,,,,,,,,,,,,,,,,,,,,,,,,,,,,,,,,,,,,,,,,,,,,,,,,,,,,,,,,,,,,,,,,,,,,,,,,,,,,,,,,,,,,,,,,
1702360698,1702360698,0,0,4294.615234,4249.102539,4315.769043,4276.794922,4255,4259.871582,4250.512695,4265.897461,4252.94873,4228.333496,4478.974121,4456.666504,4446.922852,4422.692383,5419,3,58,,,,0,4,4,4,4,4,4,4,4,4,4,4,4,4,4,100,,,,,,,,,,,,,,,,,0,0,0.689527,-0.210754,-0.683777,-0.112183,0.961543,-0.137224,-0.020022,-12.653863,-4.362688,89.415138,,,,,,,,,,,,,,,,,,,,,,,,,,,,,,,,,,,,,,,,,,,,,,,,,,,,,,,,,,,,,,,,,,,,,,,,,,,,,,,,,,,,,,,,,,,,,,,,,,,,,,,,,,
1702360698,1702360698,1,0,4294.230957,4250.384766,4310.512695,4278.333496,4236.282227,4264.102539,4250.128418,4262.94873,4246.410156,4223.589844,4465.641113,4448.846191,4443.846191,4416.153809,5512,3,58,,,,0,4,4,4,4,4,4,4,4,4,4,4,4,4,4,100,,,,,,,,,,,,,,,,,,,,,,,,,,,,,,,,,,,,,,,,,,,,,,,,,,,,,,,,,,,,,,,,,,,,,,,,,,,,,,,,,,,,,,,,,,,,,,,,,,,,,,,,,,,,,,,,,,,,,,,,,,,,,,,,,,,,,,
1702360698,1702360698,2,0,4294.102539,4253.205078,4311.282227,4273.205078,4241.410156,4265.641113,4251.794922,4262.179688,4249.615234,4226.282227,4463.333496,4447.05127,4442.436035,4416.538574,5367,3,58,,,,0,4,4,4,4,4,4,4,4,4,4,4,4,4,4,100,,,,,,,,,,,,,,,,,,,,,,,,,,,,,,,,,,,,,,,,,,,,,,,,,,,,,,,,,,,,,,,,,,,,,,,,,,,,,,,,,,,,,,,,,,,,,,,,,,,,,,,,,,,,,,,,,,,,,,,,,,,,,,,,,,,,,,
1702360698,1702360698,3,0,4289.743652,4250.769043,4308.589844,4267.820313,4252.05127,4264.743652,4251.410156,4264.230957,4251.794922,4228.589844,4463.333496,4445.384766,4437.05127,4414.615234,5382,3,58,,,,0,4,4,4,4,4,4,4,4,4,4,4,4,4,4,100,,,,,,,,,,,,,,,,,,,,,,,,,,,,,,,,,,,,,,,,,,,,,,,,,,,,,,,,,,,,,,,,,,,,,,,,,,,,,,,,,,,,,,,,,,,,,,,,,,,,,,,,,,,,,,,,,,,,,,,,,,,,,,,,,,,,,,
1702360698,1702360698,4,0,4287.05127,4248.846191,4304.102539,4274.615234,4250.256348,4262.820313,4251.025879,4263.205078,4248.974121,4235.641113,4467.94873,4444.615234,4433.461426,4411.538574,5345,3,58,,,,0,4,4,4,4,4,4,4,4,4,4,4,4,4,4,100,,,,,,,,,,,,,,,,,1,0,0.689666,-0.210693,-0.683655,-0.112183,0.989867,-0.126969,-0.028812,-12.488477,-4.326419,89.423622,,,,,,,,,,,,,,,,,,,,,,,,,,,,,,,,,,,,,,,,,,,,,,,,,,,,,,,,,,,,,,,,,,,,,,,,,,,,,,,,,,,,,,,,,,,,,,,,,,,,,,,,,,
1702360698,1702360698,5,0,4284.230957,4250,4301.538574,4278.461426,4238.846191,4260,4250.128418,4261.282227,4245.128418,4233.717773,4472.94873,4447.307617,4431.410156,4412.307617,5207,3,58,,,,0,4,4,4,4,4,4,4,4,4,4,4,4,4,4,100,,,,,,,,,,,,,,,,,,,,,,,,,,,,,,,,,,,,,,,,,,,,,,,,,,,,,,,,,,,,,,,,,,,,,,,,,,,,,,,,,,,,,,,,,,,,,,,,,,,,,,,,,,,,,,,,,,,,,,,,,,,,,,,,,,,,,,
1702360698,1702360698,6,0,4279.230957,4250.512695,4295.897461,4267.436035,4237.820313,4261.666504,4249.358887,4261.282227,4247.05127,4220.384766,4462.820313,4444.487305,4428.461426,4413.077148,5108,3,58,,,,0,4,4,4,4,4,4,4,4,4,4,4,4,4,4,100,,,,,,,,,,,,,,,,,,,,,,,,,,,,,,,,,,,,,,,,,,,,,,,,,,,,,,,,,,,,,,,,,,,,,,,,,,,,,,,,,,,,,,,,,,,,,,,,,,,,,,,,,,,,,,,,,,,,,,,,,,,,,,,,,,,,,,
1702360698,1702360698,7,0,4276.025879,4247.563965,4292.436035,4265.128418,4246.025879,4259.358887,4248.333496,4261.538574,4251.922852,4218.589844,4452.307617,4432.563965,4424.871582,4407.94873,5151,3,58,,,,0,4,4,4,4,4,4,4,4,4,4,4,4,4,4,100,,,,,,,,,,,,,,,,,,,,,,,,,,,,,,,,,,,,,,,,,,,,,,,,,,,,,,,,,,,,,,,,,,,,,,,,,,,,,,,,,,,,,,,,,,,,,,,,,,,,,,,,,,,,,,,,,,,,,,,,,,,,,,,,,,,,,,
1702360698,1702360698,8,0,4279.487305,4247.05127,4296.025879,4274.230957,4249.358887,4253.717773,4247.436035,4261.282227,4251.538574,4233.974121,4458.077148,4431.025879,4418.846191,4403.205078,5302,3,58,,,,0,4,4,4,4,4,4,4,4,4,4,4,4,4,4,100,,,,,,,,,,,,,,,,,2,0,0.68973,-0.210815,-0.683533,-0.112305,0.9801,-0.139665,-0.023929,-12.522963,-4.22711,89.331261,,,,,,,,,,,,,,,,,,,,,,,,,,,,,,,,,,,,,,,,,,,,,,,,,,,,,,,,,,,,,,,,,,,,,,,,,,,,,,,,,,,,,,,,,,,,,,,,,,,,,,,,,,
1702360698,1702360698,9,0,4281.025879,4249.743652,4298.205078,4271.025879,4243.589844,4258.461426,4248.974121,4263.461426,4249.102539,4233.974121,4461.282227,4441.282227,4415.256348,4401.922852,5359,3,58,,,,0,4,4,4,4,4,4,4,4,4,4,4,4,4,4,100,,,,,,,,,,,,,,,,,,,,,,,,,,,,,,,,,,,,,,,,,,,,,,,,,,,,,,,,,,,,,,,,,,,,,,,,,,,,,,,,,,,,,,,,,,,,,,,,,,,,,,,,,,,,,,,,,,,,,,,,,,,,,,,,,,,,,,
1702360698,1702360698,10,0,4272.179688,4248.589844,4291.794922,4261.410156,4235.897461,4261.153809,4248.333496,4264.615234,4250,4216.922852,4448.717773,4437.563965,4414.358887,4398.077148,5868,3,58,,,,0,4,4,4,4,4,4,4,4,4,4,4,4,4,4,100,,,,,,,,,,,,,,,,,,,,,,,,,,,,,,,,,,,,,,,,,,,,,,,,,,,,,,,,,,,,,,,,,,,,,,,,,,,,,,,,,,,,,,,,,,,,,,,,,,,,,,,,,,,,,,,,,,,,,,,,,,,,,,,,,,,,,,
1702360698,1702360698,11,0,4268.205078,4247.820313,4287.563965,4267.820313,4240.256348,4258.077148,4247.436035,4262.307617,4248.461426,4218.589844,4441.666504,4426.538574,4411.153809,4393.846191,6257,3,58,,,,0,4,4,4,4,4,4,4,4,4,4,4,4,4,4,100,,,,,,,,,,,,,,,,,,,,,,,,,,,,,,,,,,,,,,,,,,,,,,,,,,,,,,,,,,,,,,,,,,,,,,,,,,,,,,,,,,,,,,,,,,,,,,,,,,,,,,,,,,,,,,,,,,,,,,,,,,,,,,,,,,,,,,
1702360698,1702360698,12,0,4276.025879,4250.897461,4292.820313,4282.820313,4255.769043,4262.563965,4251.025879,4260.897461,4247.436035,4233.461426,4446.666504,4428.974121,4410,4394.743652,6785,3,58,,,,0,4,4,4,4,4,4,4,4,4,4,4,4,4,4,100,,,,,,,,,,,,,,,,,3,0,0.689716,-0.21106,-0.683472,-0.112305,0.972775,-0.144549,-0.024417,-12.387333,-4.387733,89.248138,,,,,,,,,,,,,,,,,,,,,,,,,,,,,,,,,,,,,,,,,,,,,,,,,,,,,,,,,,,,,,,,,,,,,,,,,,,,,,,,,,,,,,,,,,,,,,,,,,,,,,,,,,
1702360698,1702360698,13,0,4276.922852,4253.205078,4297.05127,4280.641113,4262.563965,4267.05127,4252.05127,4265.128418,4251.025879,4233.846191,4450.128418,4433.846191,4412.692383,4397.563965,7010,3,58,,,,0,4,4,4,4,4,4,4,4,4,4,4,4,4,4,100,,,,,,,,,,,,,,,,,,,,,,,,,,,,,,,,,,,,,,,,,,,,,,,,,,,,,,,,,,,,,,,,,2.972464,0.754464,0.972392,0.280353,0.12469,4.829468,1.061053,0.825462,0.245513,0.187189,2.194988,0.626075,0.889659,0.397869,0.138046,3.444918,0.692764,0.696075,0.437256,0.154194,1.71646,0.681098,0.233508,0.228753,0.215808,0.416667,0.122904,0.112304,0.155719,0.067074,0.638798,0.236793,0.137645,0.166595,0.081695,1.374835,0.530334,0.326505,0.244773,0.192015,2.280391,0.723524,0.327384,0.207789,0.174189,1.995302,0.869937,0.60722,0.559601,0.516945,3.447571,1.878694,0.799945,0.66094,0.231461,2.821395,0.926431,0.693653,0.536501,0.187657,3.416094,1.863331,0.898909,0.485111,0.337602,2.93584,1.119603,0.938485,0.425491,0.185246
1702360698,1702360698,14,0,4265.256348,4245.897461,4292.94873,4265.256348,4250,4262.179688,4248.077148,4260.256348,4247.436035,4220.384766,4443.077148,4428.589844,4405.641113,4394.743652,5868,3,58,,,,0,4,4,4,4,4,4,4,4,4,4,4,4,4,4,100,,,,,,,,,,,,,,,,,,,,,,,,,,,,,,,,,,,,,,,,,,,,,,,,,,,,,,,,,,,,,,,,,,,,,,,,,,,,,,,,,,,,,,,,,,,,,,,,,,,,,,,,,,,,,,,,,,,,,,,,,,,,,,,,,,,,,,
1702360698,1702360698,15,0,4262.94873,4236.538574,4291.538574,4259.615234,4242.05127,4257.563965,4246.153809,4248.974121,4240.897461,4210.769043,4437.692383,4425.641113,4395.384766,4392.94873,6257,3,58,,,,0,4,4,4,4,4,4,4,4,4,4,4,4,4,4,100,,,,,,,,,,,,,,,,,,,,,,,,,,,,,,,,,,,,,,,,,,,,,,,,,,,,,,,,,,,,,,,,,,,,,,,,,,,,,,,,,,,,,,,,,,,,,,,,,,,,,,,,,,,,,,,,,,,,,,,,,,,,,,,,,,,,,,
1702360698,1702360698,16,0,4274.358887,4239.615234,4298.205078,4263.974121,4252.436035,4258.461426,4249.615234,4253.077148,4244.743652,4219.871582,4448.205078,4434.358887,4400.384766,4400.641113,0,3,58,,,,0,4,4,4,4,4,4,4,4,4,4,4,4,4,4,100,,,,,,,,,,,,,,,,,4,0,0.68986,-0.211182,-0.683289,-0.112305,0.97717,-0.128922,-0.01758,-12.348599,-4.532292,89.289993,,,,,,,,,,,,,,,,,,,,,,,,,,,,,,,,,,,,,,,,,,,,,,,,,,,,,,,,,,,,,,,,,,,,,,,,,,,,,,,,,,,,,,,,,,,,,,,,,,,,,,,,,,
1702360698,1702360698,17,0,4280.641113,4250.641113,4302.820313,4263.974121,4254.358887,4262.820313,4255.128418,4264.487305,4251.922852,4233.589844,4458.077148,4444.358887,4412.436035,4411.410156,0,3,58,,,,0,4,4,4,4,4,4,4,4,4,4,4,4,4,4,100,,,,,,,,,,,,,,,,,,,,,,,,,,,,,,,,,,,,,,,,,,,,,,,,,,,,,,,,,,,,,,,,,,,,,,,,,,,,,,,,,,,,,,,,,,,,,,,,,,,,,,,,,,,,,,,,,,,,,,,,,,,,,,,,,,,,,,
1702360698,1702360698,18,0,4282.436035,4252.563965,4305.384766,4262.820313,4250.256348,4265,4258.589844,4269.230957,4255.512695,4231.922852,4457.563965,4447.179688,4417.563965,4415.384766,0,3,58,,,,0,4,4,4,4,4,4,4,4,4,4,4,4,4,4,100,,,,,,,,,,,,,,,,,,,,,,,,,,,,,,,,,,,,,,,,,,,,,,,,,,,,,,,,,,,,,,,,,,,,,,,,,,,,,,,,,,,,,,,,,,,,,,,,,,,,,,,,,,,,,,,,,,,,,,,,,,,,,,,,,,,,,,
1702360698,1702360698,19,0,4285.641113,4247.307617,4310.256348,4267.179688,4258.717773,4262.307617,4261.794922,4271.538574,4260.128418,4227.563965,4460,4448.333496,4412.436035,4411.538574,0,3,58,,,,0,4,4,4,4,4,4,4,4,4,4,4,4,4,4,100,,,,,,,,,,,,,,,,,,,,,,,,,,,,,,,,,,,,,,,,,,,,,,,,,,,,,,,,,,,,,,,,,,,,,,,,,,,,,,,,,,,,,,,,,,,,,,,,,,,,,,,,,,,,,,,,,,,,,,,,,,,,,,,,,,,,,,
1702360698,1702360698,20,0,4286.025879,4253.974121,4312.820313,4273.974121,4267.436035,4261.922852,4262.94873,4272.179688,4263.461426,4241.025879,4465.769043,4452.436035,4405.512695,4408.461426,0,3,58,,,,0,4,4,4,4,4,4,4,4,4,4,4,4,4,4,100,,,,,,,,,,,,,,,,,5,0,0.689965,-0.211365,-0.683105,-0.112427,0.985472,-0.139665,-0.012209,-12.56374,-4.379063,89.377655,,,,,,,,,,,,,,,,,,,,,,,,,,,,,,,,,,,,,,,,,,,,,,,,,,,,,,,,,,,,,,,,,,,,,,,,,,,,,,,,,,,,,,,,,,,,,,,,,,,,,,,,,,
1702360698,1702360698,21,0,4281.666504,4269.102539,4307.179688,4277.692383,4262.94873,4263.333496,4254.487305,4265.128418,4257.94873,4245,4460,4447.820313,4402.179688,4406.153809,0,3,58,,,,0,4,4,4,4,4,4,4,4,4,4,4,4,4,4,100,,,,,,,,,,,,,,,,,,,,,,,,,,,,,,,,,,,,,,,,,,,,,,,,,,,,,,,,,,,,,,,,,,,,,,,,,,,,,,,,,,,,,,,,,,,,,,,,,,,,,,,,,,,,,,,,,,,,,,,,,,,,,,,,,,,,,,
1702360698,1702360698,22,0,4278.205078,4275.384766,4301.410156,4275.512695,4260.512695,4263.077148,4248.589844,4258.846191,4246.282227,4226.666504,4446.922852,4436.410156,4397.563965,4403.077148,0,3,58,,,,0,4,4,4,4,4,4,4,4,4,4,4,4,4,4,100,,,,,,,,,,,,,,,,,,,,,,,,,,,,,,,,,,,,,,,,,,,,,,,,,,,,,,,,,,,,,,,,,,,,,,,,,,,,,,,,,,,,,,,,,,,,,,,,,,,,,,,,,,,,,,,,,,,,,,,,,,,,,,,,,,,,,,
1702360698,1702360698,23,0,4283.461426,4273.974121,4305.256348,4274.358887,4266.410156,4262.436035,4256.025879,4260.897461,4247.05127,4225.512695,4447.179688,4437.94873,4399.487305,4405.897461,0,3,58,,,,0,4,4,4,4,4,4,4,4,4,4,4,4,4,4,100,,,,,,,,,,,,,,,,,,,,,,,,,,,,,,,,,,,,,,,,,,,,,,,,,,,,,,,,,,,,,,,,,,,,,,,,,,,,,,,,,,,,,,,,,,,,,,,,,,,,,,,,,,,,,,,,,,,,,,,,,,,,,,,,,,,,,,
1702360698,1702360698,24,0,4290.128418,4279.871582,4311.410156,4283.333496,4274.871582,4264.358887,4262.94873,4264.743652,4258.974121,4237.307617,4459.871582,4448.717773,4408.717773,4414.871582,0,3,58,,,,0,4,4,4,4,4,4,4,4,4,4,4,4,4,4,100,,,,,,,,,,,,,,,,,6,0,0.690054,-0.211304,-0.683044,-0.112366,0.981565,-0.144061,-0.035649,-12.590699,-4.441157,89.373222,,,,,,,,,,,,,,,,,,,,,,,,,,,,,,,,,,,,,,,,,,,,,,,,,,,,,,,,,,,,,,,,,,,,,,,,,,,,,,,,,,,,,,,,,,,,,,,,,,,,,,,,,,
1702360698,1702360698,25,0,4288.846191,4282.94873,4308.846191,4289.487305,4284.743652,4269.230957,4263.589844,4265.897461,4257.179688,4234.871582,4464.615234,4452.436035,4410.897461,4419.230957,0,3,58,,,,0,4,4,4,4,4,4,4,4,4,4,4,4,4,4,100,,,,,,,,,,,,,,,,,,,,,,,,,,,,,,,,,,,,,,,,,,,,,,,,,,,,,,,,,,,,,,,,,,,,,,,,,,,,,,,,,,,,,,,,,,,,,,,,,,,,,,,,,,,,,,,,,,,,,,,,,,,,,,,,,,,,,,
1702360698,1702360698,26,0,4279.615234,4269.743652,4296.153809,4277.94873,4271.794922,4267.563965,4259.743652,4259.615234,4244.871582,4226.922852,4447.94873,4439.230957,4396.922852,4405.128418,0,3,58,,,,0,4,4,4,4,4,4,4,4,4,4,4,4,4,4,100,,,,,,,,,,,,,,,,,,,,,,,,,,,,,,,,,,,,,,,,,,,,,,,,,,,,,,,,,,,,,,,,,,,,,,,,,,,,,,,,,,,,,,,,,,,,,,,,,,,,,,,,,,,,,,,,,,,,,,,,,,,,,,,,,,,,,,
1702360698,1702360698,27,0,4275.384766,4265.512695,4290.256348,4274.871582,4258.205078,4262.436035,4258.589844,4261.666504,4250.128418,4231.538574,4442.94873,4428.846191,4390.128418,4395,0,3,58,,,,0,4,4,4,4,4,4,4,4,4,4,4,4,4,4,100,,,,,,,,,,,,,,,,,,,,,,,,,,,,,,,,,,,,,,,,,,,,,,,,,,,,,,,,,,,,,,,,,,,,,,,,,,,,,,,,,,,,,,,,,,,,,,,,,,,,,,,,,,,,,,,,,,,,,,,,,,,,,,,,,,,,,,
1702360698,1702360698,28,0,4283.589844,4281.794922,4300.256348,4291.922852,4275.769043,4266.666504,4263.205078,4274.743652,4264.743652,4245.384766,4461.410156,4443.717773,4401.153809,4410.384766,0,3,58,,,,0,4,4,4,4,4,4,4,4,4,4,4,4,4,4,100,,,,,,,,,,,,,,,,,7,0,0.690229,-0.211426,-0.6828,-0.112549,0.971798,-0.144549,-0.030277,-12.548296,-4.280375,89.35257,,,,,,,,,,,,,,,,,,,,,,,,,,,,,,,,,,,,,,,,,,,,,,,,,,,,,,,,,,,,,,,,,,,,,,,,,,,,,,,,,,,,,,,,,,,,,,,,,,,,,,,,,,
1702360698,1702360698,29,0,4283.077148,4283.974121,4301.410156,4293.205078,4280,4267.436035,4255.897461,4269.871582,4257.820313,4247.307617,4454.487305,4448.205078,4397.94873,4412.563965,0,3,58,,,,0,4,4,4,4,4,4,4,4,4,4,4,4,4,4,100,,,,,,,,,,,,,,,,,,,,,,,,,,,,,,,,,,,,,,,,,,,,,,,,,,,,,,,,,,,,,,,,,2.775004,0.660001,1.048676,0.281031,0.129447,3.639816,0.718826,0.749209,0.210327,0.196367,2.375861,0.584707,0.982365,0.412481,0.144872,3.596482,0.652071,0.750343,0.424805,0.15606,1.543249,0.594606,0.282078,0.279495,0.284727,0.422158,0.14446,0.13746,0.184911,0.069291,0.62505,0.246547,0.165085,0.183514,0.088979,1.344771,0.666146,0.343341,0.273403,0.193855,2.511316,0.894357,0.404501,0.25102,0.169294,2.514889,0.89646,0.740114,0.675747,0.562306,4.332745,1.941371,0.875481,0.726605,0.250818,3.354877,0.925233,0.77548,0.58438,0.22226,4.663536,2.026149,1.100382,0.512293,0.371639,3.016298,0.992683,1.036005,0.43794,0.200997
1702360698,1702360698,30,0,4270.769043,4265.769043,4289.102539,4276.666504,4257.05127,4261.538574,4245.641113,4256.538574,4243.205078,4229.871582,4428.205078,4427.692383,4383.333496,4389.743652,0,3,58,,,,0,4,4,4,4,4,4,4,4,4,4,4,4,4,4,100,,,,,,,,,,,,,,,,,,,,,,,,,,,,,,,,,,,,,,,,,,,,,,,,,,,,,,,,,,,,,,,,,,,,,,,,,,,,,,,,,,,,,,,,,,,,,,,,,,,,,,,,,,,,,,,,,,,,,,,,,,,,,,,,,,,,,,
1702360698,1702360698,31,0,4269.743652,4261.410156,4289.358887,4275.512695,4260.769043,4264.230957,4257.692383,4260.897461,4248.974121,4216.025879,4433.205078,4427.436035,4386.282227,4389.871582,0,3,58,,,,0,4,4,4,4,4,4,4,4,4,4,4,4,4,4,100,,,,,,,,,,,,,,,,,,,,,,,,,,,,,,,,,,,,,,,,,,,,,,,,,,,,,,,,,,,,,,,,,,,,,,,,,,,,,,,,,,,,,,,,,,,,,,,,,,,,,,,,,,,,,,,,,,,,,,,,,,,,,,,,,,,,,,
1702360698,1702360698,32,0,4279.871582,4273.077148,4298.846191,4287.692383,4286.025879,4267.436035,4265.641113,4266.666504,4258.717773,4229.230957,4455.128418,4445.256348,4397.692383,4410.384766,0,3,58,,,,0,4,4,4,4,4,4,4,4,4,4,4,4,4,4,100,,,,,,,,,,,,,,,,,8,0,0.690338,-0.211365,-0.682678,-0.112732,0.983518,-0.1382,-0.019534,-12.543467,-4.235671,89.433975,,,,,,,,,,,,,,,,,,,,,,,,,,,,,,,,,,,,,,,,,,,,,,,,,,,,,,,,,,,,,,,,,,,,,,,,,,,,,,,,,,,,,,,,,,,,,,,,,,,,,,,,,,
1702360698,1702360698,33,0,4282.563965,4281.922852,4299.102539,4293.846191,4288.205078,4268.461426,4253.333496,4262.05127,4259.743652,4250.512695,4459.743652,4445.128418,4398.077148,4412.179688,0,3,58,,,,0,4,4,4,4,4,4,4,4,4,4,4,4,4,4,100,,,,,,,,,,,,,,,,,,,,,,,,,,,,,,,,,,,,,,,,,,,,,,,,,,,,,,,,,,,,,,,,,,,,,,,,,,,,,,,,,,,,,,,,,,,,,,,,,,,,,,,,,,,,,,,,,,,,,,,,,,,,,,,,,,,,,,
1702360698,1702360698,34,0,4276.794922,4277.05127,4293.846191,4287.179688,4273.077148,4271.153809,4251.666504,4261.282227,4254.743652,4246.410156,4455,4439.487305,4392.692383,4402.692383,0,3,58,,,,0,4,4,4,4,4,4,4,4,4,4,4,4,4,4,100,,,,,,,,,,,,,,,,,,,,,,,,,,,,,,,,,,,,,,,,,,,,,,,,,,,,,,,,,,,,,,,,,,,,,,,,,,,,,,,,,,,,,,,,,,,,,,,,,,,,,,,,,,,,,,,,,,,,,,,,,,,,,,,,,,,,,,
1702360698,1702360698,35,0,4274.487305,4267.563965,4292.692383,4276.025879,4268.974121,4270.256348,4260.641113,4265,4251.666504,4226.922852,4449.615234,4441.025879,4391.794922,4402.94873,0,3,58,,,,0,4,4,4,4,4,4,4,4,4,4,4,4,4,4,100,,,,,,,,,,,,,,,,,,,,,,,,,,,,,,,,,,,,,,,,,,,,,,,,,,,,,,,,,,,,,,,,,,,,,,,,,,,,,,,,,,,,,,,,,,,,,,,,,,,,,,,,,,,,,,,,,,,,,,,,,,,,,,,,,,,,,,
1702360698,1702360698,36,0,4281.538574,4272.307617,4301.922852,4279.230957,4276.410156,4272.820313,4261.538574,4270.512695,4257.179688,4225.897461,4449.743652,4445.897461,4393.846191,4409.358887,0,3,58,,,,0,4,4,4,4,4,4,4,4,4,4,4,4,4,4,100,,,,,,,,,,,,,,,,,9,0,0.690443,-0.211548,-0.682495,-0.112854,0.99768,-0.122574,-0.028324,-12.655787,-4.395437,89.173912,,,,,,,,,,,,,,,,,,,,,,,,,,,,,,,,,,,,,,,,,,,,,,,,,,,,,,,,,,,,,,,,,,,,,,,,,,,,,,,,,,,,,,,,,,,,,,,,,,,,,,,,,,
1702360698,1702360698,37,0,4289.358887,4281.794922,4310.897461,4293.589844,4279.871582,4278.846191,4261.922852,4280.128418,4266.794922,4242.94873,4460.641113,4456.153809,4398.974121,4415.641113,0,3,58,,,,0,4,4,4,4,4,4,4,4,4,4,4,4,4,4,100,,,,,,,,,,,,,,,,,,,,,,,,,,,,,,,,,,,,,,,,,,,,,,,,,,,,,,,,,,,,,,,,,,,,,,,,,,,,,,,,,,,,,,,,,,,,,,,,,,,,,,,,,,,,,,,,,,,,,,,,,,,,,,,,,,,,,,
1702360698,1702360698,38,0,4283.077148,4278.461426,4305,4295.769043,4274.358887,4276.153809,4263.589844,4279.615234,4267.307617,4248.974121,4462.94873,4456.538574,4398.205078,4414.358887,0,3,58,,,,0,4,4,4,4,4,4,4,4,4,4,4,4,4,4,100,,,,,,,,,,,,,,,,,,,,,,,,,,,,,,,,,,,,,,,,,,,,,,,,,,,,,,,,,,,,,,,,,,,,,,,,,,,,,,,,,,,,,,,,,,,,,,,,,,,,,,,,,,,,,,,,,,,,,,,,,,,,,,,,,,,,,,
1702360698,1702360698,39,0,4273.077148,4275,4296.410156,4291.922852,4275.512695,4275,4266.025879,4274.615234,4263.333496,4243.717773,4456.153809,4446.922852,4391.410156,4408.717773,0,3,58,,,,0,4,4,4,4,4,4,4,4,4,4,4,4,4,4,100,,,,,,,,,,,,,,,,,,,,,,,,,,,,,,,,,,,,,,,,,,,,,,,,,,,,,,,,,,,,,,,,,,,,,,,,,,,,,,,,,,,,,,,,,,,,,,,,,,,,,,,,,,,,,,,,,,,,,,,,,,,,,,,,,,,,,,
1702360698,1702360698,40,0,4277.05127,4282.179688,4298.205078,4295.769043,4276.410156,4280.769043,4268.974121,4277.179688,4265.897461,4242.94873,4458.717773,4447.820313,4390.384766,4410.512695,0,3,58,,,,0,4,4,4,4,4,4,4,4,4,4,4,4,4,4,100,,,,,,,,,,,,,,,,,10,0,0.690353,-0.211548,-0.682556,-0.113037,0.963985,-0.142107,-0.013185,-12.590208,-4.455893,89.023193,,,,,,,,,,,,,,,,,,,,,,,,,,,,,,,,,,,,,,,,,,,,,,,,,,,,,,,,,,,,,,,,,,,,,,,,,,,,,,,,,,,,,,,,,,,,,,,,,,,,,,,,,,
1702360698,1702360698,41,0,4280.384766,4281.538574,4300.256348,4296.410156,4275,4278.589844,4266.025879,4277.05127,4265.128418,4246.922852,4462.563965,4449.358887,4389.615234,4412.692383,0,3,58,,,,0,4,4,4,4,4,4,4,4,4,4,4,4,4,4,100,,,,,,,,,,,,,,,,,,,,,,,,,,,,,,,,,,,,,,,,,,,,,,,,,,,,,,,,,,,,,,,,,,,,,,,,,,,,,,,,,,,,,,,,,,,,,,,,,,,,,,,,,,,,,,,,,,,,,,,,,,,,,,,,,,,,,,
1702360698,1702360698,42,0,4278.333496,4278.333496,4301.794922,4293.717773,4283.077148,4276.025879,4263.461426,4273.461426,4263.589844,4245.897461,4459.230957,4448.205078,4390.641113,4410.128418,0,3,58,,,,0,4,4,4,4,4,4,4,4,4,4,4,4,4,4,100,,,,,,,,,,,,,,,,,,,,,,,,,,,,,,,,,,,,,,,,,,,,,,,,,,,,,,,,,,,,,,,,,,,,,,,,,,,,,,,,,,,,,,,,,,,,,,,,,,,,,,,,,,,,,,,,,,,,,,,,,,,,,,,,,,,,,,
1702360698,1702360698,43,0,4279.358887,4285.512695,4308.205078,4301.153809,4286.410156,4281.025879,4266.922852,4274.230957,4268.846191,4243.717773,4463.205078,4455.641113,4397.05127,4410.897461,0,3,58,,,,0,4,4,4,4,4,4,4,4,4,4,4,4,4,4,100,,,,,,,,,,,,,,,,,,,,,,,,,,,,,,,,,,,,,,,,,,,,,,,,,,,,,,,,,,,,,,,,,,,,,,,,,,,,,,,,,,,,,,,,,,,,,,,,,,,,,,,,,,,,,,,,,,,,,,,,,,,,,,,,,,,,,,
1702360698,1702360698,44,0,4283.589844,4292.179688,4309.487305,4310.384766,4280.512695,4281.282227,4266.794922,4276.410156,4275.512695,4247.179688,4473.461426,4461.538574,4399.358887,4415,0,3,58,,,,0,4,4,4,4,4,4,4,4,4,4,4,4,4,4,100,,,,,,,,,,,,,,,,,11,0,0.690514,-0.211548,-0.682373,-0.113159,0.98596,-0.145526,-0.017092,-12.61452,-4.343637,88.937538,,,,,,,,,,,,,,,,,,,,,,,,,,,,,,,,,,,,,,,,,,,,,,,,,,,,,,,,,,,,,,,,,,,,,,,,,,,,,,,,,,,,,,,,,,,,,,,,,,,,,,,,,,
1702360698,1702360698,45,0,4289.871582,4294.358887,4310.512695,4311.153809,4278.846191,4279.743652,4265,4280.769043,4281.922852,4250.128418,4477.307617,4460.769043,4396.153809,4418.461426,0,3,58,,,,0,4,4,4,4,4,4,4,4,4,4,4,4,4,4,100,1,100,4,4,4,4,4,4,4,4,4,4,4,4,4,4,,,,,,,,,,,,,,,,,,,,,,,,,,,,,,,,,,,,,,,,,,,,,,,,,2.677034,0.600244,1.05719,0.30657,0.129466,2.88205,0.523834,0.693272,0.201758,0.199573,2.543496,0.590452,1.000637,0.426845,0.147922,3.692355,0.654575,0.755112,0.42007,0.157913,1.304539,0.514497,0.326469,0.359332,0.363198,0.423968,0.164487,0.153575,0.213124,0.072914,0.685073,0.248335,0.201266,0.202444,0.100628,1.400288,0.788196,0.377638,0.316274,0.18454,2.641982,0.981212,0.472328,0.296808,0.166385,2.945993,0.963561,0.832016,0.80848,0.595637,5.014782,1.924533,0.977601,0.785823,0.266046,3.782212,0.92555,0.839087,0.638109,0.248153,5.875327,2.132915,1.269154,0.566849,0.38556,3.167918,0.892988,1.078249,0.473969,0.208835
1702360698,1702360698,46,0,4286.794922,4294.871582,4308.589844,4309.871582,4281.282227,4282.05127,4266.282227,4279.102539,4278.717773,4245.512695,4467.692383,4452.179688,4388.077148,4414.615234,0,3,58,,,,0,4,4,4,4,4,4,4,4,4,4,4,4,4,4,100,,,,,,,,,,,,,,,,,,,,,,,,,,,,,,,,,,,,,,,,,,,,,,,,,,,,,,,,,,,,,,,,,,,,,,,,,,,,,,,,,,,,,,,,,,,,,,,,,,,,,,,,,,,,,,,,,,,,,,,,,,,,,,,,,,,,,,
1702360698,1702360698,47,0,4275,4294.358887,4298.333496,4310.512695,4285.128418,4280.256348,4264.743652,4271.922852,4272.94873,4244.871582,4456.794922,4442.307617,4380.512695,4408.333496,0,3,58,,,,0,4,4,4,4,4,4,4,4,4,4,4,4,4,4,100,,,,,,,,,,,,,,,,,,,,,,,,,,,,,,,,,,,,,,,,,,,,,,,,,,,,,,,,,,,,,,,,,,,,,,,,,,,,,,,,,,,,,,,,,,,,,,,,,,,,,,,,,,,,,,,,,,,,,,,,,,,,,,,,,,,,,,
1702360698,1702360698,48,0,4278.461426,4294.615234,4299.871582,4309.358887,4292.692383,4276.282227,4261.153809,4273.717773,4276.282227,4256.538574,4462.307617,4449.230957,4384.871582,4415.384766,0,3,58,,,,0,4,4,4,4,4,4,4,4,4,4,4,4,4,4,100,,,,,,,,,,,,,,,,,12,0,0.690664,-0.211975,-0.682129,-0.112915,0.986449,-0.153827,-0.017092,-12.719735,-4.209273,88.943787,,,,,,,,,,,,,,,,,,,,,,,,,,,,,,,,,,,,,,,,,,,,,,,,,,,,,,,,,,,,,,,,,,,,,,,,,,,,,,,,,,,,,,,,,,,,,,,,,,,,,,,,,,
1702360698,1702360698,49,0,4298.461426,4296.922852,4312.307617,4310.256348,4303.974121,4284.487305,4268.846191,4280.897461,4284.230957,4259.230957,4478.717773,4464.743652,4396.025879,4430,0,3,58,,,,0,4,4,4,4,4,4,4,4,4,4,4,4,4,4,100,,,,,,,,,,,,,,,,,,,,,,,,,,,,,,,,,,,,,,,,,,,,,,,,,,,,,,,,,,,,,,,,,,,,,,,,,,,,,,,,,,,,,,,,,,,,,,,,,,,,,,,,,,,,,,,,,,,,,,,,,,,,,,,,,,,,,,
1702360698,1702360698,50,0,4305.641113,4297.94873,4315,4312.692383,4311.794922,4294.358887,4277.563965,4281.025879,4280.769043,4247.94873,4480.384766,4464.487305,4399.743652,4432.436035,0,3,58,,,,0,4,4,4,4,4,4,4,4,4,4,4,4,4,4,100,,,,,,,,,,,,,,,,,,,,,,,,,,,,,,,,,,,,,,,,,,,,,,,,,,,,,,,,,,,,,,,,,,,,,,,,,,,,,,,,,,,,,,,,,,,,,,,,,,,,,,,,,,,,,,,,,,,,,,,,,,,,,,,,,,,,,,
1702360698,1702360698,51,0,4296.153809,4295.512695,4308.717773,4305.512695,4314.743652,4286.666504,4268.717773,4276.666504,4268.333496,4244.230957,4463.077148,4456.538574,4396.410156,4426.794922,0,3,58,,,,0,4,4,4,4,4,4,4,4,4,4,4,4,4,4,100,,,,,,,,,,,,,,,,,,,,,,,,,,,,,,,,,,,,,,,,,,,,,,,,,,,,,,,,,,,,,,,,,,,,,,,,,,,,,,,,,,,,,,,,,,,,,,,,,,,,,,,,,,,,,,,,,,,,,,,,,,,,,,,,,,,,,,
1702360698,1702360698,52,0,4292.94873,4291.538574,4311.794922,4296.538574,4307.692383,4276.666504,4262.820313,4275.897461,4262.307617,4251.153809,4460.256348,4458.333496,4395.384766,4427.563965,0,3,58,,,,0,4,4,4,4,4,4,4,4,4,4,4,4,4,4,100,,,,,,,,,,,,,,,,,13,0,0.690769,-0.212219,-0.682007,-0.112549,0.983518,-0.145526,-0.018069,-12.697762,-4.121679,88.949402,,,,,,,,,,,,,,,,,,,,,,,,,,,,,,,,,,,,,,,,,,,,,,,,,,,,,,,,,,,,,,,,,,,,,,,,,,,,,,,,,,,,,,,,,,,,,,,,,,,,,,,,,,
1702360698,1702360698,53,0,4299.487305,4290.512695,4317.436035,4295.641113,4299.615234,4280,4272.563965,4278.974121,4263.077148,4251.922852,4476.410156,4464.102539,4398.077148,4432.05127,0,3,58,,,,0,4,4,4,4,4,4,4,4,4,4,4,4,4,4,100,,,,,,,,,,,,,,,,,,,,,,,,,,,,,,,,,,,,,,,,,,,,,,,,,,,,,,,,,,,,,,,,,,,,,,,,,,,,,,,,,,,,,,,,,,,,,,,,,,,,,,,,,,,,,,,,,,,,,,,,,,,,,,,,,,,,,,
1702360698,1702360698,54,0,4299.358887,4288.461426,4314.358887,4292.692383,4297.436035,4279.743652,4271.922852,4278.974121,4262.94873,4246.538574,4475.512695,4463.333496,4396.794922,4432.307617,0,3,58,,,,0,4,4,4,4,4,4,4,4,4,4,4,4,4,4,100,,,,,,,,,,,,,,,,,,,,,,,,,,,,,,,,,,,,,,,,,,,,,,,,,,,,,,,,,,,,,,,,,,,,,,,,,,,,,,,,,,,,,,,,,,,,,,,,,,,,,,,,,,,,,,,,,,,,,,,,,,,,,,,,,,,,,,
1702360698,1702360698,55,0,4293.205078,4280.512695,4311.282227,4286.538574,4295.769043,4274.102539,4261.922852,4273.717773,4259.487305,4249.615234,4462.307617,4458.461426,4388.974121,4428.717773,0,3,58,,,,0,4,4,4,4,4,4,4,4,4,4,4,4,4,4,100,,,,,,,,,,,,,,,,,,,,,,,,,,,,,,,,,,,,,,,,,,,,,,,,,,,,,,,,,,,,,,,,,,,,,,,,,,,,,,,,,,,,,,,,,,,,,,,,,,,,,,,,,,,,,,,,,,,,,,,,,,,,,,,,,,,,,,
1702360698,1702360698,56,0,4292.179688,4279.487305,4314.743652,4288.461426,4298.974121,4277.94873,4267.94873,4271.922852,4257.94873,4252.179688,4467.563965,4457.436035,4386.666504,4428.846191,0,3,58,,,,0,4,4,4,4,4,4,4,4,4,4,4,4,4,4,100,,,,,,,,,,,,,,,,,14,0,0.690834,-0.212402,-0.681885,-0.112549,0.984007,-0.133317,-0.012209,-12.761318,-4.176178,88.987801,,,,,,,,,,,,,,,,,,,,,,,,,,,,,,,,,,,,,,,,,,,,,,,,,,,,,,,,,,,,,,,,,,,,,,,,,,,,,,,,,,,,,,,,,,,,,,,,,,,,,,,,,,
1702360698,1702360698,57,0,4295.128418,4287.692383,4322.179688,4293.205078,4308.077148,4287.05127,4279.487305,4276.794922,4257.820313,4249.230957,4478.846191,4463.333496,4399.230957,4437.94873,0,3,58,,,,0,4,4,4,4,4,4,4,4,4,4,4,4,4,4,100,,,,,,,,,,,,,,,,,,,,,,,,,,,,,,,,,,,,,,,,,,,,,,,,,,,,,,,,,,,,,,,,,,,,,,,,,,,,,,,,,,,,,,,,,,,,,,,,,,,,,,,,,,,,,,,,,,,,,,,,,,,,,,,,,,,,,,
