Timestamp,OriginalTimestamp,EEG.Counter,EEG.Interpolated,EEG.AF3,EEG.F7,EEG.F3,EEG.FC5,EEG.T7,EEG.P7,EEG.O1,EEG.O2,EEG.P8,EEG.T8,EEG.FC6,EEG.F4,EEG.F8,EEG.AF4,EEG.RawCq,EEG.Battery,EEG.BatteryPercent,MarkerIndex,MarkerType,MarkerValueInt,EEG.MarkerHardware,CQ.AF3,CQ.F7,CQ.F3,CQ.FC5,CQ.T7,CQ.P7,CQ.O1,CQ.O2,CQ.P8,CQ.T8,CQ.FC6,CQ.F4,CQ.F8,CQ.AF4,CQ.Overall,EQ.SampleRateQuality,EQ.OVERALL,EQ.AF3,EQ.F7,EQ.F3,EQ.FC5,EQ.T7,EQ.P7,EQ.O1,EQ.O2,EQ.P8,EQ.T8,EQ.FC6,EQ.F4,EQ.F8,EQ.AF4,MOT.CounterMems,MOT.InterpolatedMems,MOT.Q0,MOT.Q1,MOT.Q2,MOT.Q3,MOT.AccX,MOT.AccY,MOT.AccZ,MOT.MagX,MOT.MagY,MOT.MagZ,PM.Attention.IsActive,PM.Attention.Scaled,PM.Attention.Raw,PM.Attention.Min,PM.Attention.Max,PM.Engagement.IsActive,PM.Engagement.Scaled,PM.Engagement.Raw,PM.Engagement.Min,PM.Engagement.Max,PM.Excitement.IsActive,PM.Excitement.Scaled,PM.Excitement.Raw,PM.Excitement.Min,PM.Excitement.Max,PM.LongTermExcitement,PM.Stress.IsActive,PM.Stress.Scaled,PM.Stress.Raw,PM.Stress.Min,PM.Stress.Max,PM.Relaxation.IsActive,PM.Relaxation.Scaled,PM.Relaxation.Raw,PM.Relaxation.Min,PM.Relaxation.Max,PM.Interest.IsActive,PM.Interest.Scaled,PM.Interest.Raw,PM.Interest.Min,PM.Interest.Max,PM.Focus.IsActive,PM.Focus.Scaled,PM.Focus.Raw,PM.Focus.Min,PM.Focus.Max,POW.AF3.Theta,POW.AF3.Alpha,POW.AF3.BetaL,POW.AF3.BetaH,POW.AF3.Gamma,POW.F7.Theta,POW.F7.Alpha,POW.F7.BetaL,POW.F7.BetaH,POW.F7.Gamma,POW.F3.Theta,POW.F3.Alpha,POW.F3.BetaL,POW.F3.BetaH,POW.F3.Gamma,POW.FC5.Theta,POW.FC5.Alpha,POW.FC5.BetaL,POW.FC5.BetaH,POW.FC5.Gamma,POW.T7.Theta,POW.T7.Alpha,POW.T7.BetaL,POW.T7.BetaH,POW.T7.Gamma,POW.P7.Theta,POW.P7.Alpha,POW.P7.BetaL,POW.P7.BetaH,POW.P7.Gamma,POW.O1.Theta,POW.O1.Alpha,POW.O1.BetaL,POW.O1.BetaH,POW.O1.Gamma,POW.O2.Theta,POW.O2.Alpha,POW.O2.BetaL,POW.O2.BetaH,POW.O2.Gamma,POW.P8.Theta,POW.P8.Alpha,POW.P8.BetaL,POW.P8.BetaH,POW.P8.Gamma,POW.T8.Theta,POW.T8.Alpha,POW.T8.BetaL,POW.T8.BetaH,POW.T8.Gamma,POW.FC6.Theta,POW.FC6.Alpha,POW.FC6.BetaL,POW.FC6.BetaH,POW.FC6.Gamma,POW.F4.Theta,POW.F4.Alpha,POW.F4.BetaL,POW.F4.BetaH,POW.F4.Gamma,POW.F8.Theta,POW.F8.Alpha,POW.F8.BetaL,POW.F8.BetaH,POW.F8.Gamma,POW.AF4.Theta,POW.AF4.Alpha,POW.AF4.BetaL,POW.AF4.BetaH,POW.AF4.Gamma
,,,,,,,,,,,,,,,,,,,,,,,,,,,,,,,,,,,,,,,,,,,,,,,,,,,,,,,,,,,,,,,,,,,,,,,,,,,,,,,,,,,,,,,,,,,,,,,,,,,,,,,,,,,,,,,,,,,,,,,,,,,,,,,,,,,,,,,,,,,,,,,,,,,,,,,,,,,,,,,,,,,,,,,,,,,,,
1702359963,1702359963,7,0,4314.102539,4314.871582,4328.333496,4310.512695,4295.897461,4302.05127,4301.922852,4316.282227,4307.94873,4274.487305,4517.692383,4518.717773,4352.436035,4466.538574,5156,3,61,,,,0,4,4,4,4,4,4,4,4,4,4,4,4,4,4,100,,,,,,,,,,,,,,,,,,,,,,,,,,,,,,,,,,,,,,,,,,,,,,,,,,,,,,,,,,,,,,,,,,,,,,,,,,,,,,,,,,,,,,,,,,,,,,,,,,,,,,,,,,,,,,,,,,,,,,,,,,,,,,,,,,,,,,
1702359963,1702359963,8,0,4307.820313,4312.05127,4324.743652,4311.282227,4292.94873,4300.897461,4301.538574,4310.384766,4301.538574,4268.717773,4507.307617,4513.461426,4341.410156,4459.615234,5300,3,61,,,,0,4,4,4,4,4,4,4,4,4,4,4,4,4,4,100,,,,,,,,,,,,,,,,,2,0,0.105633,0.663086,-0.331116,0.662964,0.929801,-0.30326,-0.100598,-2.843804,-65.682045,26.16795,,,,,,,,,,,,,,,,,,,,,,,,,,,,,,,,,,,,,,,,,,,,,,,,,,,,,,,,,,,,,,,,,,,,,,,,,,,,,,,,,,,,,,,,,,,,,,,,,,,,,,,,,,
1702359963,1702359963,9,0,4309.615234,4311.538574,4324.358887,4310.897461,4294.358887,4304.358887,4297.307617,4308.717773,4293.974121,4260.897461,4498.717773,4504.615234,4343.461426,4459.102539,5360,3,61,,,,0,4,4,4,4,4,4,4,4,4,4,4,4,4,4,100,,,,,,,,,,,,,,,,,,,,,,,,,,,,,,,,,,,,,,,,,,,,,,,,,,,,,,,,,,,,,,,,,,,,,,,,,,,,,,,,,,,,,,,,,,,,,,,,,,,,,,,,,,,,,,,,,,,,,,,,,,,,,,,,,,,,,,
1702359963,1702359963,10,0,4308.717773,4310.512695,4322.563965,4318.205078,4288.846191,4296.538574,4290.384766,4298.846191,4280.769043,4254.871582,4491.153809,4496.922852,4343.205078,4457.436035,5908,3,61,,,,0,4,4,4,4,4,4,4,4,4,4,4,4,4,4,100,,,,,,,,,,,,,,,,,,,,,,,,,,,,,,,,,,,,,,,,,,,,,,,,,,,,,,,,,,,,,,,,,,,,,,,,,,,,,,,,,,,,,,,,,,,,,,,,,,,,,,,,,,,,,,,,,,,,,,,,,,,,,,,,,,,,,,
1702359963,1702359963,11,0,4312.179688,4314.615234,4326.922852,4330.769043,4288.077148,4294.358887,4296.025879,4301.282227,4279.615234,4257.179688,4491.025879,4503.589844,4342.179688,4458.333496,6279,3,61,,,,0,4,4,4,4,4,4,4,4,4,4,4,4,4,4,100,,,,,,,,,,,,,,,,,,,,,,,,,,,,,,,,,,,,,,,,,,,,,,,,,,,,,,,,,,,,,,,,,,,,,,,,,,,,,,,,,,,,,,,,,,,,,,,,,,,,,,,,,,,,,,,,,,,,,,,,,,,,,,,,,,,,,,
1702359963,1702359963,12,0,4322.307617,4323.333496,4331.666504,4337.307617,4295.512695,4307.436035,4307.05127,4312.820313,4290.897461,4261.538574,4500.769043,4513.461426,4348.717773,4463.333496,6781,3,61,,,,0,4,4,4,4,4,4,4,4,4,4,4,4,4,4,100,,,,,,,,,,,,,,,,,3,0,0.106015,0.663086,-0.330994,0.662964,0.927848,-0.308631,-0.112807,-2.842757,-65.697174,26.201155,,,,,,,,,,,,,,,,,,,,,,,,,,,,,,,,,,,,,,,,,,,,,,,,,,,,,,,,,,,,,,,,,,,,,,,,,,,,,,,,,,,,,,,,,,,,,,,,,,,,,,,,,,
1702359963,1702359963,13,0,4324.871582,4320.769043,4328.589844,4338.974121,4295.641113,4310.256348,4308.077148,4309.487305,4295.897461,4261.794922,4503.333496,4511.282227,4352.563965,4464.358887,7052,3,61,,,,0,4,4,4,4,4,4,4,4,4,4,4,4,4,4,100,,,,,,,,,,,,,,,,,,,,,,,,,,,,,,,,,,,,,,,,,,,,,,,,,,,,,,,,,,,,,,,,,3.55862,1.252258,0.572331,0.362552,0.117448,2.537745,0.484834,0.494973,0.28896,0.122795,4.550477,1.800613,0.586137,0.455845,0.102467,1.715629,1.006671,0.823334,0.407914,0.123774,1.133971,0.406951,0.275975,0.196077,0.085544,0.650049,0.428048,0.19193,0.202872,0.09187,0.810614,0.683212,0.119021,0.237169,0.107408,1.036102,1.222157,0.259158,0.150337,0.098886,1.7854,1.576702,0.452161,0.283724,0.086341,1.476665,1.309942,0.762988,0.57213,0.290099,3.088878,1.656873,0.693674,0.565413,0.157345,4.909897,2.328014,0.696744,0.594631,0.133625,1.187211,1.060884,0.515898,0.394065,0.164758,4.218904,1.695459,0.671867,0.42283,0.106416
1702359963,1702359963,14,0,4318.077148,4312.820313,4327.436035,4339.487305,4289.230957,4298.974121,4299.871582,4303.333496,4291.794922,4256.666504,4495.641113,4507.05127,4348.333496,4461.025879,5908,3,61,,,,0,4,4,4,4,4,4,4,4,4,4,4,4,4,4,100,,,,,,,,,,,,,,,,,,,,,,,,,,,,,,,,,,,,,,,,,,,,,,,,,,,,,,,,,,,,,,,,,,,,,,,,,,,,,,,,,,,,,,,,,,,,,,,,,,,,,,,,,,,,,,,,,,,,,,,,,,,,,,,,,,,,,,
1702359963,1702359963,15,0,4311.666504,4310.769043,4329.230957,4337.692383,4287.94873,4294.487305,4292.94873,4304.615234,4286.538574,4247.436035,4488.974121,4506.410156,4342.692383,4457.179688,6279,3,61,,,,0,4,4,4,4,4,4,4,4,4,4,4,4,4,4,100,,,,,,,,,,,,,,,,,,,,,,,,,,,,,,,,,,,,,,,,,,,,,,,,,,,,,,,,,,,,,,,,,,,,,,,,,,,,,,,,,,,,,,,,,,,,,,,,,,,,,,,,,,,,,,,,,,,,,,,,,,,,,,,,,,,,,,
1702359963,1702359963,16,0,4315.512695,4311.025879,4327.307617,4338.205078,4288.974121,4296.794922,4295.769043,4307.436035,4288.589844,4246.922852,4489.743652,4506.282227,4342.05127,4455.256348,0,3,61,,,,0,4,4,4,4,4,4,4,4,4,4,4,4,4,4,100,,,,,,,,,,,,,,,,,4,0,0.105824,0.663086,-0.331055,0.662964,0.937614,-0.297888,-0.112807,-2.758482,-65.744125,26.081039,,,,,,,,,,,,,,,,,,,,,,,,,,,,,,,,,,,,,,,,,,,,,,,,,,,,,,,,,,,,,,,,,,,,,,,,,,,,,,,,,,,,,,,,,,,,,,,,,,,,,,,,,,
1702359963,1702359963,17,0,4321.410156,4311.922852,4327.179688,4342.94873,4285.256348,4298.205078,4300.641113,4312.436035,4293.077148,4258.974121,4494.487305,4509.358887,4349.358887,4459.743652,0,3,61,,,,0,4,4,4,4,4,4,4,4,4,4,4,4,4,4,100,,,,,,,,,,,,,,,,,,,,,,,,,,,,,,,,,,,,,,,,,,,,,,,,,,,,,,,,,,,,,,,,,,,,,,,,,,,,,,,,,,,,,,,,,,,,,,,,,,,,,,,,,,,,,,,,,,,,,,,,,,,,,,,,,,,,,,
1702359964,1702359964,18,0,4317.94873,4311.410156,4328.077148,4343.974121,4279.230957,4296.538574,4297.307617,4310.641113,4291.794922,4261.922852,4494.358887,4508.077148,4355.897461,4460.256348,0,3,61,,,,0,4,4,4,4,4,4,4,4,4,4,4,4,4,4,100,,,,,,,,,,,,,,,,,,,,,,,,,,,,,,,,,,,,,,,,,,,,,,,,,,,,,,,,,,,,,,,,,,,,,,,,,,,,,,,,,,,,,,,,,,,,,,,,,,,,,,,,,,,,,,,,,,,,,,,,,,,,,,,,,,,,,,
1702359964,1702359964,19,0,4308.589844,4305.128418,4323.846191,4340.384766,4276.666504,4293.077148,4292.05127,4302.05127,4289.230957,4249.615234,4489.615234,4499.615234,4351.666504,4451.666504,0,3,61,,,,0,4,4,4,4,4,4,4,4,4,4,4,4,4,4,100,,,,,,,,,,,,,,,,,,,,,,,,,,,,,,,,,,,,,,,,,,,,,,,,,,,,,,,,,,,,,,,,,,,,,,,,,,,,,,,,,,,,,,,,,,,,,,,,,,,,,,,,,,,,,,,,,,,,,,,,,,,,,,,,,,,,,,
1702359964,1702359964,20,0,4307.436035,4301.410156,4321.922852,4340.769043,4279.230957,4293.589844,4292.179688,4303.205078,4291.153809,4245.641113,4488.461426,4499.615234,4348.974121,4450,0,3,61,,,,0,4,4,4,4,4,4,4,4,4,4,4,4,4,4,100,,,,,,,,,,,,,,,,,5,0,0.105632,0.663208,-0.330994,0.662903,0.921499,-0.303748,-0.10011,-2.815967,-65.786377,25.922935,,,,,,,,,,,,,,,,,,,,,,,,,,,,,,,,,,,,,,,,,,,,,,,,,,,,,,,,,,,,,,,,,,,,,,,,,,,,,,,,,,,,,,,,,,,,,,,,,,,,,,,,,,
1702359964,1702359964,21,0,4311.538574,4306.794922,4325.641113,4347.179688,4282.820313,4297.692383,4296.922852,4306.282227,4293.846191,4257.307617,4494.102539,4503.077148,4356.538574,4457.307617,0,3,61,,,,0,4,4,4,4,4,4,4,4,4,4,4,4,4,4,100,,,,,,,,,,,,,,,,,,,,,,,,,,,,,,,,,,,,,,,,,,,,,,,,,,,,,,,,,,,,,,,,,,,,,,,,,,,,,,,,,,,,,,,,,,,,,,,,,,,,,,,,,,,,,,,,,,,,,,,,,,,,,,,,,,,,,,
1702359964,1702359964,22,0,4311.410156,4307.692383,4327.179688,4350.384766,4282.307617,4297.179688,4294.358887,4297.820313,4291.794922,4261.794922,4495.384766,4497.307617,4360.512695,4460.128418,0,3,61,,,,0,4,4,4,4,4,4,4,4,4,4,4,4,4,4,100,,,,,,,,,,,,,,,,,,,,,,,,,,,,,,,,,,,,,,,,,,,,,,,,,,,,,,,,,,,,,,,,,,,,,,,,,,,,,,,,,,,,,,,,,,,,,,,,,,,,,,,,,,,,,,,,,,,,,,,,,,,,,,,,,,,,,,
1702359964,1702359964,23,0,4309.615234,4305.512695,4325.512695,4350.256348,4279.871582,4291.153809,4283.974121,4289.871582,4288.717773,4254.358887,4490.384766,4496.410156,4355.256348,4455.641113,0,3,61,,,,0,4,4,4,4,4,4,4,4,4,4,4,4,4,4,100,,,,,,,,,,,,,,,,,,,,,,,,,,,,,,,,,,,,,,,,,,,,,,,,,,,,,,,,,,,,,,,,,,,,,,,,,,,,,,,,,,,,,,,,,,,,,,,,,,,,,,,,,,,,,,,,,,,,,,,,,,,,,,,,,,,,,,
1702359964,1702359964,24,0,4311.538574,4311.153809,4325.256348,4357.692383,4279.871582,4291.025879,4285.512695,4294.743652,4288.846191,4253.717773,4492.94873,4503.205078,4358.205078,4450.384766,0,3,61,,,,0,4,4,4,4,4,4,4,4,4,4,4,4,4,4,100,,,,,,,,,,,,,,,,,6,0,0.106014,0.663269,-0.330872,0.662842,0.935661,-0.301306,-0.092296,-2.667703,-65.841072,25.797308,,,,,,,,,,,,,,,,,,,,,,,,,,,,,,,,,,,,,,,,,,,,,,,,,,,,,,,,,,,,,,,,,,,,,,,,,,,,,,,,,,,,,,,,,,,,,,,,,,,,,,,,,,
1702359964,1702359964,25,0,4307.563965,4303.333496,4321.025879,4358.717773,4279.615234,4295.769043,4297.307617,4305.641113,4295.769043,4263.589844,4492.05127,4499.230957,4355.769043,4444.615234,0,3,61,,,,0,4,4,4,4,4,4,4,4,4,4,4,4,4,4,100,,,,,,,,,,,,,,,,,,,,,,,,,,,,,,,,,,,,,,,,,,,,,,,,,,,,,,,,,,,,,,,,,,,,,,,,,,,,,,,,,,,,,,,,,,,,,,,,,,,,,,,,,,,,,,,,,,,,,,,,,,,,,,,,,,,,,,
1702359964,1702359964,26,0,4296.410156,4284.230957,4310.641113,4345.384766,4275.256348,4294.102539,4293.846191,4307.820313,4298.333496,4265.256348,4481.153809,4490.256348,4340.897461,4438.461426,0,3,61,,,,0,4,4,4,4,4,4,4,4,4,4,4,4,4,4,100,,,,,,,,,,,,,,,,,,,,,,,,,,,,,,,,,,,,,,,,,,,,,,,,,,,,,,,,,,,,,,,,,,,,,,,,,,,,,,,,,,,,,,,,,,,,,,,,,,,,,,,,,,,,,,,,,,,,,,,,,,,,,,,,,,,,,,
1702359964,1702359964,27,0,4300.512695,4297.179688,4306.922852,4347.307617,4271.282227,4289.230957,4280.128418,4299.102539,4287.179688,4250.512695,4479.102539,4488.077148,4348.846191,4441.025879,0,3,61,,,,0,4,4,4,4,4,4,4,4,4,4,4,4,4,4,100,,,,,,,,,,,,,,,,,,,,,,,,,,,,,,,,,,,,,,,,,,,,,,,,,,,,,,,,,,,,,,,,,,,,,,,,,,,,,,,,,,,,,,,,,,,,,,,,,,,,,,,,,,,,,,,,,,,,,,,,,,,,,,,,,,,,,,
1702359964,1702359964,28,0,4319.743652,4335.512695,4315.769043,4367.05127,4273.974121,4290,4280.512695,4290,4280.128418,4241.794922,4488.717773,4487.820313,4375.641113,4456.794922,0,3,61,,,,0,4,4,4,4,4,4,4,4,4,4,4,4,4,4,100,,,,,,,,,,,,,,,,,7,0,0.106202,0.663452,-0.330566,0.662781,0.933219,-0.31791,-0.116713,-2.584266,-65.806969,25.617577,,,,,,,,,,,,,,,,,,,,,,,,,,,,,,,,,,,,,,,,,,,,,,,,,,,,,,,,,,,,,,,,,,,,,,,,,,,,,,,,,,,,,,,,,,,,,,,,,,,,,,,,,,
1702359964,1702359964,29,0,4336.153809,4357.563965,4325.384766,4383.077148,4279.487305,4294.358887,4289.230957,4296.922852,4289.743652,4255,4504.230957,4497.820313,4394.615234,4480,0,3,61,,,,0,4,4,4,4,4,4,4,4,4,4,4,4,4,4,100,,,,,,,,,,,,,,,,,,,,,,,,,,,,,,,,,,,,,,,,,,,,,,,,,,,,,,,,,,,,,,,,,3.544978,1.147746,0.658034,0.346096,0.091482,2.840388,0.467211,0.586182,0.270088,0.111508,4.62763,1.862718,0.602118,0.456771,0.091252,1.798225,1.068127,0.893048,0.373982,0.125131,1.144611,0.441708,0.307185,0.204232,0.086339,0.615497,0.382263,0.176605,0.194445,0.086117,0.810476,0.5981,0.124398,0.208429,0.098264,0.936006,1.212194,0.238661,0.151652,0.095672,1.609532,1.422333,0.464032,0.295609,0.091958,1.462678,1.279581,0.854729,0.591847,0.287863,2.862318,1.530189,0.710856,0.543368,0.133826,4.589649,2.174219,0.721184,0.562353,0.117252,1.057301,0.951142,0.597424,0.413314,0.156525,4.323872,1.611078,0.763988,0.398419,0.097591
1702359964,1702359964,30,0,4348.717773,4368.077148,4331.794922,4393.717773,4282.436035,4296.153809,4291.922852,4307.436035,4299.743652,4265.512695,4517.692383,4515.512695,4408.974121,4494.102539,0,3,61,,,,0,4,4,4,4,4,4,4,4,4,4,4,4,4,4,100,,,,,,,,,,,,,,,,,,,,,,,,,,,,,,,,,,,,,,,,,,,,,,,,,,,,,,,,,,,,,,,,,,,,,,,,,,,,,,,,,,,,,,,,,,,,,,,,,,,,,,,,,,,,,,,,,,,,,,,,,,,,,,,,,,,,,,
1702359964,1702359964,31,0,4353.333496,4378.717773,4334.102539,4396.538574,4282.94873,4293.974121,4291.666504,4300.897461,4292.820313,4254.615234,4514.615234,4516.282227,4411.666504,4495.512695,0,3,61,,,,0,4,4,4,4,4,4,4,4,4,4,4,4,4,4,100,,,,,,,,,,,,,,,,,,,,,,,,,,,,,,,,,,,,,,,,,,,,,,,,,,,,,,,,,,,,,,,,,,,,,,,,,,,,,,,,,,,,,,,,,,,,,,,,,,,,,,,,,,,,,,,,,,,,,,,,,,,,,,,,,,,,,,
1702359964,1702359964,32,0,4348.205078,4375.512695,4330.769043,4390.256348,4281.666504,4294.358887,4293.205078,4297.692383,4288.077148,4245.641113,4504.358887,4507.179688,4400.128418,4491.282227,0,3,61,,,,0,4,4,4,4,4,4,4,4,4,4,4,4,4,4,100,,,,,,,,,,,,,,,,,8,0,0.106581,0.66333,-0.330444,0.662903,0.939079,-0.2974,-0.106458,-2.509173,-65.859604,25.772486,,,,,,,,,,,,,,,,,,,,,,,,,,,,,,,,,,,,,,,,,,,,,,,,,,,,,,,,,,,,,,,,,,,,,,,,,,,,,,,,,,,,,,,,,,,,,,,,,,,,,,,,,,
1702359964,1702359964,33,0,4344.102539,4364.615234,4326.666504,4385.384766,4277.179688,4295,4292.05127,4308.589844,4295.256348,4251.282227,4505.384766,4505.769043,4395.641113,4484.871582,0,3,61,,,,0,4,4,4,4,4,4,4,4,4,4,4,4,4,4,100,,,,,,,,,,,,,,,,,,,,,,,,,,,,,,,,,,,,,,,,,,,,,,,,,,,,,,,,,,,,,,,,,,,,,,,,,,,,,,,,,,,,,,,,,,,,,,,,,,,,,,,,,,,,,,,,,,,,,,,,,,,,,,,,,,,,,,
1702359964,1702359964,34,0,4344.487305,4356.922852,4325.641113,4380,4273.717773,4286.794922,4285.256348,4304.487305,4289.743652,4252.692383,4503.846191,4507.436035,4394.487305,4479.102539,0,3,61,,,,0,4,4,4,4,4,4,4,4,4,4,4,4,4,4,100,,,,,,,,,,,,,,,,,,,,,,,,,,,,,,,,,,,,,,,,,,,,,,,,,,,,,,,,,,,,,,,,,,,,,,,,,,,,,,,,,,,,,,,,,,,,,,,,,,,,,,,,,,,,,,,,,,,,,,,,,,,,,,,,,,,,,,
1702359964,1702359964,35,0,4342.563965,4351.538574,4325.897461,4369.615234,4274.871582,4279.358887,4284.102539,4292.820313,4275.641113,4246.153809,4491.153809,4506.153809,4388.333496,4476.153809,0,3,61,,,,0,4,4,4,4,4,4,4,4,4,4,4,4,4,4,100,,,,,,,,,,,,,,,,,,,,,,,,,,,,,,,,,,,,,,,,,,,,,,,,,,,,,,,,,,,,,,,,,,,,,,,,,,,,,,,,,,,,,,,,,,,,,,,,,,,,,,,,,,,,,,,,,,,,,,,,,,,,,,,,,,,,,,
1702359964,1702359964,36,0,4342.307617,4348.717773,4326.025879,4367.179688,4277.307617,4284.743652,4289.487305,4302.94873,4278.846191,4244.615234,4488.589844,4505.512695,4390.769043,4475.641113,0,3,61,,,,0,4,4,4,4,4,4,4,4,4,4,4,4,4,4,100,,,,,,,,,,,,,,,,,9,0,0.106582,0.663269,-0.330444,0.662964,0.935661,-0.30326,-0.096691,-2.541589,-65.856979,25.845238,,,,,,,,,,,,,,,,,,,,,,,,,,,,,,,,,,,,,,,,,,,,,,,,,,,,,,,,,,,,,,,,,,,,,,,,,,,,,,,,,,,,,,,,,,,,,,,,,,,,,,,,,,
1702359964,1702359964,37,0,4340.897461,4345.641113,4326.410156,4369.871582,4284.230957,4289.487305,4294.487305,4310.897461,4289.871582,4250.256348,4492.307617,4506.794922,4397.692383,4477.307617,0,3,61,,,,0,4,4,4,4,4,4,4,4,4,4,4,4,4,4,100,,,,,,,,,,,,,,,,,,,,,,,,,,,,,,,,,,,,,,,,,,,,,,,,,,,,,,,,,,,,,,,,,,,,,,,,,,,,,,,,,,,,,,,,,,,,,,,,,,,,,,,,,,,,,,,,,,,,,,,,,,,,,,,,,,,,,,
1702359964,1702359964,38,0,4333.077148,4340.897461,4325.128418,4365.128418,4290,4284.487305,4292.563965,4297.563965,4282.94873,4250.641113,4491.025879,4505.128418,4397.820313,4475.769043,0,3,61,,,,0,4,4,4,4,4,4,4,4,4,4,4,4,4,4,100,,,,,,,,,,,,,,,,,,,,,,,,,,,,,,,,,,,,,,,,,,,,,,,,,,,,,,,,,,,,,,,,,,,,,,,,,,,,,,,,,,,,,,,,,,,,,,,,,,,,,,,,,,,,,,,,,,,,,,,,,,,,,,,,,,,,,,
1702359964,1702359964,39,0,4326.538574,4333.205078,4317.179688,4351.538574,4283.846191,4277.563965,4283.205078,4290.897461,4268.333496,4237.179688,4490.512695,4495.256348,4390.769043,4466.153809,0,3,61,,,,0,4,4,4,4,4,4,4,4,4,4,4,4,4,4,100,,,,,,,,,,,,,,,,,,,,,,,,,,,,,,,,,,,,,,,,,,,,,,,,,,,,,,,,,,,,,,,,,,,,,,,,,,,,,,,,,,,,,,,,,,,,,,,,,,,,,,,,,,,,,,,,,,,,,,,,,,,,,,,,,,,,,,
1702359964,1702359964,40,0,4325.256348,4325.769043,4310.897461,4340,4281.025879,4275.769043,4277.179688,4295.256348,4264.102539,4230.641113,4490.384766,4487.563965,4385.512695,4456.538574,0,3,61,,,,0,4,4,4,4,4,4,4,4,4,4,4,4,4,4,100,,,,,,,,,,,,,,,,,10,0,0.106204,0.663147,-0.330688,0.663025,0.925406,-0.311561,-0.096691,-2.404097,-65.92128,25.994047,,,,,,,,,,,,,,,,,,,,,,,,,,,,,,,,,,,,,,,,,,,,,,,,,,,,,,,,,,,,,,,,,,,,,,,,,,,,,,,,,,,,,,,,,,,,,,,,,,,,,,,,,,
1702359964,1702359964,41,0,4325.641113,4326.410156,4317.94873,4344.743652,4290.256348,4277.436035,4280.128418,4294.743652,4262.692383,4243.077148,4488.461426,4496.922852,4389.743652,4458.974121,0,3,61,,,,0,4,4,4,4,4,4,4,4,4,4,4,4,4,4,100,,,,,,,,,,,,,,,,,,,,,,,,,,,,,,,,,,,,,,,,,,,,,,,,,,,,,,,,,,,,,,,,,,,,,,,,,,,,,,,,,,,,,,,,,,,,,,,,,,,,,,,,,,,,,,,,,,,,,,,,,,,,,,,,,,,,,,
1702359964,1702359964,42,0,4328.077148,4330.512695,4328.461426,4354.230957,4296.794922,4279.615234,4282.820313,4293.077148,4264.230957,4245.512695,4489.487305,4506.538574,4393.205078,4468.717773,0,3,61,,,,0,4,4,4,4,4,4,4,4,4,4,4,4,4,4,100,,,,,,,,,,,,,,,,,,,,,,,,,,,,,,,,,,,,,,,,,,,,,,,,,,,,,,,,,,,,,,,,,,,,,,,,,,,,,,,,,,,,,,,,,,,,,,,,,,,,,,,,,,,,,,,,,,,,,,,,,,,,,,,,,,,,,,
1702359964,1702359964,43,0,4329.102539,4327.05127,4325.384766,4350.897461,4299.743652,4281.666504,4282.820313,4298.846191,4271.282227,4237.820313,4491.153809,4501.666504,4388.717773,4468.077148,0,3,61,,,,0,4,4,4,4,4,4,4,4,4,4,4,4,4,4,100,,,,,,,,,,,,,,,,,,,,,,,,,,,,,,,,,,,,,,,,,,,,,,,,,,,,,,,,,,,,,,,,,,,,,,,,,,,,,,,,,,,,,,,,,,,,,,,,,,,,,,,,,,,,,,,,,,,,,,,,,,,,,,,,,,,,,,
1702359964,1702359964,44,0,4327.307617,4326.282227,4322.179688,4343.974121,4302.563965,4282.692383,4291.025879,4309.487305,4274.871582,4240.128418,4492.563965,4500.384766,4387.179688,4459.743652,0,3,61,,,,0,4,4,4,4,4,4,4,4,4,4,4,4,4,4,100,,,,,,,,,,,,,,,,,11,0,0.106395,0.663147,-0.330872,0.662903,0.941521,-0.289586,-0.108412,-2.530354,-65.745819,25.927977,,,,,,,,,,,,,,,,,,,,,,,,,,,,,,,,,,,,,,,,,,,,,,,,,,,,,,,,,,,,,,,,,,,,,,,,,,,,,,,,,,,,,,,,,,,,,,,,,,,,,,,,,,
1702359964,1702359964,45,0,4324.743652,4327.94873,4325.641113,4343.333496,4298.461426,4282.179688,4293.846191,4309.871582,4267.820313,4241.282227,4491.666504,4503.333496,4382.563965,4460.256348,0,3,61,,,,0,4,4,4,4,4,4,4,4,4,4,4,4,4,4,100,1,100,4,4,4,4,4,4,4,4,4,4,4,4,4,4,,,,,,,,,,,,,,,,,,,,,,,,,,,,,,,,,,,,,,,,,,,,,,,,,3.200682,1.039548,0.741548,0.324139,0.072354,2.922062,0.433278,0.638221,0.253146,0.099567,4.383532,1.85334,0.592624,0.439466,0.08519,1.935855,1.10153,0.881699,0.33258,0.123041,1.089654,0.472361,0.321686,0.212011,0.086226,0.560927,0.372191,0.168907,0.183524,0.081689,0.788618,0.564142,0.133695,0.175309,0.088355,0.846455,1.267676,0.215051,0.146286,0.099276,1.436836,1.291688,0.455566,0.297966,0.09618,1.545404,1.223175,0.880138,0.580213,0.273702,2.589322,1.364685,0.679688,0.50368,0.117511,4.083493,2.017331,0.704638,0.503474,0.105736,0.927885,0.839755,0.644,0.423281,0.146952,4.057896,1.499479,0.808112,0.37152,0.093582
1702359964,1702359964,46,0,4321.153809,4317.563965,4319.487305,4338.974121,4291.666504,4279.743652,4284.230957,4299.358887,4261.153809,4230.769043,4481.410156,4496.666504,4371.282227,4458.333496,0,3,61,,,,0,4,4,4,4,4,4,4,4,4,4,4,4,4,4,100,,,,,,,,,,,,,,,,,,,,,,,,,,,,,,,,,,,,,,,,,,,,,,,,,,,,,,,,,,,,,,,,,,,,,,,,,,,,,,,,,,,,,,,,,,,,,,,,,,,,,,,,,,,,,,,,,,,,,,,,,,,,,,,,,,,,,,
1702359964,1702359964,47,0,4315.512695,4311.666504,4308.974121,4332.179688,4292.05127,4279.102539,4283.974121,4295.256348,4264.102539,4232.05127,4472.307617,4486.922852,4370.512695,4447.436035,0,3,61,,,,0,4,4,4,4,4,4,4,4,4,4,4,4,4,4,100,,,,,,,,,,,,,,,,,,,,,,,,,,,,,,,,,,,,,,,,,,,,,,,,,,,,,,,,,,,,,,,,,,,,,,,,,,,,,,,,,,,,,,,,,,,,,,,,,,,,,,,,,,,,,,,,,,,,,,,,,,,,,,,,,,,,,,
1702359964,1702359964,48,0,4317.692383,4320.897461,4312.94873,4334.230957,4295.128418,4280.128418,4289.102539,4298.717773,4266.794922,4247.179688,4479.230957,4490.641113,4382.05127,4450.128418,0,3,61,,,,0,4,4,4,4,4,4,4,4,4,4,4,4,4,4,100,,,,,,,,,,,,,,,,,12,0,0.106584,0.663269,-0.330811,0.662781,0.940056,-0.293981,-0.101575,-2.477318,-65.787903,25.985178,,,,,,,,,,,,,,,,,,,,,,,,,,,,,,,,,,,,,,,,,,,,,,,,,,,,,,,,,,,,,,,,,,,,,,,,,,,,,,,,,,,,,,,,,,,,,,,,,,,,,,,,,,
1702359964,1702359964,49,0,4325.769043,4325.256348,4324.615234,4340,4293.205078,4278.846191,4283.717773,4297.692383,4265.897461,4249.871582,4489.487305,4501.025879,4386.025879,4462.563965,0,3,61,,,,0,4,4,4,4,4,4,4,4,4,4,4,4,4,4,100,,,,,,,,,,,,,,,,,,,,,,,,,,,,,,,,,,,,,,,,,,,,,,,,,,,,,,,,,,,,,,,,,,,,,,,,,,,,,,,,,,,,,,,,,,,,,,,,,,,,,,,,,,,,,,,,,,,,,,,,,,,,,,,,,,,,,,
1702359964,1702359964,50,0,4328.846191,4320.128418,4328.205078,4342.307617,4288.589844,4278.077148,4275.384766,4295.641113,4266.410156,4241.922852,4489.615234,4502.307617,4380.897461,4462.563965,0,3,61,,,,0,4,4,4,4,4,4,4,4,4,4,4,4,4,4,100,,,,,,,,,,,,,,,,,,,,,,,,,,,,,,,,,,,,,,,,,,,,,,,,,,,,,,,,,,,,,,,,,,,,,,,,,,,,,,,,,,,,,,,,,,,,,,,,,,,,,,,,,,,,,,,,,,,,,,,,,,,,,,,,,,,,,,
1702359964,1702359964,51,0,4329.102539,4323.461426,4326.410156,4344.102539,4292.563965,4280.384766,4280.897461,4297.307617,4266.666504,4243.589844,4490.384766,4501.794922,4383.846191,4460.256348,0,3,61,,,,0,4,4,4,4,4,4,4,4,4,4,4,4,4,4,100,,,,,,,,,,,,,,,,,,,,,,,,,,,,,,,,,,,,,,,,,,,,,,,,,,,,,,,,,,,,,,,,,,,,,,,,,,,,,,,,,,,,,,,,,,,,,,,,,,,,,,,,,,,,,,,,,,,,,,,,,,,,,,,,,,,,,,
1702359964,1702359964,52,0,4328.717773,4327.179688,4324.615234,4344.871582,4297.563965,4282.05127,4289.743652,4297.436035,4266.538574,4251.153809,4491.922852,4500.384766,4389.615234,4462.307617,0,3,61,,,,0,4,4,4,4,4,4,4,4,4,4,4,4,4,4,100,,,,,,,,,,,,,,,,,13,0,0.106392,0.663391,-0.330505,0.662842,0.932243,-0.300818,-0.10011,-2.56292,-65.942444,25.83666,,,,,,,,,,,,,,,,,,,,,,,,,,,,,,,,,,,,,,,,,,,,,,,,,,,,,,,,,,,,,,,,,,,,,,,,,,,,,,,,,,,,,,,,,,,,,,,,,,,,,,,,,,
1702359964,1702359964,53,0,4325.384766,4316.922852,4322.307617,4342.307617,4286.922852,4278.205078,4285.384766,4299.358887,4270.128418,4247.563965,4489.743652,4496.153809,4388.205078,4459.358887,0,3,61,,,,0,4,4,4,4,4,4,4,4,4,4,4,4,4,4,100,,,,,,,,,,,,,,,,,,,,,,,,,,,,,,,,,,,,,,,,,,,,,,,,,,,,,,,,,,,,,,,,,,,,,,,,,,,,,,,,,,,,,,,,,,,,,,,,,,,,,,,,,,,,,,,,,,,,,,,,,,,,,,,,,,,,,,
1702359964,1702359964,54,0,4325.128418,4312.307617,4324.615234,4341.666504,4281.794922,4277.820313,4280.512695,4307.179688,4276.922852,4249.871582,4491.794922,4500.897461,4390.641113,4457.563965,0,3,61,,,,0,4,4,4,4,4,4,4,4,4,4,4,4,4,4,100,,,,,,,,,,,,,,,,,,,,,,,,,,,,,,,,,,,,,,,,,,,,,,,,,,,,,,,,,,,,,,,,,,,,,,,,,,,,,,,,,,,,,,,,,,,,,,,,,,,,,,,,,,,,,,,,,,,,,,,,,,,,,,,,,,,,,,
1702359964,1702359964,55,0,4327.820313,4318.461426,4327.820313,4343.333496,4287.94873,4279.230957,4281.410156,4307.179688,4277.179688,4256.794922,4494.743652,4507.820313,4398.333496,4461.025879,0,3,61,,,,0,4,4,4,4,4,4,4,4,4,4,4,4,4,4,100,,,,,,,,,,,,,,,,,,,,,,,,,,,,,,,,,,,,,,,,,,,,,,,,,,,,,,,,,,,,,,,,,,,,,,,,,,,,,,,,,,,,,,,,,,,,,,,,,,,,,,,,,,,,,,,,,,,,,,,,,,,,,,,,,,,,,,
1702359964,1702359964,56,0,4325,4320.769043,4325,4342.307617,4285.256348,4270.897461,4277.692383,4295.641113,4268.205078,4253.589844,4491.538574,4499.230957,4397.94873,4461.153809,0,3,61,,,,0,4,4,4,4,4,4,4,4,4,4,4,4,4,4,100,,,,,,,,,,,,,,,,,14,0,0.106389,0.663452,-0.330261,0.662903,0.943475,-0.293493,-0.117202,-2.489961,-66.198204,25.936327,,,,,,,,,,,,,,,,,,,,,,,,,,,,,,,,,,,,,,,,,,,,,,,,,,,,,,,,,,,,,,,,,,,,,,,,,,,,,,,,,,,,,,,,,,,,,,,,,,,,,,,,,,
1702359964,1702359964,57,0,4323.461426,4320.641113,4322.563965,4342.692383,4284.230957,4266.410156,4273.717773,4291.025879,4262.436035,4255.769043,4490.512695,4489.743652,4396.153809,4461.025879,0,3,61,,,,0,4,4,4,4,4,4,4,4,4,4,4,4,4,4,100,,,,,,,,,,,,,,,,,,,,,,,,,,,,,,,,,,,,,,,,,,,,,,,,,,,,,,,,,,,,,,,,,,,,,,,,,,,,,,,,,,,,,,,,,,,,,,,,,,,,,,,,,,,,,,,,,,,,,,,,,,,,,,,,,,,,,,
1702359964,1702359964,58,0,4323.846191,4321.794922,4323.974121,4344.743652,4292.436035,4275.897461,4278.717773,4296.922852,4265.641113,4259.487305,4494.102539,4492.94873,4398.974121,4461.025879,0,3,61,,,,0,4,4,4,4,4,4,4,4,4,4,4,4,4,4,100,,,,,,,,,,,,,,,,,,,,,,,,,,,,,,,,,,,,,,,,,,,,,,,,,,,,,,,,,,,,,,,,,,,,,,,,,,,,,,,,,,,,,,,,,,,,,,,,,,,,,,,,,,,,,,,,,,,,,,,,,,,,,,,,,,,,,,
1702359964,1702359964,59,0,4316.922852,4316.666504,4320.769043,4342.307617,4289.230957,4277.692383,4277.94873,4293.333496,4266.153809,4249.743652,4489.871582,4491.410156,4393.205078,4455.512695,0,3,61,,,,0,4,4,4,4,4,4,4,4,4,4,4,4,4,4,100,,,,,,,,,,,,,,,,,,,,,,,,,,,,,,,,,,,,,,,,,,,,,,,,,,,,,,,,,,,,,,,,,,,,,,,,,,,,,,,,,,,,,,,,,,,,,,,,,,,,,,,,,,,,,,,,,,,,,,,,,,,,,,,,,,,,,,
1702359964,1702359964,60,0,4310.512695,4309.615234,4313.846191,4339.743652,4279.230957,4264.871582,4266.153809,4282.179688,4261.153809,4243.333496,4481.282227,4483.077148,4383.333496,4447.05127,0,3,61,,,,0,4,4,4,4,4,4,4,4,4,4,4,4,4,4,100,,,,,,,,,,,,,,,,,15,0,0.106578,0.663391,-0.3302,0.662964,0.933708,-0.295446,-0.099133,-2.440965,-66.161713,25.959362,,,,,,,,,,,,,,,,,,,,,,,,,,,,,,,,,,,,,,,,,,,,,,,,,,,,,,,,,,,,,,,,,,,,,,,,,,,,,,,,,,,,,,,,,,,,,,,,,,,,,,,,,,
1702359964,1702359964,61,0,4311.282227,4312.179688,4312.179688,4341.538574,4281.922852,4263.846191,4265.641113,4281.153809,4259.615234,4250.641113,4478.205078,4478.333496,4382.94873,4445.769043,0,3,61,,,,0,4,4,4,4,4,4,4,4,4,4,4,4,4,4,100,,,,,,,,,,,,,,,,,,,,,,,,,,,,,,,,,,,,,,,,,,,,,,,,,,,,,,,,,,,,,,,,,2.602099,0.96121,0.82197,0.304446,0.063857,2.844595,0.42591,0.652749,0.246633,0.088425,3.800193,1.767869,0.573632,0.407165,0.083856,2.113011,1.155246,0.796644,0.295603,0.11622,0.986219,0.482402,0.32651,0.216587,0.083827,0.520152,0.39611,0.17002,0.170035,0.079873,0.769718,0.582291,0.150353,0.146821,0.081659,0.804461,1.378509,0.194381,0.138046,0.111957,1.342175,1.204339,0.429416,0.295102,0.099755,1.731493,1.130243,0.840517,0.547152,0.256069,2.315612,1.205549,0.624763,0.462241,0.113417,3.448747,1.894884,0.668249,0.432086,0.101467,0.837419,0.784221,0.671493,0.429972,0.138502,3.450378,1.406395,0.827787,0.353365,0.095152
1702359964,1702359964,62,0,4311.410156,4315.512695,4313.205078,4341.666504,4285.256348,4274.487305,4270.256348,4283.461426,4262.692383,4250.769043,4477.436035,4476.666504,4383.461426,4447.05127,0,3,61,,,,0,4,4,4,4,4,4,4,4,4,4,4,4,4,4,100,,,,,,,,,,,,,,,,,,,,,,,,,,,,,,,,,,,,,,,,,,,,,,,,,,,,,,,,,,,,,,,,,,,,,,,,,,,,,,,,,,,,,,,,,,,,,,,,,,,,,,,,,,,,,,,,,,,,,,,,,,,,,,,,,,,,,,
1702359964,1702359964,63,0,4308.717773,4311.538574,4309.358887,4336.153809,4280.128418,4273.589844,4266.794922,4278.461426,4262.692383,4244.487305,4473.846191,4474.871582,4379.743652,4443.589844,0,3,61,,,,0,4,4,4,4,4,4,4,4,4,4,4,4,4,4,100,,,,,,,,,,,,,,,,,,,,,,,,,,,,,,,,,,,,,,,,,,,,,,,,,,,,,,,,,,,,,,,,,,,,,,,,,,,,,,,,,,,,,,,,,,,,,,,,,,,,,,,,,,,,,,,,,,,,,,,,,,,,,,,,,,,,,,
1702359964,1702359964,64,0,4305.769043,4310,4306.410156,4335.128418,4277.563965,4271.025879,4269.615234,4280.384766,4261.282227,4248.333496,4474.358887,4475.897461,4382.94873,4442.307617,5430,3,61,,,,0,4,4,4,4,4,4,4,4,4,4,4,4,4,4,100,,,,,,,,,,,,,,,,,16,0,0.106769,0.663391,-0.330261,0.662903,0.94201,-0.294958,-0.102063,-2.530202,-66.128876,25.946758,,,,,,,,,,,,,,,,,,,,,,,,,,,,,,,,,,,,,,,,,,,,,,,,,,,,,,,,,,,,,,,,,,,,,,,,,,,,,,,,,,,,,,,,,,,,,,,,,,,,,,,,,,
1702359964,1702359964,65,0,4300.641113,4309.743652,4303.974121,4337.820313,4279.487305,4273.461426,4274.615234,4287.563965,4262.692383,4252.94873,4474.230957,4476.538574,4385.512695,4441.025879,5517,3,61,,,,0,4,4,4,4,4,4,4,4,4,4,4,4,4,4,100,,,,,,,,,,,,,,,,,,,,,,,,,,,,,,,,,,,,,,,,,,,,,,,,,,,,,,,,,,,,,,,,,,,,,,,,,,,,,,,,,,,,,,,,,,,,,,,,,,,,,,,,,,,,,,,,,,,,,,,,,,,,,,,,,,,,,,
1702359964,1702359964,66,0,4290.769043,4305.128418,4297.563965,4333.333496,4278.461426,4269.102539,4267.692383,4284.358887,4264.230957,4246.282227,4463.205078,4467.820313,4373.461426,4427.94873,5400,3,61,,,,0,4,4,4,4,4,4,4,4,4,4,4,4,4,4,100,,,,,,,,,,,,,,,,,,,,,,,,,,,,,,,,,,,,,,,,,,,,,,,,,,,,,,,,,,,,,,,,,,,,,,,,,,,,,,,,,,,,,,,,,,,,,,,,,,,,,,,,,,,,,,,,,,,,,,,,,,,,,,,,,,,,,,
1702359964,1702359964,67,0,4281.025879,4296.794922,4293.974121,4324.871582,4270,4262.179688,4260.128418,4278.717773,4262.307617,4233.205078,4455.256348,4457.94873,4364.102539,4415,5360,3,61,,,,0,4,4,4,4,4,4,4,4,4,4,4,4,4,4,100,,,,,,,,,,,,,,,,,,,,,,,,,,,,,,,,,,,,,,,,,,,,,,,,,,,,,,,,,,,,,,,,,,,,,,,,,,,,,,,,,,,,,,,,,,,,,,,,,,,,,,,,,,,,,,,,,,,,,,,,,,,,,,,,,,,,,,
1702359964,1702359964,68,0,4280,4293.589844,4295.256348,4325.384766,4264.871582,4263.077148,4261.410156,4280,4259.615234,4230.512695,4458.974121,4459.102539,4371.794922,4419.615234,5344,3,61,,,,0,4,4,4,4,4,4,4,4,4,4,4,4,4,4,100,,,,,,,,,,,,,,,,,17,0,0.106769,0.663452,-0.330261,0.662842,0.937614,-0.291051,-0.10597,-2.543849,-66.199326,25.86875,,,,,,,,,,,,,,,,,,,,,,,,,,,,,,,,,,,,,,,,,,,,,,,,,,,,,,,,,,,,,,,,,,,,,,,,,,,,,,,,,,,,,,,,,,,,,,,,,,,,,,,,,,
1702359964,1702359964,69,0,4283.846191,4299.487305,4296.538574,4333.846191,4271.410156,4265.641113,4263.077148,4280.256348,4259.871582,4242.563965,4461.922852,4464.871582,4382.05127,4428.077148,5217,3,61,,,,0,4,4,4,4,4,4,4,4,4,4,4,4,4,4,100,,,,,,,,,,,,,,,,,,,,,,,,,,,,,,,,,,,,,,,,,,,,,,,,,,,,,,,,,,,,,,,,,,,,,,,,,,,,,,,,,,,,,,,,,,,,,,,,,,,,,,,,,,,,,,,,,,,,,,,,,,,,,,,,,,,,,,
1702359964,1702359964,70,0,4279.871582,4305,4291.025879,4334.487305,4277.820313,4264.871582,4262.05127,4278.205078,4257.94873,4245.641113,4459.358887,4461.025879,4381.794922,4421.282227,5150,3,61,,,,0,4,4,4,4,4,4,4,4,4,4,4,4,4,4,100,,,,,,,,,,,,,,,,,,,,,,,,,,,,,,,,,,,,,,,,,,,,,,,,,,,,,,,,,,,,,,,,,,,,,,,,,,,,,,,,,,,,,,,,,,,,,,,,,,,,,,,,,,,,,,,,,,,,,,,,,,,,,,,,,,,,,,
1702359964,1702359964,71,0,4275.512695,4304.358887,4282.94873,4327.179688,4276.153809,4265.641113,4262.820313,4276.410156,4253.589844,4236.922852,4457.436035,4452.563965,4380,4413.205078,5155,3,61,,,,0,4,4,4,4,4,4,4,4,4,4,4,4,4,4,100,,,,,,,,,,,,,,,,,,,,,,,,,,,,,,,,,,,,,,,,,,,,,,,,,,,,,,,,,,,,,,,,,,,,,,,,,,,,,,,,,,,,,,,,,,,,,,,,,,,,,,,,,,,,,,,,,,,,,,,,,,,,,,,,,,,,,,
1702359964,1702359964,72,0,4273.589844,4301.153809,4282.563965,4324.230957,4276.538574,4266.153809,4261.922852,4273.205078,4255,4239.615234,4459.102539,4451.922852,4382.179688,4416.410156,5300,3,61,,,,0,4,4,4,4,4,4,4,4,4,4,4,4,4,4,100,,,,,,,,,,,,,,,,,18,0,0.106769,0.663452,-0.330261,0.662842,0.929801,-0.299353,-0.101087,-2.489464,-66.196053,25.981874,,,,,,,,,,,,,,,,,,,,,,,,,,,,,,,,,,,,,,,,,,,,,,,,,,,,,,,,,,,,,,,,,,,,,,,,,,,,,,,,,,,,,,,,,,,,,,,,,,,,,,,,,,
1702359964,1702359964,73,0,4265.512695,4298.717773,4286.922852,4326.282227,4280,4266.153809,4261.666504,4272.94873,4257.820313,4243.205078,4458.846191,4453.461426,4377.05127,4416.153809,5360,3,61,,,,0,4,4,4,4,4,4,4,4,4,4,4,4,4,4,100,,,,,,,,,,,,,,,,,,,,,,,,,,,,,,,,,,,,,,,,,,,,,,,,,,,,,,,,,,,,,,,,,,,,,,,,,,,,,,,,,,,,,,,,,,,,,,,,,,,,,,,,,,,,,,,,,,,,,,,,,,,,,,,,,,,,,,
1702359964,1702359964,74,0,4265.256348,4295.512695,4290.769043,4326.922852,4274.615234,4265.641113,4262.692383,4276.025879,4257.692383,4234.743652,4457.179688,4453.205078,4368.589844,4414.230957,5906,3,61,,,,0,4,4,4,4,4,4,4,4,4,4,4,4,4,4,100,,,,,,,,,,,,,,,,,,,,,,,,,,,,,,,,,,,,,,,,,,,,,,,,,,,,,,,,,,,,,,,,,,,,,,,,,,,,,,,,,,,,,,,,,,,,,,,,,,,,,,,,,,,,,,,,,,,,,,,,,,,,,,,,,,,,,,
1702359964,1702359964,75,0,4279.871582,4299.487305,4296.153809,4327.307617,4271.282227,4264.615234,4262.436035,4276.410156,4260.256348,4236.666504,4459.230957,4457.05127,4378.589844,4424.615234,6277,3,61,,,,0,4,4,4,4,4,4,4,4,4,4,4,4,4,4,100,,,,,,,,,,,,,,,,,,,,,,,,,,,,,,,,,,,,,,,,,,,,,,,,,,,,,,,,,,,,,,,,,,,,,,,,,,,,,,,,,,,,,,,,,,,,,,,,,,,,,,,,,,,,,,,,,,,,,,,,,,,,,,,,,,,,,,
1702359964,1702359964,76,0,4282.436035,4304.102539,4299.487305,4328.846191,4277.05127,4263.974121,4263.077148,4276.666504,4262.94873,4250.256348,4461.922852,4464.358887,4384.615234,4431.922852,6781,3,61,,,,0,4,4,4,4,4,4,4,4,4,4,4,4,4,4,100,,,,,,,,,,,,,,,,,19,0,0.106769,0.663452,-0.330261,0.662842,0.926383,-0.295935,-0.098645,-2.507184,-66.043114,26.06702,,,,,,,,,,,,,,,,,,,,,,,,,,,,,,,,,,,,,,,,,,,,,,,,,,,,,,,,,,,,,,,,,,,,,,,,,,,,,,,,,,,,,,,,,,,,,,,,,,,,,,,,,,
1702359964,1702359964,77,0,4265.769043,4294.487305,4296.538574,4326.538574,4273.846191,4264.871582,4263.077148,4279.230957,4261.025879,4247.563965,4457.179688,4462.563965,4368.846191,4420.384766,7047,3,61,,,,0,4,4,4,4,4,4,4,4,4,4,4,4,4,4,100,,,,,,,,,,,,,,,,,,,,,,,,,,,,,,,,,,,,,,,,,,,,,,,,,,,,,,,,,,,,,,,,,2.075673,0.950166,0.899483,0.29319,0.06545,2.956345,0.537975,0.678511,0.260581,0.081623,3.040606,1.6344,0.55801,0.366487,0.084711,2.350444,1.277279,0.68606,0.274287,0.106342,0.858449,0.461368,0.327592,0.21476,0.07895,0.494539,0.435248,0.176261,0.15494,0.081158,0.745807,0.627156,0.172928,0.131961,0.081542,0.78252,1.499063,0.183292,0.133469,0.133784,1.341874,1.14621,0.389484,0.293815,0.105461,1.984937,0.998554,0.752048,0.504219,0.246353,2.095357,1.096009,0.574337,0.430406,0.121831,2.818099,1.829988,0.62846,0.364927,0.10462,0.88711,0.822956,0.712539,0.440359,0.133319,2.813102,1.383951,0.857825,0.350385,0.100597
1702359964,1702359964,78,0,4259.487305,4287.05127,4293.461426,4323.717773,4263.461426,4263.974121,4258.461426,4279.871582,4259.743652,4241.666504,4453.846191,4455.769043,4367.179688,4409.743652,5906,3,61,,,,0,4,4,4,4,4,4,4,4,4,4,4,4,4,4,100,,,,,,,,,,,,,,,,,,,,,,,,,,,,,,,,,,,,,,,,,,,,,,,,,,,,,,,,,,,,,,,,,,,,,,,,,,,,,,,,,,,,,,,,,,,,,,,,,,,,,,,,,,,,,,,,,,,,,,,,,,,,,,,,,,,,,,
1702359964,1702359964,79,0,4272.179688,4292.692383,4295.512695,4325.384766,4263.333496,4260.128418,4255.256348,4277.563965,4261.922852,4247.179688,4465.384766,4461.666504,4386.666504,4417.307617,6277,3,61,,,,0,4,4,4,4,4,4,4,4,4,4,4,4,4,4,100,,,,,,,,,,,,,,,,,,,,,,,,,,,,,,,,,,,,,,,,,,,,,,,,,,,,,,,,,,,,,,,,,,,,,,,,,,,,,,,,,,,,,,,,,,,,,,,,,,,,,,,,,,,,,,,,,,,,,,,,,,,,,,,,,,,,,,
1702359964,1702359964,80,0,4282.179688,4296.794922,4304.102539,4331.922852,4268.461426,4260.641113,4260.128418,4277.94873,4264.871582,4250.769043,4478.077148,4473.717773,4401.794922,4430.897461,6781,3,61,,,,0,4,4,4,4,4,4,4,4,4,4,4,4,4,4,100,,,,,,,,,,,,,,,,,20,0,0.106389,0.663391,-0.330261,0.662964,0.930289,-0.304725,-0.110365,-2.539799,-65.972137,26.043652,,,,,,,,,,,,,,,,,,,,,,,,,,,,,,,,,,,,,,,,,,,,,,,,,,,,,,,,,,,,,,,,,,,,,,,,,,,,,,,,,,,,,,,,,,,,,,,,,,,,,,,,,,
1702359964,1702359964,81,0,4280.256348,4294.487305,4312.820313,4335.512695,4267.563965,4264.487305,4264.871582,4281.794922,4268.077148,4252.05127,4480.256348,4478.846191,4408.461426,4436.153809,7047,3,61,,,,0,4,4,4,4,4,4,4,4,4,4,4,4,4,4,100,,,,,,,,,,,,,,,,,,,,,,,,,,,,,,,,,,,,,,,,,,,,,,,,,,,,,,,,,,,,,,,,,,,,,,,,,,,,,,,,,,,,,,,,,,,,,,,,,,,,,,,,,,,,,,,,,,,,,,,,,,,,,,,,,,,,,,
1702359964,1702359964,82,0,4279.487305,4292.820313,4308.846191,4332.563965,4265.512695,4263.461426,4262.94873,4282.563965,4267.436035,4251.282227,4478.077148,4477.436035,4403.846191,4431.794922,5906,3,61,,,,0,4,4,4,4,4,4,4,4,4,4,4,4,4,4,100,,,,,,,,,,,,,,,,,,,,,,,,,,,,,,,,,,,,,,,,,,,,,,,,,,,,,,,,,,,,,,,,,,,,,,,,,,,,,,,,,,,,,,,,,,,,,,,,,,,,,,,,,,,,,,,,,,,,,,,,,,,,,,,,,,,,,,
1702359964,1702359964,83,0,4279.871582,4292.94873,4298.333496,4322.179688,4264.102539,4257.820313,4259.871582,4278.077148,4264.358887,4249.487305,4473.846191,4472.563965,4389.358887,4428.717773,6277,3,61,,,,0,4,4,4,4,4,4,4,4,4,4,4,4,4,4,100,,,,,,,,,,,,,,,,,,,,,,,,,,,,,,,,,,,,,,,,,,,,,,,,,,,,,,,,,,,,,,,,,,,,,,,,,,,,,,,,,,,,,,,,,,,,,,,,,,,,,,,,,,,,,,,,,,,,,,,,,,,,,,,,,,,,,,
1702359964,1702359964,84,0,4271.410156,4288.333496,4296.922852,4314.615234,4260,4256.538574,4259.871582,4276.794922,4265.256348,4251.794922,4467.692383,4466.282227,4390,4427.05127,6781,3,61,,,,0,4,4,4,4,4,4,4,4,4,4,4,4,4,4,100,,,,,,,,,,,,,,,,,21,0,0.106389,0.663391,-0.330261,0.662964,0.938103,-0.310585,-0.100598,-2.619152,-66.024925,26.22262,,,,,,,,,,,,,,,,,,,,,,,,,,,,,,,,,,,,,,,,,,,,,,,,,,,,,,,,,,,,,,,,,,,,,,,,,,,,,,,,,,,,,,,,,,,,,,,,,,,,,,,,,,
1702359964,1702359964,85,0,4264.230957,4282.692383,4295.384766,4314.615234,4257.05127,4257.563965,4258.205078,4278.589844,4265.256348,4247.307617,4461.922852,4461.538574,4396.410156,4420,7047,3,61,,,,0,4,4,4,4,4,4,4,4,4,4,4,4,4,4,100,,,,,,,,,,,,,,,,,,,,,,,,,,,,,,,,,,,,,,,,,,,,,,,,,,,,,,,,,,,,,,,,,,,,,,,,,,,,,,,,,,,,,,,,,,,,,,,,,,,,,,,,,,,,,,,,,,,,,,,,,,,,,,,,,,,,,,
1702359964,1702359964,86,0,4263.205078,4285.641113,4287.179688,4313.589844,4257.563965,4256.153809,4252.436035,4270.897461,4260.256348,4235,4459.358887,4458.333496,4386.282227,4411.666504,5906,3,61,,,,0,4,4,4,4,4,4,4,4,4,4,4,4,4,4,100,,,,,,,,,,,,,,,,,,,,,,,,,,,,,,,,,,,,,,,,,,,,,,,,,,,,,,,,,,,,,,,,,,,,,,,,,,,,,,,,,,,,,,,,,,,,,,,,,,,,,,,,,,,,,,,,,,,,,,,,,,,,,,,,,,,,,,
1702359964,1702359964,87,0,4262.692383,4292.692383,4285.128418,4313.717773,4259.358887,4255.128418,4248.333496,4264.102539,4258.333496,4236.410156,4458.205078,4455.128418,4381.410156,4409.102539,6277,3,61,,,,0,4,4,4,4,4,4,4,4,4,4,4,4,4,4,100,,,,,,,,,,,,,,,,,,,,,,,,,,,,,,,,,,,,,,,,,,,,,,,,,,,,,,,,,,,,,,,,,,,,,,,,,,,,,,,,,,,,,,,,,,,,,,,,,,,,,,,,,,,,,,,,,,,,,,,,,,,,,,,,,,,,,,
1702359964,1702359964,88,0,4267.436035,4293.589844,4292.436035,4319.358887,4259.615234,4257.94873,4249.615234,4270.897461,4263.333496,4248.589844,4459.358887,4458.846191,4388.333496,4411.282227,6781,3,61,,,,0,4,4,4,4,4,4,4,4,4,4,4,4,4,4,100,,,,,,,,,,,,,,,,,22,0,0.10658,0.663391,-0.330322,0.662903,0.934684,-0.301795,-0.107435,-2.557237,-66.005768,26.300358,,,,,,,,,,,,,,,,,,,,,,,,,,,,,,,,,,,,,,,,,,,,,,,,,,,,,,,,,,,,,,,,,,,,,,,,,,,,,,,,,,,,,,,,,,,,,,,,,,,,,,,,,,
1702359964,1702359964,89,0,4277.307617,4293.717773,4300.641113,4326.538574,4261.922852,4262.820313,4250.641113,4276.922852,4264.871582,4249.871582,4466.922852,4468.589844,4390.897461,4418.077148,7047,3,61,,,,0,4,4,4,4,4,4,4,4,4,4,4,4,4,4,100,,,,,,,,,,,,,,,,,,,,,,,,,,,,,,,,,,,,,,,,,,,,,,,,,,,,,,,,,,,,,,,,,,,,,,,,,,,,,,,,,,,,,,,,,,,,,,,,,,,,,,,,,,,,,,,,,,,,,,,,,,,,,,,,,,,,,,
1702359964,1702359964,90,0,4281.794922,4294.615234,4302.05127,4326.922852,4259.871582,4258.589844,4250.769043,4273.974121,4262.307617,4247.179688,4478.461426,4476.282227,4390.897461,4427.820313,5906,3,61,,,,0,4,4,4,4,4,4,4,4,4,4,4,4,4,4,100,,,,,,,,,,,,,,,,,,,,,,,,,,,,,,,,,,,,,,,,,,,,,,,,,,,,,,,,,,,,,,,,,,,,,,,,,,,,,,,,,,,,,,,,,,,,,,,,,,,,,,,,,,,,,,,,,,,,,,,,,,,,,,,,,,,,,,
1702359964,1702359964,91,0,4279.230957,4289.487305,4297.692383,4320.384766,4252.820313,4251.922852,4256.922852,4275.128418,4262.563965,4251.282227,4476.410156,4473.589844,4391.538574,4423.589844,6277,3,61,,,,0,4,4,4,4,4,4,4,4,4,4,4,4,4,4,100,,,,,,,,,,,,,,,,,,,,,,,,,,,,,,,,,,,,,,,,,,,,,,,,,,,,,,,,,,,,,,,,,,,,,,,,,,,,,,,,,,,,,,,,,,,,,,,,,,,,,,,,,,,,,,,,,,,,,,,,,,,,,,,,,,,,,,
1702359964,1702359964,92,0,4277.563965,4285.128418,4295.512695,4313.846191,4254.487305,4257.692383,4264.102539,4279.102539,4264.358887,4252.692383,4464.487305,4465.512695,4388.717773,4412.94873,6781,3,61,,,,0,4,4,4,4,4,4,4,4,4,4,4,4,4,4,100,,,,,,,,,,,,,,,,,23,0,0.106768,0.663513,-0.330261,0.662781,0.932243,-0.295446,-0.096691,-2.701513,-65.92186,26.270323,,,,,,,,,,,,,,,,,,,,,,,,,,,,,,,,,,,,,,,,,,,,,,,,,,,,,,,,,,,,,,,,,,,,,,,,,,,,,,,,,,,,,,,,,,,,,,,,,,,,,,,,,,
1702359964,1702359964,93,0,4276.794922,4285.769043,4299.102539,4312.563965,4258.846191,4263.717773,4265.256348,4278.589844,4268.974121,4250.641113,4468.333496,4468.333496,4391.410156,4417.692383,7047,3,61,,,,0,4,4,4,4,4,4,4,4,4,4,4,4,4,4,100,,,,,,,,,,,,,,,,,,,,,,,,,,,,,,,,,,,,,,,,,,,,,,,,,,,,,,,,,,,,,,,,,1.842764,1.00046,0.968296,0.295478,0.073145,3.54311,0.829742,0.771041,0.302561,0.082534,2.238691,1.457743,0.549673,0.328754,0.085083,2.68441,1.455919,0.610068,0.277549,0.096957,0.717093,0.41043,0.329581,0.206545,0.073255,0.49837,0.458603,0.18419,0.14093,0.085496,0.722189,0.655543,0.197717,0.135461,0.089235,0.777404,1.564943,0.185029,0.136954,0.162193,1.440284,1.070144,0.342525,0.298687,0.115644,2.247864,0.822791,0.638928,0.460733,0.252845,1.970742,1.036091,0.553433,0.412637,0.138761,2.26852,1.779144,0.590947,0.316416,0.113884,1.168055,0.955972,0.799906,0.46036,0.132828,2.3754,1.43543,0.922398,0.36555,0.107187
1702359964,1702359964,94,0,4278.205078,4283.077148,4300.641113,4312.436035,4253.589844,4258.974121,4264.230957,4280.769043,4273.846191,4252.179688,4480.256348,4476.666504,4399.615234,4428.077148,5906,3,61,,,,0,4,4,4,4,4,4,4,4,4,4,4,4,4,4,100,,,,,,,,,,,,,,,,,,,,,,,,,,,,,,,,,,,,,,,,,,,,,,,,,,,,,,,,,,,,,,,,,,,,,,,,,,,,,,,,,,,,,,,,,,,,,,,,,,,,,,,,,,,,,,,,,,,,,,,,,,,,,,,,,,,,,,
1702359964,1702359964,95,0,4280.384766,4278.333496,4301.025879,4308.717773,4246.025879,4256.666504,4264.743652,4281.410156,4269.230957,4250.897461,4478.846191,4475.769043,4396.153809,4426.794922,6277,3,61,,,,0,4,4,4,4,4,4,4,4,4,4,4,4,4,4,100,,,,,,,,,,,,,,,,,,,,,,,,,,,,,,,,,,,,,,,,,,,,,,,,,,,,,,,,,,,,,,,,,,,,,,,,,,,,,,,,,,,,,,,,,,,,,,,,,,,,,,,,,,,,,,,,,,,,,,,,,,,,,,,,,,,,,,
1702359964,1702359964,96,0,4280.256348,4279.102539,4307.307617,4311.282227,4250.512695,4262.05127,4265.512695,4279.230957,4263.333496,4249.102539,4474.358887,4475.256348,4390.512695,4423.974121,6781,3,61,,,,0,4,4,4,4,4,4,4,4,4,4,4,4,4,4,100,,,,,,,,,,,,,,,,,24,0,0.106577,0.663635,-0.3302,0.66272,0.939079,-0.314003,-0.103528,-2.781362,-66.046333,26.276623,,,,,,,,,,,,,,,,,,,,,,,,,,,,,,,,,,,,,,,,,,,,,,,,,,,,,,,,,,,,,,,,,,,,,,,,,,,,,,,,,,,,,,,,,,,,,,,,,,,,,,,,,,
1702359964,1702359964,97,0,4281.153809,4282.179688,4305.769043,4316.666504,4258.077148,4262.436035,4264.487305,4279.615234,4266.410156,4250,4477.94873,4478.333496,4395.128418,4429.487305,7047,3,61,,,,0,4,4,4,4,4,4,4,4,4,4,4,4,4,4,100,,,,,,,,,,,,,,,,,,,,,,,,,,,,,,,,,,,,,,,,,,,,,,,,,,,,,,,,,,,,,,,,,,,,,,,,,,,,,,,,,,,,,,,,,,,,,,,,,,,,,,,,,,,,,,,,,,,,,,,,,,,,,,,,,,,,,,
1702359964,1702359964,98,0,4282.692383,4282.820313,4296.666504,4314.102539,4256.025879,4260.128418,4262.820313,4279.615234,4266.794922,4249.230957,4474.743652,4472.179688,4397.179688,4428.461426,5906,3,61,,,,0,4,4,4,4,4,4,4,4,4,4,4,4,4,4,100,,,,,,,,,,,,,,,,,,,,,,,,,,,,,,,,,,,,,,,,,,,,,,,,,,,,,,,,,,,,,,,,,,,,,,,,,,,,,,,,,,,,,,,,,,,,,,,,,,,,,,,,,,,,,,,,,,,,,,,,,,,,,,,,,,,,,,
1702359964,1702359964,99,0,4279.487305,4280.641113,4289.487305,4309.358887,4249.102539,4259.487305,4259.102539,4274.615234,4259.743652,4247.436035,4462.692383,4460.897461,4387.179688,4415.512695,6277,3,61,,,,0,4,4,4,4,4,4,4,4,4,4,4,4,4,4,100,,,,,,,,,,,,,,,,,,,,,,,,,,,,,,,,,,,,,,,,,,,,,,,,,,,,,,,,,,,,,,,,,,,,,,,,,,,,,,,,,,,,,,,,,,,,,,,,,,,,,,,,,,,,,,,,,,,,,,,,,,,,,,,,,,,,,,
1702359964,1702359964,100,0,4276.922852,4281.538574,4289.743652,4313.974121,4245.384766,4257.05127,4251.666504,4266.666504,4257.05127,4245.512695,4456.794922,4456.410156,4376.922852,4409.358887,6781,3,61,,,,0,4,4,4,4,4,4,4,4,4,4,4,4,4,4,100,,,,,,,,,,,,,,,,,25,0,0.106766,0.663635,-0.330139,0.66272,0.932243,-0.290074,-0.106947,-2.819892,-66.075035,26.24896,,,,,,,,,,,,,,,,,,,,,,,,,,,,,,,,,,,,,,,,,,,,,,,,,,,,,,,,,,,,,,,,,,,,,,,,,,,,,,,,,,,,,,,,,,,,,,,,,,,,,,,,,,
1702359964,1702359964,101,0,4284.615234,4289.230957,4298.974121,4312.563965,4253.974121,4258.461426,4248.205078,4262.94873,4258.974121,4242.692383,4463.846191,4460.641113,4376.666504,4420.512695,7047,3,61,,,,0,4,4,4,4,4,4,4,4,4,4,4,4,4,4,100,,,,,,,,,,,,,,,,,,,,,,,,,,,,,,,,,,,,,,,,,,,,,,,,,,,,,,,,,,,,,,,,,,,,,,,,,,,,,,,,,,,,,,,,,,,,,,,,,,,,,,,,,,,,,,,,,,,,,,,,,,,,,,,,,,,,,,
1702359964,1702359964,102,0,4296.153809,4298.717773,4307.436035,4290.384766,4262.05127,4262.692383,4255.384766,4263.461426,4258.717773,4241.922852,4472.436035,4469.102539,4381.153809,4428.461426,5906,3,61,,,,0,4,4,4,4,4,4,4,4,4,4,4,4,4,4,100,,,,,,,,,,,,,,,,,,,,,,,,,,,,,,,,,,,,,,,,,,,,,,,,,,,,,,,,,,,,,,,,,,,,,,,,,,,,,,,,,,,,,,,,,,,,,,,,,,,,,,,,,,,,,,,,,,,,,,,,,,,,,,,,,,,,,,
1702359964,1702359964,103,0,4293.846191,4299.102539,4303.333496,4263.846191,4257.563965,4263.205078,4262.692383,4266.538574,4257.94873,4245,4472.94873,4471.282227,4383.717773,4422.307617,6277,3,61,,,,0,4,4,4,4,4,4,4,4,4,4,4,4,4,4,100,,,,,,,,,,,,,,,,,,,,,,,,,,,,,,,,,,,,,,,,,,,,,,,,,,,,,,,,,,,,,,,,,,,,,,,,,,,,,,,,,,,,,,,,,,,,,,,,,,,,,,,,,,,,,,,,,,,,,,,,,,,,,,,,,,,,,,
1702359964,1702359964,104,0,4283.333496,4287.94873,4295.384766,4249.743652,4248.077148,4260.256348,4261.666504,4273.717773,4261.153809,4247.436035,4473.205078,4466.025879,4382.94873,4415.897461,6781,3,61,,,,0,4,4,4,4,4,4,4,4,4,4,4,4,4,4,100,,,,,,,,,,,,,,,,,26,0,0.106765,0.663696,-0.330139,0.662659,0.934684,-0.308143,-0.106947,-2.787903,-66.117531,26.124065,,,,,,,,,,,,,,,,,,,,,,,,,,,,,,,,,,,,,,,,,,,,,,,,,,,,,,,,,,,,,,,,,,,,,,,,,,,,,,,,,,,,,,,,,,,,,,,,,,,,,,,,,,
1702359964,1702359964,105,0,4277.307617,4277.820313,4293.205078,4248.974121,4245.384766,4257.563965,4260.512695,4279.358887,4265.128418,4245,4473.717773,4463.077148,4380.897461,4413.589844,7047,3,61,,,,0,4,4,4,4,4,4,4,4,4,4,4,4,4,4,100,,,,,,,,,,,,,,,,,,,,,,,,,,,,,,,,,,,,,,,,,,,,,,,,,,,,,,,,,,,,,,,,,,,,,,,,,,,,,,,,,,,,,,,,,,,,,,,,,,,,,,,,,,,,,,,,,,,,,,,,,,,,,,,,,,,,,,
1702359964,1702359964,106,0,4280.512695,4277.436035,4293.717773,4257.94873,4248.205078,4257.692383,4263.333496,4279.743652,4266.538574,4248.461426,4475.897461,4466.794922,4381.410156,4414.743652,5906,3,61,,,,0,4,4,4,4,4,4,4,4,4,4,4,4,4,4,100,,,,,,,,,,,,,,,,,,,,,,,,,,,,,,,,,,,,,,,,,,,,,,,,,,,,,,,,,,,,,,,,,,,,,,,,,,,,,,,,,,,,,,,,,,,,,,,,,,,,,,,,,,,,,,,,,,,,,,,,,,,,,,,,,,,,,,
1702359964,1702359964,107,0,4289.230957,4282.94873,4295.641113,4271.025879,4248.974121,4261.538574,4262.563965,4276.410156,4266.666504,4259.102539,4483.461426,4467.179688,4385.256348,4418.974121,6277,3,61,,,,0,4,4,4,4,4,4,4,4,4,4,4,4,4,4,100,,,,,,,,,,,,,,,,,,,,,,,,,,,,,,,,,,,,,,,,,,,,,,,,,,,,,,,,,,,,,,,,,,,,,,,,,,,,,,,,,,,,,,,,,,,,,,,,,,,,,,,,,,,,,,,,,,,,,,,,,,,,,,,,,,,,,,
1702359964,1702359964,108,0,4293.717773,4289.615234,4297.307617,4283.333496,4251.410156,4263.846191,4259.871582,4270,4264.615234,4260,4485.641113,4462.436035,4385.769043,4420.256348,6781,3,61,,,,0,4,4,4,4,4,4,4,4,4,4,4,4,4,4,100,,,,,,,,,,,,,,,,,27,0,0.106767,0.663696,-0.330261,0.662598,0.937614,-0.307166,-0.104017,-2.792446,-66.039116,26.244991,,,,,,,,,,,,,,,,,,,,,,,,,,,,,,,,,,,,,,,,,,,,,,,,,,,,,,,,,,,,,,,,,,,,,,,,,,,,,,,,,,,,,,,,,,,,,,,,,,,,,,,,,,
1702359964,1702359964,109,0,4294.102539,4294.358887,4297.563965,4295.256348,4253.461426,4262.179688,4261.282227,4264.102539,4261.666504,4249.230957,4476.282227,4462.563965,4383.333496,4417.436035,7047,3,61,,,,0,4,4,4,4,4,4,4,4,4,4,4,4,4,4,100,1,100,4,4,4,4,4,4,4,4,4,4,4,4,4,4,,,,,,,,,,,,,,,,,,,,,,,,,,,,,,,,,,,,,,,,,,,,,,,,,2.0393,1.090492,1.012588,0.314721,0.082624,4.652359,1.28589,0.946768,0.371024,0.09174,1.585386,1.257939,0.542998,0.305891,0.08373,3.107004,1.630026,0.595877,0.304223,0.091405,0.574818,0.344605,0.331986,0.195646,0.06967,0.512983,0.448003,0.189318,0.130503,0.092291,0.682747,0.640754,0.220125,0.156024,0.103186,0.752092,1.532007,0.19866,0.148368,0.192151,1.579496,0.950141,0.299469,0.309578,0.12978,2.451557,0.622497,0.528176,0.420988,0.275799,1.960934,1.010522,0.574045,0.406476,0.157579,1.857297,1.698556,0.552838,0.294733,0.127426,1.694131,1.147421,0.944515,0.491676,0.137894,2.32828,1.538267,1.016794,0.399373,0.113241
1702359964,1702359964,110,0,4291.922852,4290,4297.05127,4296.410156,4251.025879,4260.512695,4259.871582,4266.410156,4263.077148,4245.384766,4472.436035,4463.846191,4383.077148,4415.384766,5906,3,61,,,,0,4,4,4,4,4,4,4,4,4,4,4,4,4,4,100,,,,,,,,,,,,,,,,,,,,,,,,,,,,,,,,,,,,,,,,,,,,,,,,,,,,,,,,,,,,,,,,,,,,,,,,,,,,,,,,,,,,,,,,,,,,,,,,,,,,,,,,,,,,,,,,,,,,,,,,,,,,,,,,,,,,,,
1702359964,1702359964,111,0,4286.282227,4281.538574,4293.205078,4287.820313,4246.153809,4260.128418,4252.563965,4267.05127,4265.256348,4247.179688,4473.205078,4456.282227,4378.205078,4411.794922,6277,3,61,,,,0,4,4,4,4,4,4,4,4,4,4,4,4,4,4,100,,,,,,,,,,,,,,,,,,,,,,,,,,,,,,,,,,,,,,,,,,,,,,,,,,,,,,,,,,,,,,,,,,,,,,,,,,,,,,,,,,,,,,,,,,,,,,,,,,,,,,,,,,,,,,,,,,,,,,,,,,,,,,,,,,,,,,
1702359964,1702359964,112,0,4282.436035,4280.384766,4289.487305,4289.871582,4245.769043,4260,4247.179688,4263.205078,4264.102539,4248.077148,4465.384766,4448.333496,4374.743652,4410.384766,6781,3,61,,,,0,4,4,4,4,4,4,4,4,4,4,4,4,4,4,100,,,,,,,,,,,,,,,,,28,0,0.106578,0.663757,-0.330444,0.662476,0.936638,-0.290074,-0.101575,-2.763202,-66.051865,26.153826,,,,,,,,,,,,,,,,,,,,,,,,,,,,,,,,,,,,,,,,,,,,,,,,,,,,,,,,,,,,,,,,,,,,,,,,,,,,,,,,,,,,,,,,,,,,,,,,,,,,,,,,,,
1702359964,1702359964,113,0,4280.512695,4278.077148,4289.102539,4293.333496,4248.589844,4256.666504,4247.692383,4264.358887,4258.205078,4245.512695,4458.461426,4448.077148,4370.512695,4410,7047,3,61,,,,0,4,4,4,4,4,4,4,4,4,4,4,4,4,4,100,,,,,,,,,,,,,,,,,,,,,,,,,,,,,,,,,,,,,,,,,,,,,,,,,,,,,,,,,,,,,,,,,,,,,,,,,,,,,,,,,,,,,,,,,,,,,,,,,,,,,,,,,,,,,,,,,,,,,,,,,,,,,,,,,,,,,,
1702359964,1702359964,114,0,4279.487305,4278.589844,4289.615234,4296.025879,4244.487305,4250.769043,4246.794922,4258.846191,4249.358887,4236.025879,4459.487305,4446.794922,4364.871582,4405.256348,5906,3,61,,,,0,4,4,4,4,4,4,4,4,4,4,4,4,4,4,100,,,,,,,,,,,,,,,,,,,,,,,,,,,,,,,,,,,,,,,,,,,,,,,,,,,,,,,,,,,,,,,,,,,,,,,,,,,,,,,,,,,,,,,,,,,,,,,,,,,,,,,,,,,,,,,,,,,,,,,,,,,,,,,,,,,,,,
1702359964,1702359964,115,0,4280.769043,4280,4290.769043,4302.563965,4240,4248.205078,4244.487305,4253.846191,4245.641113,4232.05127,4460.641113,4449.102539,4362.94873,4403.589844,6277,3,61,,,,0,4,4,4,4,4,4,4,4,4,4,4,4,4,4,100,,,,,,,,,,,,,,,,,,,,,,,,,,,,,,,,,,,,,,,,,,,,,,,,,,,,,,,,,,,,,,,,,,,,,,,,,,,,,,,,,,,,,,,,,,,,,,,,,,,,,,,,,,,,,,,,,,,,,,,,,,,,,,,,,,,,,,
1702359964,1702359964,116,0,4278.333496,4265.897461,4294.615234,4299.487305,4240.769043,4249.358887,4245.897461,4260.384766,4247.94873,4235.128418,4455.897461,4457.94873,4356.153809,4400.128418,6781,3,61,,,,0,4,4,4,4,4,4,4,4,4,4,4,4,4,4,100,,,,,,,,,,,,,,,,,29,0,0.106387,0.663879,-0.330505,0.662354,0.925406,-0.287144,-0.106458,-2.686882,-66.063347,26.121777,,,,,,,,,,,,,,,,,,,,,,,,,,,,,,,,,,,,,,,,,,,,,,,,,,,,,,,,,,,,,,,,,,,,,,,,,,,,,,,,,,,,,,,,,,,,,,,,,,,,,,,,,,
1702359964,1702359964,117,0,4276.025879,4262.692383,4295.128418,4298.077148,4244.743652,4252.436035,4248.846191,4259.871582,4248.974121,4232.94873,4456.922852,4460.512695,4357.179688,4399.743652,7047,3,61,,,,0,4,4,4,4,4,4,4,4,4,4,4,4,4,4,100,,,,,,,,,,,,,,,,,,,,,,,,,,,,,,,,,,,,,,,,,,,,,,,,,,,,,,,,,,,,,,,,,,,,,,,,,,,,,,,,,,,,,,,,,,,,,,,,,,,,,,,,,,,,,,,,,,,,,,,,,,,,,,,,,,,,,,
1702359964,1702359964,118,0,4287.563965,4288.846191,4293.589844,4315.897461,4248.589844,4257.820313,4254.102539,4249.102539,4248.333496,4233.846191,4468.333496,4457.820313,4375.897461,4412.820313,5906,3,61,,,,0,4,4,4,4,4,4,4,4,4,4,4,4,4,4,100,,,,,,,,,,,,,,,,,,,,,,,,,,,,,,,,,,,,,,,,,,,,,,,,,,,,,,,,,,,,,,,,,,,,,,,,,,,,,,,,,,,,,,,,,,,,,,,,,,,,,,,,,,,,,,,,,,,,,,,,,,,,,,,,,,,,,,
1702359964,1702359964,119,0,4302.692383,4311.282227,4298.589844,4331.410156,4249.871582,4261.666504,4258.077148,4247.307617,4247.307617,4242.179688,4475.256348,4456.794922,4392.05127,4426.410156,6277,3,61,,,,0,4,4,4,4,4,4,4,4,4,4,4,4,4,4,100,,,,,,,,,,,,,,,,,,,,,,,,,,,,,,,,,,,,,,,,,,,,,,,,,,,,,,,,,,,,,,,,,,,,,,,,,,,,,,,,,,,,,,,,,,,,,,,,,,,,,,,,,,,,,,,,,,,,,,,,,,,,,,,,,,,,,,
1702359964,1702359964,120,0,4310,4316.025879,4307.307617,4335.769043,4251.538574,4264.871582,4254.230957,4255.128418,4252.179688,4247.179688,4476.153809,4463.461426,4398.974121,4436.794922,6781,3,61,,,,0,4,4,4,4,4,4,4,4,4,4,4,4,4,4,100,,,,,,,,,,,,,,,,,30,0,0.106767,0.663818,-0.330505,0.662354,0.943475,-0.304236,-0.098645,-2.751527,-66.157013,26.292933,,,,,,,,,,,,,,,,,,,,,,,,,,,,,,,,,,,,,,,,,,,,,,,,,,,,,,,,,,,,,,,,,,,,,,,,,,,,,,,,,,,,,,,,,,,,,,,,,,,,,,,,,,
1702359964,1702359964,121,0,4315.769043,4317.692383,4312.820313,4343.589844,4252.307617,4263.205078,4248.846191,4258.974121,4260.256348,4245.897461,4479.615234,4469.358887,4405.128418,4442.05127,7047,3,61,,,,0,4,4,4,4,4,4,4,4,4,4,4,4,4,4,100,,,,,,,,,,,,,,,,,,,,,,,,,,,,,,,,,,,,,,,,,,,,,,,,,,,,,,,,,,,,,,,,,,,,,,,,,,,,,,,,,,,,,,,,,,,,,,,,,,,,,,,,,,,,,,,,,,,,,,,,,,,,,,,,,,,,,,
1702359964,1702359964,122,0,4315.256348,4311.538574,4310.128418,4340.256348,4249.487305,4253.846191,4248.205078,4258.717773,4257.307617,4246.538574,4477.820313,4464.615234,4395.641113,4434.358887,5906,3,61,,,,0,4,4,4,4,4,4,4,4,4,4,4,4,4,4,100,,,,,,,,,,,,,,,,,,,,,,,,,,,,,,,,,,,,,,,,,,,,,,,,,,,,,,,,,,,,,,,,,,,,,,,,,,,,,,,,,,,,,,,,,,,,,,,,,,,,,,,,,,,,,,,,,,,,,,,,,,,,,,,,,,,,,,
1702359964,1702359964,123,0,4306.410156,4299.487305,4301.410156,4328.205078,4248.077148,4251.410156,4247.820313,4259.743652,4249.743652,4247.05127,4466.922852,4460.769043,4380.641113,4426.153809,6277,3,61,,,,0,4,4,4,4,4,4,4,4,4,4,4,4,4,4,100,,,,,,,,,,,,,,,,,,,,,,,,,,,,,,,,,,,,,,,,,,,,,,,,,,,,,,,,,,,,,,,,,,,,,,,,,,,,,,,,,,,,,,,,,,,,,,,,,,,,,,,,,,,,,,,,,,,,,,,,,,,,,,,,,,,,,,
1702359964,1702359964,124,0,4298.717773,4294.358887,4293.717773,4326.410156,4247.563965,4255.128418,4245.512695,4260.897461,4251.538574,4239.871582,4461.025879,4458.974121,4381.922852,4424.743652,6781,3,61,,,,0,4,4,4,4,4,4,4,4,4,4,4,4,4,4,100,,,,,,,,,,,,,,,,,31,0,0.106581,0.663635,-0.330688,0.662476,0.925406,-0.30326,-0.090831,-2.576374,-66.141312,26.263639,,,,,,,,,,,,,,,,,,,,,,,,,,,,,,,,,,,,,,,,,,,,,,,,,,,,,,,,,,,,,,,,,,,,,,,,,,,,,,,,,,,,,,,,,,,,,,,,,,,,,,,,,,
1702359964,1702359964,125,0,4294.743652,4292.179688,4291.922852,4323.333496,4247.307617,4250.769043,4243.589844,4256.922852,4251.025879,4230,4458.077148,4449.358887,4379.871582,4416.025879,7047,3,61,,,,0,4,4,4,4,4,4,4,4,4,4,4,4,4,4,100,,,,,,,,,,,,,,,,,,,,,,,,,,,,,,,,,,,,,,,,,,,,,,,,,,,,,,,,,,,,,,,,,2.590033,1.18471,1.015642,0.352804,0.091417,6.035805,1.794161,1.163359,0.454871,0.106303,1.185565,1.066311,0.526807,0.307687,0.081346,3.541567,1.733259,0.640988,0.347664,0.091064,0.454268,0.285747,0.329257,0.187504,0.070992,0.517322,0.403852,0.187922,0.123791,0.100092,0.624415,0.585669,0.238805,0.186089,0.11937,0.701468,1.400955,0.220436,0.163495,0.217134,1.695274,0.799655,0.264038,0.32077,0.144002,2.54905,0.430416,0.432191,0.386259,0.306855,2.068223,1.00655,0.630693,0.408118,0.171509,1.608206,1.573909,0.508321,0.30328,0.14271,2.40843,1.343457,1.118364,0.531363,0.149002,2.672662,1.649042,1.107517,0.452517,0.119549
1702359964,1702359964,126,0,4300.384766,4294.102539,4297.820313,4321.282227,4256.922852,4246.025879,4242.05127,4255.128418,4247.179688,4231.282227,4457.05127,4448.205078,4377.179688,4410.769043,5906,3,61,,,,0,4,4,4,4,4,4,4,4,4,4,4,4,4,4,100,,,,,,,,,,,,,,,,,,,,,,,,,,,,,,,,,,,,,,,,,,,,,,,,,,,,,,,,,,,,,,,,,,,,,,,,,,,,,,,,,,,,,,,,,,,,,,,,,,,,,,,,,,,,,,,,,,,,,,,,,,,,,,,,,,,,,,
1702359964,1702359964,127,0,4308.589844,4297.307617,4305.897461,4327.307617,4264.743652,4250.769043,4247.692383,4263.205078,4254.358887,4237.307617,4463.333496,4461.794922,4384.358887,4420.512695,61,3,61,,,,0,4,4,4,4,4,4,4,4,4,4,4,4,4,4,100,,,,,,,,,,,,,,,,,,,,,,,,,,,,,,,,,,,,,,,,,,,,,,,,,,,,,,,,,,,,,,,,,,,,,,,,,,,,,,,,,,,,,,,,,,,,,,,,,,,,,,,,,,,,,,,,,,,,,,,,,,,,,,,,,,,,,,
1702359964,1702359964,0,0,4307.179688,4295.256348,4309.230957,4326.794922,4265.769043,4256.025879,4258.205078,4266.153809,4259.487305,4231.666504,4466.794922,4464.487305,4383.717773,4424.615234,5430,3,61,,,,0,4,4,4,4,4,4,4,4,4,4,4,4,4,4,100,,,,,,,,,,,,,,,,,0,0,0.106394,0.663452,-0.331116,0.662476,0.927848,-0.299353,-0.1089,-2.518737,-66.143845,26.220608,,,,,,,,,,,,,,,,,,,,,,,,,,,,,,,,,,,,,,,,,,,,,,,,,,,,,,,,,,,,,,,,,,,,,,,,,,,,,,,,,,,,,,,,,,,,,,,,,,,,,,,,,,
1702359964,1702359964,1,0,4303.974121,4293.589844,4308.589844,4323.333496,4270.897461,4258.461426,4263.333496,4262.307617,4252.179688,4230.384766,4464.615234,4460.769043,4372.179688,4420.897461,5517,3,61,,,,0,4,4,4,4,4,4,4,4,4,4,4,4,4,4,100,,,,,,,,,,,,,,,,,,,,,,,,,,,,,,,,,,,,,,,,,,,,,,,,,,,,,,,,,,,,,,,,,,,,,,,,,,,,,,,,,,,,,,,,,,,,,,,,,,,,,,,,,,,,,,,,,,,,,,,,,,,,,,,,,,,,,,
1702359964,1702359964,2,0,4303.077148,4289.230957,4310.641113,4324.615234,4276.025879,4259.487305,4263.589844,4262.692383,4245.897461,4238.589844,4463.333496,4465,4368.077148,4418.077148,5400,3,61,,,,0,4,4,4,4,4,4,4,4,4,4,4,4,4,4,100,,,,,,,,,,,,,,,,,,,,,,,,,,,,,,,,,,,,,,,,,,,,,,,,,,,,,,,,,,,,,,,,,,,,,,,,,,,,,,,,,,,,,,,,,,,,,,,,,,,,,,,,,,,,,,,,,,,,,,,,,,,,,,,,,,,,,,
1702359964,1702359964,3,0,4298.333496,4282.05127,4307.820313,4318.589844,4269.743652,4256.153809,4260.256348,4265.384766,4246.794922,4237.179688,4461.025879,4463.846191,4366.538574,4416.282227,5364,3,61,,,,0,4,4,4,4,4,4,4,4,4,4,4,4,4,4,100,,,,,,,,,,,,,,,,,,,,,,,,,,,,,,,,,,,,,,,,,,,,,,,,,,,,,,,,,,,,,,,,,,,,,,,,,,,,,,,,,,,,,,,,,,,,,,,,,,,,,,,,,,,,,,,,,,,,,,,,,,,,,,,,,,,,,,
1702359964,1702359964,4,0,4293.974121,4277.820313,4297.692383,4308.589844,4264.102539,4257.05127,4256.538574,4264.230957,4246.538574,4229.871582,4456.922852,4456.153809,4358.205078,4414.230957,5344,3,61,,,,0,4,4,4,4,4,4,4,4,4,4,4,4,4,4,100,,,,,,,,,,,,,,,,,1,0,0.106205,0.663391,-0.331299,0.662476,0.934684,-0.301795,-0.099622,-2.516863,-66.112793,26.181881,,,,,,,,,,,,,,,,,,,,,,,,,,,,,,,,,,,,,,,,,,,,,,,,,,,,,,,,,,,,,,,,,,,,,,,,,,,,,,,,,,,,,,,,,,,,,,,,,,,,,,,,,,
1702359964,1702359964,5,0,4293.333496,4277.94873,4292.692383,4307.692383,4273.717773,4260.128418,4258.333496,4262.05127,4239.743652,4230.256348,4455.769043,4455.512695,4355.897461,4411.282227,5217,3,61,,,,0,4,4,4,4,4,4,4,4,4,4,4,4,4,4,100,,,,,,,,,,,,,,,,,,,,,,,,,,,,,,,,,,,,,,,,,,,,,,,,,,,,,,,,,,,,,,,,,,,,,,,,,,,,,,,,,,,,,,,,,,,,,,,,,,,,,,,,,,,,,,,,,,,,,,,,,,,,,,,,,,,,,,
1702359964,1702359964,6,0,4291.794922,4277.692383,4295,4309.487305,4278.974121,4255.384766,4255.769043,4262.563965,4231.666504,4228.846191,4452.307617,4455.128418,4359.102539,4411.153809,5150,3,61,,,,0,4,4,4,4,4,4,4,4,4,4,4,4,4,4,100,,,,,,,,,,,,,,,,,,,,,,,,,,,,,,,,,,,,,,,,,,,,,,,,,,,,,,,,,,,,,,,,,,,,,,,,,,,,,,,,,,,,,,,,,,,,,,,,,,,,,,,,,,,,,,,,,,,,,,,,,,,,,,,,,,,,,,
1702359964,1702359964,7,0,4289.358887,4275.897461,4296.025879,4307.307617,4270.384766,4251.922852,4248.461426,4263.077148,4229.743652,4219.102539,4443.589844,4450.384766,4352.563965,4409.102539,5155,3,61,,,,0,4,4,4,4,4,4,4,4,4,4,4,4,4,4,100,,,,,,,,,,,,,,,,,,,,,,,,,,,,,,,,,,,,,,,,,,,,,,,,,,,,,,,,,,,,,,,,,,,,,,,,,,,,,,,,,,,,,,,,,,,,,,,,,,,,,,,,,,,,,,,,,,,,,,,,,,,,,,,,,,,,,,
1702359964,1702359964,8,0,4289.487305,4273.974121,4293.077148,4305.384766,4267.436035,4258.077148,4252.820313,4260.641113,4237.820313,4222.436035,4445.512695,4450.897461,4346.410156,4404.743652,5302,3,61,,,,0,4,4,4,4,4,4,4,4,4,4,4,4,4,4,100,,,,,,,,,,,,,,,,,2,0,0.106584,0.663391,-0.331421,0.662354,0.938103,-0.302771,-0.110853,-2.615177,-66.13485,26.163692,,,,,,,,,,,,,,,,,,,,,,,,,,,,,,,,,,,,,,,,,,,,,,,,,,,,,,,,,,,,,,,,,,,,,,,,,,,,,,,,,,,,,,,,,,,,,,,,,,,,,,,,,,
1702359964,1702359964,9,0,4290.769043,4273.589844,4295.256348,4306.922852,4274.102539,4263.205078,4264.615234,4266.153809,4246.410156,4237.94873,4456.922852,4458.846191,4356.153809,4406.410156,5369,3,61,,,,0,4,4,4,4,4,4,4,4,4,4,4,4,4,4,100,,,,,,,,,,,,,,,,,,,,,,,,,,,,,,,,,,,,,,,,,,,,,,,,,,,,,,,,,,,,,,,,,,,,,,,,,,,,,,,,,,,,,,,,,,,,,,,,,,,,,,,,,,,,,,,,,,,,,,,,,,,,,,,,,,,,,,
1702359964,1702359964,10,0,4292.94873,4281.025879,4304.871582,4314.615234,4276.666504,4262.307617,4269.487305,4278.589844,4248.846191,4243.333496,4462.436035,4467.563965,4368.589844,4414.743652,5908,3,61,,,,0,4,4,4,4,4,4,4,4,4,4,4,4,4,4,100,,,,,,,,,,,,,,,,,,,,,,,,,,,,,,,,,,,,,,,,,,,,,,,,,,,,,,,,,,,,,,,,,,,,,,,,,,,,,,,,,,,,,,,,,,,,,,,,,,,,,,,,,,,,,,,,,,,,,,,,,,,,,,,,,,,,,,
1702359964,1702359964,11,0,4298.846191,4289.871582,4310.641113,4325.641113,4276.794922,4263.846191,4275.256348,4281.025879,4249.487305,4244.230957,4467.820313,4475,4371.666504,4422.820313,6277,3,61,,,,0,4,4,4,4,4,4,4,4,4,4,4,4,4,4,100,,,,,,,,,,,,,,,,,,,,,,,,,,,,,,,,,,,,,,,,,,,,,,,,,,,,,,,,,,,,,,,,,,,,,,,,,,,,,,,,,,,,,,,,,,,,,,,,,,,,,,,,,,,,,,,,,,,,,,,,,,,,,,,,,,,,,,
1702359964,1702359964,12,0,4305.512695,4291.153809,4312.436035,4328.717773,4278.717773,4266.410156,4278.589844,4276.282227,4251.410156,4247.179688,4474.871582,4478.461426,4369.615234,4427.563965,6790,3,61,,,,0,4,4,4,4,4,4,4,4,4,4,4,4,4,4,100,,,,,,,,,,,,,,,,,3,0,0.106584,0.663452,-0.331177,0.662415,0.936149,-0.30619,-0.1089,-2.670326,-66.071365,26.26399,,,,,,,,,,,,,,,,,,,,,,,,,,,,,,,,,,,,,,,,,,,,,,,,,,,,,,,,,,,,,,,,,,,,,,,,,,,,,,,,,,,,,,,,,,,,,,,,,,,,,,,,,,
1702359964,1702359964,13,0,4310.641113,4294.230957,4316.922852,4326.538574,4277.563965,4266.153809,4270.256348,4278.974121,4253.974121,4248.333496,4477.94873,4479.487305,4374.102539,4429.871582,7049,3,61,,,,0,4,4,4,4,4,4,4,4,4,4,4,4,4,4,100,,,,,,,,,,,,,,,,,,,,,,,,,,,,,,,,,,,,,,,,,,,,,,,,,,,,,,,,,,,,,,,,,3.23607,1.236899,0.968305,0.405316,0.098482,7.164085,2.183889,1.334718,0.533457,0.120813,1.057985,0.905902,0.484281,0.335684,0.079306,3.957952,1.740052,0.749445,0.396166,0.094796,0.38131,0.249801,0.31395,0.185729,0.078544,0.494781,0.339706,0.179382,0.11906,0.106754,0.551663,0.522181,0.253419,0.214513,0.13231,0.624982,1.217402,0.25099,0.176612,0.230284,1.714041,0.663591,0.237268,0.323462,0.152444,2.503968,0.293869,0.352695,0.356184,0.332332,2.226195,1.035339,0.691454,0.415032,0.176354,1.494184,1.42794,0.450737,0.33844,0.155879,3.094987,1.500584,1.260831,0.572586,0.16517,3.206415,1.711212,1.138272,0.519411,0.127521
1702359964,1702359964,14,0,4312.05127,4296.410156,4319.871582,4327.307617,4277.563965,4265.769043,4264.230957,4280.897461,4252.563965,4249.102539,4476.538574,4481.538574,4377.179688,4425.128418,5908,3,61,,,,0,4,4,4,4,4,4,4,4,4,4,4,4,4,4,100,,,,,,,,,,,,,,,,,,,,,,,,,,,,,,,,,,,,,,,,,,,,,,,,,,,,,,,,,,,,,,,,,,,,,,,,,,,,,,,,,,,,,,,,,,,,,,,,,,,,,,,,,,,,,,,,,,,,,,,,,,,,,,,,,,,,,,
1702359964,1702359964,15,0,4303.333496,4284.615234,4309.230957,4323.205078,4270.384766,4261.282227,4262.179688,4276.153809,4249.615234,4249.230957,4468.846191,4471.666504,4360.769043,4413.333496,6277,3,61,,,,0,4,4,4,4,4,4,4,4,4,4,4,4,4,4,100,,,,,,,,,,,,,,,,,,,,,,,,,,,,,,,,,,,,,,,,,,,,,,,,,,,,,,,,,,,,,,,,,,,,,,,,,,,,,,,,,,,,,,,,,,,,,,,,,,,,,,,,,,,,,,,,,,,,,,,,,,,,,,,,,,,,,,
1702359964,1702359964,16,0,4293.974121,4274.102539,4298.077148,4314.743652,4261.410156,4257.436035,4258.589844,4275,4254.102539,4250.256348,4465.769043,4461.794922,4355.256348,4407.692383,0,3,61,,,,0,4,4,4,4,4,4,4,4,4,4,4,4,4,4,100,,,,,,,,,,,,,,,,,4,0,0.106203,0.663513,-0.331055,0.662476,0.921988,-0.293005,-0.104505,-2.71996,-66.14756,26.270924,,,,,,,,,,,,,,,,,,,,,,,,,,,,,,,,,,,,,,,,,,,,,,,,,,,,,,,,,,,,,,,,,,,,,,,,,,,,,,,,,,,,,,,,,,,,,,,,,,,,,,,,,,
1702359964,1702359964,17,0,4296.922852,4279.358887,4299.743652,4312.820313,4267.436035,4257.820313,4258.205078,4274.230957,4259.358887,4254.615234,4476.282227,4468.077148,4374.615234,4413.974121,0,3,61,,,,0,4,4,4,4,4,4,4,4,4,4,4,4,4,4,100,,,,,,,,,,,,,,,,,,,,,,,,,,,,,,,,,,,,,,,,,,,,,,,,,,,,,,,,,,,,,,,,,,,,,,,,,,,,,,,,,,,,,,,,,,,,,,,,,,,,,,,,,,,,,,,,,,,,,,,,,,,,,,,,,,,,,,
1702359965,1702359965,18,0,4297.05127,4281.794922,4299.230957,4312.820313,4271.410156,4254.102539,4254.615234,4267.692383,4252.692383,4252.692383,4476.282227,4466.410156,4376.282227,4412.820313,0,3,61,,,,0,4,4,4,4,4,4,4,4,4,4,4,4,4,4,100,,,,,,,,,,,,,,,,,,,,,,,,,,,,,,,,,,,,,,,,,,,,,,,,,,,,,,,,,,,,,,,,,,,,,,,,,,,,,,,,,,,,,,,,,,,,,,,,,,,,,,,,,,,,,,,,,,,,,,,,,,,,,,,,,,,,,,
1702359965,1702359965,19,0,4290.512695,4274.743652,4291.410156,4309.615234,4264.743652,4248.717773,4247.05127,4262.05127,4246.025879,4246.282227,4462.179688,4456.922852,4361.410156,4406.410156,0,3,61,,,,0,4,4,4,4,4,4,4,4,4,4,4,4,4,4,100,,,,,,,,,,,,,,,,,,,,,,,,,,,,,,,,,,,,,,,,,,,,,,,,,,,,,,,,,,,,,,,,,,,,,,,,,,,,,,,,,,,,,,,,,,,,,,,,,,,,,,,,,,,,,,,,,,,,,,,,,,,,,,,,,,,,,,
1702359965,1702359965,20,0,4294.743652,4276.794922,4293.461426,4310,4264.743652,4248.846191,4247.05127,4262.436035,4250.128418,4249.230957,4462.563965,4457.307617,4366.666504,4409.871582,0,3,61,,,,0,4,4,4,4,4,4,4,4,4,4,4,4,4,4,100,,,,,,,,,,,,,,,,,5,0,0.106583,0.663513,-0.330933,0.662476,0.933708,-0.30912,-0.097668,-2.71463,-65.999474,26.1605,,,,,,,,,,,,,,,,,,,,,,,,,,,,,,,,,,,,,,,,,,,,,,,,,,,,,,,,,,,,,,,,,,,,,,,,,,,,,,,,,,,,,,,,,,,,,,,,,,,,,,,,,,
1702359965,1702359965,21,0,4295.897461,4279.358887,4296.025879,4309.487305,4268.846191,4251.538574,4250.384766,4262.307617,4251.794922,4251.538574,4468.589844,4454.743652,4371.282227,4408.333496,0,3,61,,,,0,4,4,4,4,4,4,4,4,4,4,4,4,4,4,100,,,,,,,,,,,,,,,,,,,,,,,,,,,,,,,,,,,,,,,,,,,,,,,,,,,,,,,,,,,,,,,,,,,,,,,,,,,,,,,,,,,,,,,,,,,,,,,,,,,,,,,,,,,,,,,,,,,,,,,,,,,,,,,,,,,,,,
1702359965,1702359965,22,0,4283.974121,4268.205078,4281.410156,4304.358887,4262.307617,4248.846191,4247.307617,4257.179688,4244.358887,4245.256348,4460.512695,4441.922852,4355.769043,4396.538574,0,3,61,,,,0,4,4,4,4,4,4,4,4,4,4,4,4,4,4,100,,,,,,,,,,,,,,,,,,,,,,,,,,,,,,,,,,,,,,,,,,,,,,,,,,,,,,,,,,,,,,,,,,,,,,,,,,,,,,,,,,,,,,,,,,,,,,,,,,,,,,,,,,,,,,,,,,,,,,,,,,,,,,,,,,,,,,
1702359965,1702359965,23,0,4282.94873,4263.717773,4273.461426,4304.743652,4257.05127,4245.769043,4242.436035,4254.743652,4242.563965,4245.512695,4454.487305,4439.871582,4350.256348,4392.307617,0,3,61,,,,0,4,4,4,4,4,4,4,4,4,4,4,4,4,4,100,,,,,,,,,,,,,,,,,,,,,,,,,,,,,,,,,,,,,,,,,,,,,,,,,,,,,,,,,,,,,,,,,,,,,,,,,,,,,,,,,,,,,,,,,,,,,,,,,,,,,,,,,,,,,,,,,,,,,,,,,,,,,,,,,,,,,,
1702359965,1702359965,24,0,4293.077148,4274.743652,4287.307617,4309.487305,4261.922852,4251.666504,4245.384766,4259.358887,4248.205078,4250.384766,4466.410156,4451.153809,4359.615234,4401.410156,0,3,61,,,,0,4,4,4,4,4,4,4,4,4,4,4,4,4,4,100,,,,,,,,,,,,,,,,,6,0,0.106772,0.663574,-0.330872,0.662415,0.919546,-0.299841,-0.102063,-2.709834,-66.116188,26.144449,,,,,,,,,,,,,,,,,,,,,,,,,,,,,,,,,,,,,,,,,,,,,,,,,,,,,,,,,,,,,,,,,,,,,,,,,,,,,,,,,,,,,,,,,,,,,,,,,,,,,,,,,,
1702359965,1702359965,25,0,4296.538574,4280.384766,4300.641113,4313.974121,4265.256348,4260.897461,4255.897461,4263.205078,4249.743652,4248.077148,4475.641113,4460.512695,4364.230957,4410.128418,0,3,61,,,,0,4,4,4,4,4,4,4,4,4,4,4,4,4,4,100,,,,,,,,,,,,,,,,,,,,,,,,,,,,,,,,,,,,,,,,,,,,,,,,,,,,,,,,,,,,,,,,,,,,,,,,,,,,,,,,,,,,,,,,,,,,,,,,,,,,,,,,,,,,,,,,,,,,,,,,,,,,,,,,,,,,,,
1702359965,1702359965,26,0,4296.666504,4279.230957,4306.794922,4322.307617,4264.230957,4264.102539,4264.230957,4265.897461,4248.717773,4243.717773,4469.743652,4465.897461,4361.410156,4413.589844,0,3,61,,,,0,4,4,4,4,4,4,4,4,4,4,4,4,4,4,100,,,,,,,,,,,,,,,,,,,,,,,,,,,,,,,,,,,,,,,,,,,,,,,,,,,,,,,,,,,,,,,,,,,,,,,,,,,,,,,,,,,,,,,,,,,,,,,,,,,,,,,,,,,,,,,,,,,,,,,,,,,,,,,,,,,,,,
1702359965,1702359965,27,0,4298.205078,4278.205078,4304.615234,4323.461426,4264.358887,4261.410156,4262.307617,4268.717773,4250.128418,4242.94873,4464.487305,4464.615234,4358.589844,4411.153809,0,3,61,,,,0,4,4,4,4,4,4,4,4,4,4,4,4,4,4,100,,,,,,,,,,,,,,,,,,,,,,,,,,,,,,,,,,,,,,,,,,,,,,,,,,,,,,,,,,,,,,,,,,,,,,,,,,,,,,,,,,,,,,,,,,,,,,,,,,,,,,,,,,,,,,,,,,,,,,,,,,,,,,,,,,,,,,
1702359965,1702359965,28,0,4294.615234,4271.538574,4294.615234,4313.205078,4263.589844,4259.871582,4260.512695,4267.179688,4249.230957,4247.692383,4465.512695,4455.769043,4357.692383,4403.333496,0,3,61,,,,0,4,4,4,4,4,4,4,4,4,4,4,4,4,4,100,,,,,,,,,,,,,,,,,7,0,0.106771,0.663574,-0.33075,0.662476,0.945916,-0.298376,-0.102063,-2.538851,-66.221237,25.963337,,,,,,,,,,,,,,,,,,,,,,,,,,,,,,,,,,,,,,,,,,,,,,,,,,,,,,,,,,,,,,,,,,,,,,,,,,,,,,,,,,,,,,,,,,,,,,,,,,,,,,,,,,
1702359965,1702359965,29,0,4287.820313,4265.256348,4289.230957,4309.230957,4262.94873,4262.563965,4264.615234,4267.563965,4247.307617,4247.94873,4464.487305,4449.615234,4350.769043,4396.794922,0,3,61,,,,0,4,4,4,4,4,4,4,4,4,4,4,4,4,4,100,,,,,,,,,,,,,,,,,,,,,,,,,,,,,,,,,,,,,,,,,,,,,,,,,,,,,,,,,,,,,,,,,3.704702,1.216736,0.894119,0.462155,0.103767,7.621513,2.320858,1.415736,0.591287,0.13029,1.122216,0.783535,0.424603,0.38215,0.078625,4.442036,1.687852,0.958059,0.437851,0.100253,0.374525,0.236984,0.288195,0.190433,0.091117,0.434851,0.275943,0.171045,0.114369,0.110146,0.473576,0.497092,0.266773,0.230781,0.137042,0.536981,1.035462,0.286088,0.184551,0.227064,1.605948,0.572165,0.219053,0.310415,0.150714,2.317278,0.241984,0.292606,0.328487,0.339935,2.350872,1.103354,0.731275,0.421341,0.17227,1.455014,1.292057,0.389364,0.386874,0.163223,3.590488,1.607521,1.334303,0.605178,0.18354,3.672694,1.677775,1.092364,0.587215,0.137726
1702359965,1702359965,30,0,4282.436035,4266.153809,4286.922852,4306.666504,4265.384766,4265.897461,4267.179688,4271.153809,4250.384766,4238.589844,4457.179688,4451.666504,4341.922852,4396.282227,0,3,61,,,,0,4,4,4,4,4,4,4,4,4,4,4,4,4,4,100,,,,,,,,,,,,,,,,,,,,,,,,,,,,,,,,,,,,,,,,,,,,,,,,,,,,,,,,,,,,,,,,,,,,,,,,,,,,,,,,,,,,,,,,,,,,,,,,,,,,,,,,,,,,,,,,,,,,,,,,,,,,,,,,,,,,,,
1702359965,1702359965,31,0,4279.102539,4263.846191,4282.05127,4296.025879,4263.717773,4261.153809,4263.461426,4268.205078,4249.230957,4229.487305,4448.205078,4449.487305,4340.384766,4397.436035,0,3,61,,,,0,4,4,4,4,4,4,4,4,4,4,4,4,4,4,100,,,,,,,,,,,,,,,,,,,,,,,,,,,,,,,,,,,,,,,,,,,,,,,,,,,,,,,,,,,,,,,,,,,,,,,,,,,,,,,,,,,,,,,,,,,,,,,,,,,,,,,,,,,,,,,,,,,,,,,,,,,,,,,,,,,,,,
1702359965,1702359965,32,0,4281.666504,4261.282227,4286.922852,4297.563965,4260.384766,4254.871582,4258.333496,4264.615234,4245.128418,4231.153809,4450.384766,4446.410156,4342.436035,4395.641113,0,3,61,,,,0,4,4,4,4,4,4,4,4,4,4,4,4,4,4,100,,,,,,,,,,,,,,,,,8,0,0.107339,0.663513,-0.330811,0.662415,0.926383,-0.296423,-0.112807,-2.468299,-66.199112,25.967003,,,,,,,,,,,,,,,,,,,,,,,,,,,,,,,,,,,,,,,,,,,,,,,,,,,,,,,,,,,,,,,,,,,,,,,,,,,,,,,,,,,,,,,,,,,,,,,,,,,,,,,,,,
1702359965,1702359965,33,0,4288.205078,4265.641113,4298.717773,4311.153809,4264.102539,4260,4262.179688,4267.179688,4247.563965,4240.769043,4463.077148,4454.871582,4343.333496,4398.846191,0,3,61,,,,0,4,4,4,4,4,4,4,4,4,4,4,4,4,4,100,,,,,,,,,,,,,,,,,,,,,,,,,,,,,,,,,,,,,,,,,,,,,,,,,,,,,,,,,,,,,,,,,,,,,,,,,,,,,,,,,,,,,,,,,,,,,,,,,,,,,,,,,,,,,,,,,,,,,,,,,,,,,,,,,,,,,,
1702359965,1702359965,34,0,4294.102539,4266.025879,4295.128418,4312.307617,4265.897461,4264.230957,4263.461426,4266.025879,4249.615234,4245,4461.410156,4455.897461,4343.333496,4400.641113,0,3,61,,,,0,4,4,4,4,4,4,4,4,4,4,4,4,4,4,100,,,,,,,,,,,,,,,,,,,,,,,,,,,,,,,,,,,,,,,,,,,,,,,,,,,,,,,,,,,,,,,,,,,,,,,,,,,,,,,,,,,,,,,,,,,,,,,,,,,,,,,,,,,,,,,,,,,,,,,,,,,,,,,,,,,,,,
1702359965,1702359965,35,0,4294.102539,4260.128418,4282.563965,4303.717773,4262.05127,4259.102539,4252.820313,4261.025879,4246.025879,4234.615234,4444.230957,4442.692383,4337.563965,4392.436035,0,3,61,,,,0,4,4,4,4,4,4,4,4,4,4,4,4,4,4,100,,,,,,,,,,,,,,,,,,,,,,,,,,,,,,,,,,,,,,,,,,,,,,,,,,,,,,,,,,,,,,,,,,,,,,,,,,,,,,,,,,,,,,,,,,,,,,,,,,,,,,,,,,,,,,,,,,,,,,,,,,,,,,,,,,,,,,
1702359965,1702359965,36,0,4292.179688,4260.384766,4287.307617,4304.230957,4261.922852,4257.94873,4252.436035,4260.769043,4244.358887,4229.230957,4445.128418,4446.153809,4336.153809,4392.307617,0,3,61,,,,0,4,4,4,4,4,4,4,4,4,4,4,4,4,4,100,,,,,,,,,,,,,,,,,9,0,0.106962,0.663452,-0.330811,0.662537,0.940056,-0.293493,-0.104993,-2.504802,-66.112534,25.986969,,,,,,,,,,,,,,,,,,,,,,,,,,,,,,,,,,,,,,,,,,,,,,,,,,,,,,,,,,,,,,,,,,,,,,,,,,,,,,,,,,,,,,,,,,,,,,,,,,,,,,,,,,
1702359965,1702359965,37,0,4296.410156,4263.717773,4296.153809,4306.410156,4264.102539,4263.589844,4263.461426,4262.179688,4247.94873,4240.641113,4458.461426,4458.333496,4343.205078,4400,0,3,61,,,,0,4,4,4,4,4,4,4,4,4,4,4,4,4,4,100,,,,,,,,,,,,,,,,,,,,,,,,,,,,,,,,,,,,,,,,,,,,,,,,,,,,,,,,,,,,,,,,,,,,,,,,,,,,,,,,,,,,,,,,,,,,,,,,,,,,,,,,,,,,,,,,,,,,,,,,,,,,,,,,,,,,,,
1702359965,1702359965,38,0,4296.153809,4262.94873,4286.282227,4299.743652,4263.974121,4262.436035,4261.410156,4265,4248.205078,4241.666504,4454.102539,4451.410156,4339.487305,4394.230957,0,3,61,,,,0,4,4,4,4,4,4,4,4,4,4,4,4,4,4,100,,,,,,,,,,,,,,,,,,,,,,,,,,,,,,,,,,,,,,,,,,,,,,,,,,,,,,,,,,,,,,,,,,,,,,,,,,,,,,,,,,,,,,,,,,,,,,,,,,,,,,,,,,,,,,,,,,,,,,,,,,,,,,,,,,,,,,
1702359965,1702359965,39,0,4283.333496,4260.256348,4273.077148,4293.589844,4258.717773,4252.820313,4247.94873,4258.717773,4238.589844,4225,4440.512695,4434.102539,4325.897461,4381.410156,0,3,61,,,,0,4,4,4,4,4,4,4,4,4,4,4,4,4,4,100,,,,,,,,,,,,,,,,,,,,,,,,,,,,,,,,,,,,,,,,,,,,,,,,,,,,,,,,,,,,,,,,,,,,,,,,,,,,,,,,,,,,,,,,,,,,,,,,,,,,,,,,,,,,,,,,,,,,,,,,,,,,,,,,,,,,,,
1702359965,1702359965,40,0,4274.743652,4260.128418,4275.641113,4294.102539,4252.307617,4244.871582,4242.05127,4249.102539,4231.282227,4221.282227,4440.256348,4427.05127,4322.307617,4378.461426,0,3,61,,,,0,4,4,4,4,4,4,4,4,4,4,4,4,4,4,100,,,,,,,,,,,,,,,,,10,0,0.106962,0.663452,-0.330811,0.662537,0.942498,-0.308631,-0.114272,-2.587656,-66.11795,26.038273,,,,,,,,,,,,,,,,,,,,,,,,,,,,,,,,,,,,,,,,,,,,,,,,,,,,,,,,,,,,,,,,,,,,,,,,,,,,,,,,,,,,,,,,,,,,,,,,,,,,,,,,,,
1702359965,1702359965,41,0,4278.077148,4262.692383,4279.102539,4297.05127,4254.358887,4248.974121,4247.436035,4255.384766,4238.077148,4230.769043,4445.769043,4431.666504,4327.692383,4381.922852,0,3,61,,,,0,4,4,4,4,4,4,4,4,4,4,4,4,4,4,100,,,,,,,,,,,,,,,,,,,,,,,,,,,,,,,,,,,,,,,,,,,,,,,,,,,,,,,,,,,,,,,,,,,,,,,,,,,,,,,,,,,,,,,,,,,,,,,,,,,,,,,,,,,,,,,,,,,,,,,,,,,,,,,,,,,,,,
1702359965,1702359965,42,0,4280.384766,4265.769043,4280.641113,4304.743652,4264.358887,4262.05127,4258.461426,4264.871582,4248.846191,4231.282227,4449.615234,4442.307617,4334.615234,4388.974121,0,3,61,,,,0,4,4,4,4,4,4,4,4,4,4,4,4,4,4,100,,,,,,,,,,,,,,,,,,,,,,,,,,,,,,,,,,,,,,,,,,,,,,,,,,,,,,,,,,,,,,,,,,,,,,,,,,,,,,,,,,,,,,,,,,,,,,,,,,,,,,,,,,,,,,,,,,,,,,,,,,,,,,,,,,,,,,
1702359965,1702359965,43,0,4282.563965,4266.282227,4289.487305,4312.820313,4267.307617,4266.538574,4263.589844,4261.922852,4251.153809,4233.717773,4457.563965,4452.307617,4337.94873,4397.307617,0,3,61,,,,0,4,4,4,4,4,4,4,4,4,4,4,4,4,4,100,,,,,,,,,,,,,,,,,,,,,,,,,,,,,,,,,,,,,,,,,,,,,,,,,,,,,,,,,,,,,,,,,,,,,,,,,,,,,,,,,,,,,,,,,,,,,,,,,,,,,,,,,,,,,,,,,,,,,,,,,,,,,,,,,,,,,,
1702359965,1702359965,44,0,4288.717773,4268.589844,4294.871582,4311.794922,4264.102539,4262.307617,4261.538574,4260.769043,4250,4244.230957,4462.05127,4456.666504,4335.384766,4398.589844,0,3,61,,,,0,4,4,4,4,4,4,4,4,4,4,4,4,4,4,100,,,,,,,,,,,,,,,,,11,0,0.107341,0.66333,-0.330933,0.662537,0.922964,-0.298865,-0.100598,-2.745557,-66.089485,26.051113,,,,,,,,,,,,,,,,,,,,,,,,,,,,,,,,,,,,,,,,,,,,,,,,,,,,,,,,,,,,,,,,,,,,,,,,,,,,,,,,,,,,,,,,,,,,,,,,,,,,,,,,,,
1702359965,1702359965,45,0,4294.487305,4278.333496,4295.897461,4318.846191,4266.282227,4264.230957,4263.461426,4267.94873,4252.05127,4245.769043,4462.436035,4461.538574,4340.512695,4403.717773,0,3,61,,,,0,4,4,4,4,4,4,4,4,4,4,4,4,4,4,100,1,100,4,4,4,4,4,4,4,4,4,4,4,4,4,4,,,,,,,,,,,,,,,,,,,,,,,,,,,,,,,,,,,,,,,,,,,,,,,,,3.815761,1.130049,0.834537,0.510915,0.107239,7.23485,2.173705,1.419437,0.62399,0.132241,1.250129,0.711781,0.373388,0.433789,0.079472,5.075178,1.670331,1.2965,0.466359,0.105065,0.435241,0.236869,0.26281,0.198289,0.105598,0.364045,0.234461,0.172563,0.108083,0.109307,0.422792,0.552107,0.285725,0.229967,0.131419,0.466306,0.895178,0.316584,0.187218,0.207489,1.39389,0.536601,0.209594,0.279902,0.138702,2.025235,0.28097,0.259782,0.299542,0.324686,2.364505,1.219723,0.739711,0.420278,0.162774,1.423449,1.204468,0.339399,0.431731,0.162897,3.767856,1.682645,1.334132,0.618905,0.200712,3.853984,1.554159,0.996291,0.639145,0.148706
1702359965,1702359965,46,0,4296.538574,4283.205078,4297.179688,4327.436035,4267.563965,4267.179688,4263.974121,4267.820313,4250.897461,4241.666504,4464.743652,4465.128418,4351.410156,4414.230957,0,3,61,,,,0,4,4,4,4,4,4,4,4,4,4,4,4,4,4,100,,,,,,,,,,,,,,,,,,,,,,,,,,,,,,,,,,,,,,,,,,,,,,,,,,,,,,,,,,,,,,,,,,,,,,,,,,,,,,,,,,,,,,,,,,,,,,,,,,,,,,,,,,,,,,,,,,,,,,,,,,,,,,,,,,,,,,
1702359965,1702359965,47,0,4294.230957,4280.256348,4296.922852,4316.282227,4263.846191,4263.846191,4263.205078,4264.487305,4250.128418,4243.846191,4464.230957,4464.871582,4348.205078,4414.230957,0,3,61,,,,0,4,4,4,4,4,4,4,4,4,4,4,4,4,4,100,,,,,,,,,,,,,,,,,,,,,,,,,,,,,,,,,,,,,,,,,,,,,,,,,,,,,,,,,,,,,,,,,,,,,,,,,,,,,,,,,,,,,,,,,,,,,,,,,,,,,,,,,,,,,,,,,,,,,,,,,,,,,,,,,,,,,,
1702359965,1702359965,48,0,4291.025879,4276.922852,4295.128418,4308.974121,4263.846191,4261.666504,4262.05127,4268.461426,4254.871582,4244.358887,4461.282227,4461.153809,4337.563965,4406.410156,0,3,61,,,,0,4,4,4,4,4,4,4,4,4,4,4,4,4,4,100,,,,,,,,,,,,,,,,,12,0,0.107152,0.66333,-0.330994,0.662537,0.932731,-0.305213,-0.104993,-2.654334,-66.163872,26.246,,,,,,,,,,,,,,,,,,,,,,,,,,,,,,,,,,,,,,,,,,,,,,,,,,,,,,,,,,,,,,,,,,,,,,,,,,,,,,,,,,,,,,,,,,,,,,,,,,,,,,,,,,
1702359965,1702359965,49,0,4286.922852,4270.128418,4290.256348,4309.102539,4260.128418,4259.358887,4253.461426,4263.717773,4254.230957,4236.666504,4454.230957,4451.538574,4335.641113,4400.641113,0,3,61,,,,0,4,4,4,4,4,4,4,4,4,4,4,4,4,4,100,,,,,,,,,,,,,,,,,,,,,,,,,,,,,,,,,,,,,,,,,,,,,,,,,,,,,,,,,,,,,,,,,,,,,,,,,,,,,,,,,,,,,,,,,,,,,,,,,,,,,,,,,,,,,,,,,,,,,,,,,,,,,,,,,,,,,,
1702359965,1702359965,50,0,4279.102539,4262.692383,4280.512695,4298.717773,4252.436035,4254.615234,4244.743652,4249.487305,4245.256348,4229.871582,4446.153809,4439.871582,4333.717773,4394.487305,0,3,61,,,,0,4,4,4,4,4,4,4,4,4,4,4,4,4,4,100,,,,,,,,,,,,,,,,,,,,,,,,,,,,,,,,,,,,,,,,,,,,,,,,,,,,,,,,,,,,,,,,,,,,,,,,,,,,,,,,,,,,,,,,,,,,,,,,,,,,,,,,,,,,,,,,,,,,,,,,,,,,,,,,,,,,,,
1702359965,1702359965,51,0,4275.897461,4263.717773,4277.94873,4296.794922,4256.282227,4252.692383,4245.641113,4244.615234,4242.307617,4232.563965,4450.128418,4436.538574,4330.897461,4390.769043,0,3,61,,,,0,4,4,4,4,4,4,4,4,4,4,4,4,4,4,100,,,,,,,,,,,,,,,,,,,,,,,,,,,,,,,,,,,,,,,,,,,,,,,,,,,,,,,,,,,,,,,,,,,,,,,,,,,,,,,,,,,,,,,,,,,,,,,,,,,,,,,,,,,,,,,,,,,,,,,,,,,,,,,,,,,,,,
1702359965,1702359965,52,0,4280.384766,4266.922852,4287.307617,4308.846191,4261.282227,4253.589844,4248.205078,4251.410156,4247.307617,4238.589844,4459.102539,4443.589844,4336.794922,4394.358887,0,3,61,,,,0,4,4,4,4,4,4,4,4,4,4,4,4,4,4,100,,,,,,,,,,,,,,,,,13,0,0.107529,0.66333,-0.330994,0.662476,0.931754,-0.29447,-0.099622,-2.738901,-66.097488,26.254734,,,,,,,,,,,,,,,,,,,,,,,,,,,,,,,,,,,,,,,,,,,,,,,,,,,,,,,,,,,,,,,,,,,,,,,,,,,,,,,,,,,,,,,,,,,,,,,,,,,,,,,,,,
1702359965,1702359965,53,0,4281.153809,4265.512695,4290.512695,4308.205078,4254.615234,4250.512695,4246.410156,4255.512695,4248.974121,4235.769043,4457.179688,4446.794922,4341.025879,4396.410156,0,3,61,,,,0,4,4,4,4,4,4,4,4,4,4,4,4,4,4,100,,,,,,,,,,,,,,,,,,,,,,,,,,,,,,,,,,,,,,,,,,,,,,,,,,,,,,,,,,,,,,,,,,,,,,,,,,,,,,,,,,,,,,,,,,,,,,,,,,,,,,,,,,,,,,,,,,,,,,,,,,,,,,,,,,,,,,
1702359965,1702359965,54,0,4283.717773,4266.410156,4288.846191,4302.820313,4255,4250.897461,4245.897461,4255.897461,4246.922852,4229.615234,4453.717773,4444.743652,4337.179688,4394.358887,0,3,61,,,,0,4,4,4,4,4,4,4,4,4,4,4,4,4,4,100,,,,,,,,,,,,,,,,,,,,,,,,,,,,,,,,,,,,,,,,,,,,,,,,,,,,,,,,,,,,,,,,,,,,,,,,,,,,,,,,,,,,,,,,,,,,,,,,,,,,,,,,,,,,,,,,,,,,,,,,,,,,,,,,,,,,,,
1702359965,1702359965,55,0,4290.641113,4268.589844,4292.94873,4309.230957,4261.282227,4258.461426,4248.589844,4262.436035,4247.179688,4230.384766,4456.410156,4446.153809,4332.820313,4396.410156,0,3,61,,,,0,4,4,4,4,4,4,4,4,4,4,4,4,4,4,100,,,,,,,,,,,,,,,,,,,,,,,,,,,,,,,,,,,,,,,,,,,,,,,,,,,,,,,,,,,,,,,,,,,,,,,,,,,,,,,,,,,,,,,,,,,,,,,,,,,,,,,,,,,,,,,,,,,,,,,,,,,,,,,,,,,,,,
1702359965,1702359965,56,0,4293.077148,4267.94873,4296.538574,4310.769043,4255.256348,4260.128418,4252.05127,4262.179688,4249.230957,4234.615234,4458.077148,4450.897461,4335.897461,4398.589844,0,3,61,,,,0,4,4,4,4,4,4,4,4,4,4,4,4,4,4,100,,,,,,,,,,,,,,,,,14,0,0.107528,0.663391,-0.330872,0.662476,0.932243,-0.291051,-0.110365,-2.781677,-66.087738,26.062593,,,,,,,,,,,,,,,,,,,,,,,,,,,,,,,,,,,,,,,,,,,,,,,,,,,,,,,,,,,,,,,,,,,,,,,,,,,,,,,,,,,,,,,,,,,,,,,,,,,,,,,,,,
1702359965,1702359965,57,0,4289.871582,4264.743652,4292.563965,4299.358887,4245.897461,4251.922852,4248.846191,4253.077148,4248.205078,4234.358887,4458.589844,4449.358887,4340.128418,4396.153809,0,3,61,,,,0,4,4,4,4,4,4,4,4,4,4,4,4,4,4,100,,,,,,,,,,,,,,,,,,,,,,,,,,,,,,,,,,,,,,,,,,,,,,,,,,,,,,,,,,,,,,,,,,,,,,,,,,,,,,,,,,,,,,,,,,,,,,,,,,,,,,,,,,,,,,,,,,,,,,,,,,,,,,,,,,,,,,
1702359965,1702359965,58,0,4288.589844,4262.692383,4291.666504,4293.846191,4245.128418,4245.512695,4241.410156,4254.230957,4250.128418,4232.05127,4461.538574,4451.282227,4343.589844,4397.820313,0,3,61,,,,0,4,4,4,4,4,4,4,4,4,4,4,4,4,4,100,,,,,,,,,,,,,,,,,,,,,,,,,,,,,,,,,,,,,,,,,,,,,,,,,,,,,,,,,,,,,,,,,,,,,,,,,,,,,,,,,,,,,,,,,,,,,,,,,,,,,,,,,,,,,,,,,,,,,,,,,,,,,,,,,,,,,,
1702359965,1702359965,59,0,4291.922852,4265.769043,4297.307617,4302.820313,4247.563965,4250,4242.692383,4259.358887,4256.282227,4240.512695,4464.102539,4461.153809,4348.077148,4404.871582,0,3,61,,,,0,4,4,4,4,4,4,4,4,4,4,4,4,4,4,100,,,,,,,,,,,,,,,,,,,,,,,,,,,,,,,,,,,,,,,,,,,,,,,,,,,,,,,,,,,,,,,,,,,,,,,,,,,,,,,,,,,,,,,,,,,,,,,,,,,,,,,,,,,,,,,,,,,,,,,,,,,,,,,,,,,,,,
1702359965,1702359965,60,0,4293.333496,4266.538574,4296.666504,4307.436035,4249.487305,4252.05127,4246.282227,4253.077148,4254.358887,4249.871582,4463.333496,4458.461426,4347.820313,4404.102539,0,3,61,,,,0,4,4,4,4,4,4,4,4,4,4,4,4,4,4,100,,,,,,,,,,,,,,,,,15,0,0.107527,0.663452,-0.330627,0.662537,0.943963,-0.287144,-0.111342,-2.70351,-66.012299,26.073002,,,,,,,,,,,,,,,,,,,,,,,,,,,,,,,,,,,,,,,,,,,,,,,,,,,,,,,,,,,,,,,,,,,,,,,,,,,,,,,,,,,,,,,,,,,,,,,,,,,,,,,,,,
1702359965,1702359965,61,0,4292.94873,4262.307617,4294.358887,4298.461426,4247.94873,4249.743652,4244.743652,4248.461426,4247.05127,4241.025879,4461.794922,4450.512695,4343.205078,4400.512695,0,3,61,,,,0,4,4,4,4,4,4,4,4,4,4,4,4,4,4,100,,,,,,,,,,,,,,,,,,,,,,,,,,,,,,,,,,,,,,,,,,,,,,,,,,,,,,,,,,,,,,,,,3.554979,1.026431,0.828944,0.540987,0.108605,6.185071,1.833252,1.405389,0.637218,0.127743,1.340456,0.717797,0.365631,0.478096,0.081635,5.828928,1.783741,1.763028,0.481302,0.107937,0.5305,0.236501,0.250106,0.204486,0.118491,0.309974,0.231685,0.19087,0.099658,0.104876,0.436942,0.704443,0.318347,0.214642,0.117972,0.446695,0.819129,0.332985,0.185503,0.176353,1.149504,0.553651,0.212321,0.236383,0.120851,1.70777,0.393082,0.26734,0.266463,0.291178,2.263369,1.391484,0.727351,0.405812,0.1536,1.375808,1.205382,0.320403,0.45922,0.155646,3.717816,1.74457,1.290218,0.60773,0.214744,3.693387,1.402113,0.9108,0.662275,0.157129
1702359965,1702359965,62,0,4294.102539,4261.794922,4296.153809,4292.820313,4247.179688,4256.794922,4246.282227,4258.461426,4247.563965,4230,4464.102539,4452.563965,4343.974121,4402.94873,0,3,61,,,,0,4,4,4,4,4,4,4,4,4,4,4,4,4,4,100,,,,,,,,,,,,,,,,,,,,,,,,,,,,,,,,,,,,,,,,,,,,,,,,,,,,,,,,,,,,,,,,,,,,,,,,,,,,,,,,,,,,,,,,,,,,,,,,,,,,,,,,,,,,,,,,,,,,,,,,,,,,,,,,,,,,,,
1702359965,1702359965,63,0,4290.897461,4263.974121,4298.589844,4294.871582,4247.820313,4263.077148,4251.282227,4261.410156,4251.666504,4232.05127,4461.282227,4454.102539,4346.153809,4401.666504,0,3,61,,,,0,4,4,4,4,4,4,4,4,4,4,4,4,4,4,100,,,,,,,,,,,,,,,,,,,,,,,,,,,,,,,,,,,,,,,,,,,,,,,,,,,,,,,,,,,,,,,,,,,,,,,,,,,,,,,,,,,,,,,,,,,,,,,,,,,,,,,,,,,,,,,,,,,,,,,,,,,,,,,,,,,,,,
1702359965,1702359965,64,0,4280.641113,4261.282227,4295.256348,4290.256348,4245.641113,4261.538574,4251.153809,4251.538574,4243.974121,4224.358887,4449.358887,4445.641113,4336.153809,4392.820313,5430,3,61,,,,0,4,4,4,4,4,4,4,4,4,4,4,4,4,4,100,,,,,,,,,,,,,,,,,16,0,0.107525,0.663513,-0.330505,0.662537,0.94787,-0.309608,-0.102063,-2.549825,-66.061066,26.165701,,,,,,,,,,,,,,,,,,,,,,,,,,,,,,,,,,,,,,,,,,,,,,,,,,,,,,,,,,,,,,,,,,,,,,,,,,,,,,,,,,,,,,,,,,,,,,,,,,,,,,,,,,
1702359965,1702359965,65,0,4277.94873,4262.436035,4287.179688,4282.563965,4247.307617,4262.307617,4248.461426,4245.384766,4233.589844,4213.589844,4440.128418,4437.94873,4326.410156,4387.563965,5517,3,61,,,,0,4,4,4,4,4,4,4,4,4,4,4,4,4,4,100,,,,,,,,,,,,,,,,,,,,,,,,,,,,,,,,,,,,,,,,,,,,,,,,,,,,,,,,,,,,,,,,,,,,,,,,,,,,,,,,,,,,,,,,,,,,,,,,,,,,,,,,,,,,,,,,,,,,,,,,,,,,,,,,,,,,,,
1702359965,1702359965,66,0,4276.538574,4260.641113,4279.358887,4277.307617,4246.153809,4259.358887,4247.692383,4242.307617,4230.769043,4214.230957,4432.820313,4429.615234,4325.512695,4383.333496,5400,3,61,,,,0,4,4,4,4,4,4,4,4,4,4,4,4,4,4,100,,,,,,,,,,,,,,,,,,,,,,,,,,,,,,,,,,,,,,,,,,,,,,,,,,,,,,,,,,,,,,,,,,,,,,,,,,,,,,,,,,,,,,,,,,,,,,,,,,,,,,,,,,,,,,,,,,,,,,,,,,,,,,,,,,,,,,
1702359965,1702359965,67,0,4265.897461,4248.974121,4275,4273.974121,4240.128418,4249.230957,4246.025879,4240.256348,4230.897461,4212.436035,4427.436035,4422.307617,4323.461426,4376.794922,5364,3,61,,,,0,4,4,4,4,4,4,4,4,4,4,4,4,4,4,100,,,,,,,,,,,,,,,,,,,,,,,,,,,,,,,,,,,,,,,,,,,,,,,,,,,,,,,,,,,,,,,,,,,,,,,,,,,,,,,,,,,,,,,,,,,,,,,,,,,,,,,,,,,,,,,,,,,,,,,,,,,,,,,,,,,,,,
1702359965,1702359965,68,0,4268.974121,4254.871582,4281.794922,4281.153809,4244.358887,4254.230957,4246.794922,4248.077148,4237.307617,4222.94873,4443.846191,4432.436035,4330.128418,4383.205078,5344,3,61,,,,0,4,4,4,4,4,4,4,4,4,4,4,4,4,4,100,,,,,,,,,,,,,,,,,17,0,0.107336,0.663635,-0.330566,0.662415,0.921499,-0.30912,-0.098645,-2.528176,-66.171623,25.982464,,,,,,,,,,,,,,,,,,,,,,,,,,,,,,,,,,,,,,,,,,,,,,,,,,,,,,,,,,,,,,,,,,,,,,,,,,,,,,,,,,,,,,,,,,,,,,,,,,,,,,,,,,
1702359965,1702359965,69,0,4287.05127,4274.230957,4292.94873,4291.794922,4253.205078,4266.410156,4249.102539,4257.563965,4248.717773,4242.307617,4470.256348,4446.922852,4350,4400,5217,3,61,,,,0,4,4,4,4,4,4,4,4,4,4,4,4,4,4,100,,,,,,,,,,,,,,,,,,,,,,,,,,,,,,,,,,,,,,,,,,,,,,,,,,,,,,,,,,,,,,,,,,,,,,,,,,,,,,,,,,,,,,,,,,,,,,,,,,,,,,,,,,,,,,,,,,,,,,,,,,,,,,,,,,,,,,
1702359965,1702359965,70,0,4291.538574,4273.717773,4296.922852,4293.974121,4251.794922,4263.077148,4247.563965,4255,4253.205078,4240.512695,4476.153809,4450.897461,4362.307617,4406.025879,5150,3,61,,,,0,4,4,4,4,4,4,4,4,4,4,4,4,4,4,100,,,,,,,,,,,,,,,,,,,,,,,,,,,,,,,,,,,,,,,,,,,,,,,,,,,,,,,,,,,,,,,,,,,,,,,,,,,,,,,,,,,,,,,,,,,,,,,,,,,,,,,,,,,,,,,,,,,,,,,,,,,,,,,,,,,,,,
1702359965,1702359965,71,0,4285.256348,4262.563965,4294.358887,4292.05127,4248.717773,4258.717773,4245,4249.102539,4246.282227,4228.717773,4469.102539,4449.615234,4356.153809,4400.641113,5155,3,61,,,,0,4,4,4,4,4,4,4,4,4,4,4,4,4,4,100,,,,,,,,,,,,,,,,,,,,,,,,,,,,,,,,,,,,,,,,,,,,,,,,,,,,,,,,,,,,,,,,,,,,,,,,,,,,,,,,,,,,,,,,,,,,,,,,,,,,,,,,,,,,,,,,,,,,,,,,,,,,,,,,,,,,,,
1702359965,1702359965,72,0,4288.205078,4265.384766,4295.512695,4297.179688,4251.794922,4262.820313,4244.871582,4250.769043,4244.743652,4232.05127,4468.333496,4450.256348,4353.589844,4400.769043,5302,3,61,,,,0,4,4,4,4,4,4,4,4,4,4,4,4,4,4,100,,,,,,,,,,,,,,,,,18,0,0.107713,0.663574,-0.330566,0.662415,0.928824,-0.299353,-0.099622,-2.675359,-66.237801,25.984219,,,,,,,,,,,,,,,,,,,,,,,,,,,,,,,,,,,,,,,,,,,,,,,,,,,,,,,,,,,,,,,,,,,,,,,,,,,,,,,,,,,,,,,,,,,,,,,,,,,,,,,,,,
1702359965,1702359965,73,0,4288.974121,4268.077148,4294.487305,4295.641113,4251.922852,4262.94873,4244.230957,4251.025879,4248.717773,4233.589844,4465.512695,4448.077148,4355.512695,4402.05127,5364,3,61,,,,0,4,4,4,4,4,4,4,4,4,4,4,4,4,4,100,,,,,,,,,,,,,,,,,,,,,,,,,,,,,,,,,,,,,,,,,,,,,,,,,,,,,,,,,,,,,,,,,,,,,,,,,,,,,,,,,,,,,,,,,,,,,,,,,,,,,,,,,,,,,,,,,,,,,,,,,,,,,,,,,,,,,,
1702359965,1702359965,74,0,4279.615234,4259.871582,4282.05127,4282.820313,4249.358887,4260.384766,4245,4246.922852,4248.333496,4227.692383,4454.615234,4437.94873,4347.05127,4389.743652,5908,3,61,,,,0,4,4,4,4,4,4,4,4,4,4,4,4,4,4,100,,,,,,,,,,,,,,,,,,,,,,,,,,,,,,,,,,,,,,,,,,,,,,,,,,,,,,,,,,,,,,,,,,,,,,,,,,,,,,,,,,,,,,,,,,,,,,,,,,,,,,,,,,,,,,,,,,,,,,,,,,,,,,,,,,,,,,
1702359965,1702359965,75,0,4271.410156,4256.282227,4275.512695,4278.717773,4250.512695,4262.563965,4251.538574,4248.846191,4246.666504,4232.307617,4446.410156,4430.512695,4339.358887,4375.256348,6277,3,61,,,,0,4,4,4,4,4,4,4,4,4,4,4,4,4,4,100,,,,,,,,,,,,,,,,,,,,,,,,,,,,,,,,,,,,,,,,,,,,,,,,,,,,,,,,,,,,,,,,,,,,,,,,,,,,,,,,,,,,,,,,,,,,,,,,,,,,,,,,,,,,,,,,,,,,,,,,,,,,,,,,,,,,,,
1702359965,1702359965,76,0,4265.256348,4262.307617,4276.538574,4282.820313,4251.410156,4263.846191,4252.307617,4249.230957,4241.666504,4229.743652,4444.487305,4425.641113,4341.410156,4369.487305,6785,3,61,,,,0,4,4,4,4,4,4,4,4,4,4,4,4,4,4,100,,,,,,,,,,,,,,,,,19,0,0.107147,0.663696,-0.330505,0.662415,0.934684,-0.286656,-0.102552,-2.741156,-66.030685,25.885796,,,,,,,,,,,,,,,,,,,,,,,,,,,,,,,,,,,,,,,,,,,,,,,,,,,,,,,,,,,,,,,,,,,,,,,,,,,,,,,,,,,,,,,,,,,,,,,,,,,,,,,,,,
1702359965,1702359965,77,0,4263.589844,4260.128418,4275.641113,4282.94873,4249.615234,4262.692383,4247.94873,4245,4240.128418,4217.820313,4448.974121,4426.666504,4344.230957,4372.179688,7049,3,61,,,,0,4,4,4,4,4,4,4,4,4,4,4,4,4,4,100,,,,,,,,,,,,,,,,,,,,,,,,,,,,,,,,,,,,,,,,,,,,,,,,,,,,,,,,,,,,,,,,,3.062542,0.964154,0.894198,0.546542,0.107585,4.912414,1.453777,1.427985,0.640692,0.120159,1.3459,0.817355,0.423199,0.507874,0.085726,6.52305,2.043591,2.287966,0.484916,0.10923,0.621954,0.227881,0.256462,0.204766,0.126922,0.320403,0.270155,0.228867,0.089936,0.098744,0.568013,0.93076,0.367463,0.192173,0.102704,0.508824,0.808072,0.330324,0.180298,0.141699,0.95709,0.605087,0.228682,0.189517,0.10382,1.453284,0.54572,0.318402,0.228136,0.25106,2.099304,1.604381,0.711456,0.375472,0.151257,1.327725,1.312649,0.350913,0.464719,0.145535,3.572855,1.801758,1.241239,0.573077,0.225554,3.29092,1.293278,0.888087,0.653402,0.159708
1702359965,1702359965,78,0,4273.333496,4246.538574,4277.563965,4277.179688,4246.922852,4264.230957,4255.128418,4251.666504,4247.05127,4225,4459.615234,4440.769043,4349.487305,4385.384766,5908,3,61,,,,0,4,4,4,4,4,4,4,4,4,4,4,4,4,4,100,,,,,,,,,,,,,,,,,,,,,,,,,,,,,,,,,,,,,,,,,,,,,,,,,,,,,,,,,,,,,,,,,,,,,,,,,,,,,,,,,,,,,,,,,,,,,,,,,,,,,,,,,,,,,,,,,,,,,,,,,,,,,,,,,,,,,,
1702359965,1702359965,79,0,4283.205078,4248.974121,4282.692383,4280,4247.692383,4265.512695,4261.025879,4261.025879,4251.410156,4233.974121,4465.384766,4452.94873,4357.692383,4395.769043,6277,3,61,,,,0,4,4,4,4,4,4,4,4,4,4,4,4,4,4,100,,,,,,,,,,,,,,,,,,,,,,,,,,,,,,,,,,,,,,,,,,,,,,,,,,,,,,,,,,,,,,,,,,,,,,,,,,,,,,,,,,,,,,,,,,,,,,,,,,,,,,,,,,,,,,,,,,,,,,,,,,,,,,,,,,,,,,
1702359965,1702359965,80,0,4282.307617,4265.512695,4282.94873,4292.94873,4250.512695,4263.333496,4252.94873,4259.743652,4248.589844,4222.436035,4459.871582,4448.461426,4353.974121,4392.05127,6785,3,61,,,,0,4,4,4,4,4,4,4,4,4,4,4,4,4,4,100,,,,,,,,,,,,,,,,,20,0,0.107329,0.66394,-0.3302,0.662292,0.94787,-0.291051,-0.110365,-2.700374,-65.977615,25.897217,,,,,,,,,,,,,,,,,,,,,,,,,,,,,,,,,,,,,,,,,,,,,,,,,,,,,,,,,,,,,,,,,,,,,,,,,,,,,,,,,,,,,,,,,,,,,,,,,,,,,,,,,,
1702359965,1702359965,81,0,4281.922852,4270.384766,4281.538574,4290.128418,4251.153809,4262.94873,4249.230957,4258.717773,4249.102539,4218.205078,4452.179688,4443.333496,4340.897461,4387.820313,7049,3,61,,,,0,4,4,4,4,4,4,4,4,4,4,4,4,4,4,100,,,,,,,,,,,,,,,,,,,,,,,,,,,,,,,,,,,,,,,,,,,,,,,,,,,,,,,,,,,,,,,,,,,,,,,,,,,,,,,,,,,,,,,,,,,,,,,,,,,,,,,,,,,,,,,,,,,,,,,,,,,,,,,,,,,,,,
1702359965,1702359965,82,0,4281.153809,4261.922852,4280.897461,4258.333496,4249.487305,4263.333496,4253.974121,4264.615234,4253.717773,4227.563965,4449.102539,4445,4333.077148,4386.794922,5908,3,61,,,,0,4,4,4,4,4,4,4,4,4,4,4,4,4,4,100,,,,,,,,,,,,,,,,,,,,,,,,,,,,,,,,,,,,,,,,,,,,,,,,,,,,,,,,,,,,,,,,,,,,,,,,,,,,,,,,,,,,,,,,,,,,,,,,,,,,,,,,,,,,,,,,,,,,,,,,,,,,,,,,,,,,,,
1702359965,1702359965,83,0,4276.922852,4252.179688,4277.307617,4225.641113,4248.461426,4261.282227,4252.820313,4264.743652,4251.666504,4229.487305,4446.666504,4443.846191,4327.94873,4382.692383,6277,3,61,,,,0,4,4,4,4,4,4,4,4,4,4,4,4,4,4,100,,,,,,,,,,,,,,,,,,,,,,,,,,,,,,,,,,,,,,,,,,,,,,,,,,,,,,,,,,,,,,,,,,,,,,,,,,,,,,,,,,,,,,,,,,,,,,,,,,,,,,,,,,,,,,,,,,,,,,,,,,,,,,,,,,,,,,
1702359965,1702359965,84,0,4276.410156,4247.94873,4280.384766,4216.922852,4248.333496,4262.05127,4249.871582,4257.94873,4246.025879,4227.436035,4442.05127,4441.922852,4326.282227,4381.153809,6785,3,61,,,,0,4,4,4,4,4,4,4,4,4,4,4,4,4,4,100,,,,,,,,,,,,,,,,,21,0,0.107518,0.663879,-0.330139,0.662354,0.932243,-0.308143,-0.10597,-2.56367,-65.929855,26.057495,,,,,,,,,,,,,,,,,,,,,,,,,,,,,,,,,,,,,,,,,,,,,,,,,,,,,,,,,,,,,,,,,,,,,,,,,,,,,,,,,,,,,,,,,,,,,,,,,,,,,,,,,,
1702359965,1702359965,85,0,4272.436035,4248.461426,4279.102539,4216.153809,4250.384766,4263.974121,4251.282227,4251.538574,4245.128418,4222.563965,4432.179688,4436.282227,4326.282227,4378.461426,7049,3,61,,,,0,4,4,4,4,4,4,4,4,4,4,4,4,4,4,100,,,,,,,,,,,,,,,,,,,,,,,,,,,,,,,,,,,,,,,,,,,,,,,,,,,,,,,,,,,,,,,,,,,,,,,,,,,,,,,,,,,,,,,,,,,,,,,,,,,,,,,,,,,,,,,,,,,,,,,,,,,,,,,,,,,,,,
1702359965,1702359965,86,0,4263.974121,4248.333496,4268.077148,4213.205078,4257.179688,4262.563965,4248.717773,4246.538574,4247.179688,4214.487305,4423.846191,4426.794922,4322.05127,4371.282227,5908,3,61,,,,0,4,4,4,4,4,4,4,4,4,4,4,4,4,4,100,,,,,,,,,,,,,,,,,,,,,,,,,,,,,,,,,,,,,,,,,,,,,,,,,,,,,,,,,,,,,,,,,,,,,,,,,,,,,,,,,,,,,,,,,,,,,,,,,,,,,,,,,,,,,,,,,,,,,,,,,,,,,,,,,,,,,,
1702359965,1702359965,87,0,4266.025879,4247.05127,4269.358887,4215,4265,4263.333496,4248.461426,4245.641113,4243.717773,4215.641113,4427.307617,4428.205078,4323.077148,4374.871582,6277,3,61,,,,0,4,4,4,4,4,4,4,4,4,4,4,4,4,4,100,,,,,,,,,,,,,,,,,,,,,,,,,,,,,,,,,,,,,,,,,,,,,,,,,,,,,,,,,,,,,,,,,,,,,,,,,,,,,,,,,,,,,,,,,,,,,,,,,,,,,,,,,,,,,,,,,,,,,,,,,,,,,,,,,,,,,,
1702359965,1702359965,88,0,4277.436035,4248.589844,4279.487305,4222.179688,4271.538574,4267.94873,4256.410156,4247.179688,4238.589844,4218.589844,4438.461426,4440,4332.563965,4383.974121,6785,3,61,,,,0,4,4,4,4,4,4,4,4,4,4,4,4,4,4,100,,,,,,,,,,,,,,,,,22,0,0.106769,0.663696,-0.330627,0.662415,0.935661,-0.315957,-0.10597,-2.507303,-65.870201,25.985079,,,,,,,,,,,,,,,,,,,,,,,,,,,,,,,,,,,,,,,,,,,,,,,,,,,,,,,,,,,,,,,,,,,,,,,,,,,,,,,,,,,,,,,,,,,,,,,,,,,,,,,,,,
1702359965,1702359965,89,0,4278.846191,4250.512695,4282.436035,4228.717773,4276.794922,4276.410156,4264.230957,4251.410156,4243.846191,4214.487305,4446.538574,4447.436035,4333.589844,4385.641113,7049,3,61,,,,0,4,4,4,4,4,4,4,4,4,4,4,4,4,4,100,,,,,,,,,,,,,,,,,,,,,,,,,,,,,,,,,,,,,,,,,,,,,,,,,,,,,,,,,,,,,,,,,,,,,,,,,,,,,,,,,,,,,,,,,,,,,,,,,,,,,,,,,,,,,,,,,,,,,,,,,,,,,,,,,,,,,,
1702359965,1702359965,90,0,4268.333496,4246.794922,4279.230957,4225.128418,4277.436035,4278.717773,4264.743652,4253.077148,4246.025879,4215.512695,4440.769043,4442.05127,4326.666504,4381.282227,5908,3,61,,,,0,4,4,4,4,4,4,4,4,4,4,4,4,4,4,100,,,,,,,,,,,,,,,,,,,,,,,,,,,,,,,,,,,,,,,,,,,,,,,,,,,,,,,,,,,,,,,,,,,,,,,,,,,,,,,,,,,,,,,,,,,,,,,,,,,,,,,,,,,,,,,,,,,,,,,,,,,,,,,,,,,,,,
1702359965,1702359965,91,0,4260.384766,4237.820313,4270.897461,4212.820313,4274.871582,4268.205078,4261.794922,4249.358887,4233.205078,4217.179688,4426.922852,4428.077148,4323.974121,4370,6277,3,61,,,,0,4,4,4,4,4,4,4,4,4,4,4,4,4,4,100,,,,,,,,,,,,,,,,,,,,,,,,,,,,,,,,,,,,,,,,,,,,,,,,,,,,,,,,,,,,,,,,,,,,,,,,,,,,,,,,,,,,,,,,,,,,,,,,,,,,,,,,,,,,,,,,,,,,,,,,,,,,,,,,,,,,,,
1702359965,1702359965,92,0,4263.717773,4234.102539,4268.974121,4214.102539,4275.128418,4263.589844,4263.333496,4253.974121,4232.05127,4213.333496,4428.333496,4427.692383,4327.436035,4365.128418,6785,3,61,,,,0,4,4,4,4,4,4,4,4,4,4,4,4,4,4,100,,,,,,,,,,,,,,,,,23,0,0.106582,0.663574,-0.330933,0.662415,0.920034,-0.301306,-0.112807,-2.456573,-65.866516,25.969904,,,,,,,,,,,,,,,,,,,,,,,,,,,,,,,,,,,,,,,,,,,,,,,,,,,,,,,,,,,,,,,,,,,,,,,,,,,,,,,,,,,,,,,,,,,,,,,,,,,,,,,,,,
1702359965,1702359965,93,0,4276.153809,4248.717773,4283.205078,4235.256348,4283.589844,4274.230957,4268.205078,4265.384766,4248.333496,4221.410156,4443.589844,4443.974121,4337.436035,4382.307617,7049,3,61,,,,0,4,4,4,4,4,4,4,4,4,4,4,4,4,4,100,,,,,,,,,,,,,,,,,,,,,,,,,,,,,,,,,,,,,,,,,,,,,,,,,,,,,,,,,,,,,,,,,2.508524,0.99898,1.006811,0.525937,0.104165,3.838011,1.178035,1.489273,0.638162,0.113233,1.288411,1.007889,0.540697,0.520347,0.092984,6.945944,2.374444,2.728528,0.475759,0.111145,0.67501,0.212934,0.281325,0.196302,0.129949,0.40574,0.336602,0.285825,0.081293,0.093822,0.811725,1.176165,0.431445,0.171062,0.09228,0.641513,0.849652,0.313516,0.17388,0.112298,0.864224,0.676845,0.25281,0.150764,0.092995,1.321413,0.715531,0.397858,0.187353,0.217467,1.949123,1.835457,0.705351,0.333854,0.159543,1.323856,1.535693,0.434492,0.452579,0.137433,3.473797,1.854621,1.21129,0.525002,0.233533,2.81741,1.289256,0.934549,0.617109,0.15498
1702359965,1702359965,94,0,4284.615234,4263.205078,4291.538574,4247.307617,4294.358887,4280.897461,4268.717773,4269.743652,4255.256348,4236.025879,4449.102539,4451.153809,4347.05127,4395,5908,3,61,,,,0,4,4,4,4,4,4,4,4,4,4,4,4,4,4,100,,,,,,,,,,,,,,,,,,,,,,,,,,,,,,,,,,,,,,,,,,,,,,,,,,,,,,,,,,,,,,,,,,,,,,,,,,,,,,,,,,,,,,,,,,,,,,,,,,,,,,,,,,,,,,,,,,,,,,,,,,,,,,,,,,,,,,
1702359965,1702359965,95,0,4275.128418,4255.769043,4277.692383,4238.205078,4290.256348,4271.666504,4263.846191,4266.153809,4248.589844,4233.717773,4440.641113,4439.615234,4338.717773,4381.922852,6277,3,61,,,,0,4,4,4,4,4,4,4,4,4,4,4,4,4,4,100,,,,,,,,,,,,,,,,,,,,,,,,,,,,,,,,,,,,,,,,,,,,,,,,,,,,,,,,,,,,,,,,,,,,,,,,,,,,,,,,,,,,,,,,,,,,,,,,,,,,,,,,,,,,,,,,,,,,,,,,,,,,,,,,,,,,,,
1702359965,1702359965,96,0,4261.282227,4244.487305,4264.487305,4231.025879,4278.846191,4263.333496,4261.282227,4262.563965,4247.94873,4227.820313,4433.205078,4429.615234,4325.384766,4370.641113,6785,3,61,,,,0,4,4,4,4,4,4,4,4,4,4,4,4,4,4,100,,,,,,,,,,,,,,,,,24,0,0.106392,0.663635,-0.330994,0.662354,0.928336,-0.308631,-0.116713,-2.344249,-65.879868,25.972914,,,,,,,,,,,,,,,,,,,,,,,,,,,,,,,,,,,,,,,,,,,,,,,,,,,,,,,,,,,,,,,,,,,,,,,,,,,,,,,,,,,,,,,,,,,,,,,,,,,,,,,,,,
1702359965,1702359965,97,0,4262.179688,4246.538574,4265.641113,4233.461426,4278.589844,4266.153809,4263.461426,4262.307617,4247.05127,4229.615234,4431.025879,4429.487305,4329.487305,4373.589844,7049,3,61,,,,0,4,4,4,4,4,4,4,4,4,4,4,4,4,4,100,,,,,,,,,,,,,,,,,,,,,,,,,,,,,,,,,,,,,,,,,,,,,,,,,,,,,,,,,,,,,,,,,,,,,,,,,,,,,,,,,,,,,,,,,,,,,,,,,,,,,,,,,,,,,,,,,,,,,,,,,,,,,,,,,,,,,,
1702359965,1702359965,98,0,4265,4247.692383,4273.846191,4235.769043,4281.025879,4265.256348,4263.077148,4261.538574,4234.102539,4224.358887,4427.94873,4429.102539,4334.871582,4375,5908,3,61,,,,0,4,4,4,4,4,4,4,4,4,4,4,4,4,4,100,,,,,,,,,,,,,,,,,,,,,,,,,,,,,,,,,,,,,,,,,,,,,,,,,,,,,,,,,,,,,,,,,,,,,,,,,,,,,,,,,,,,,,,,,,,,,,,,,,,,,,,,,,,,,,,,,,,,,,,,,,,,,,,,,,,,,,
1702359965,1702359965,99,0,4263.717773,4245.897461,4280.128418,4243.077148,4278.846191,4265.384766,4263.077148,4262.436035,4234.743652,4224.871582,4433.717773,4434.358887,4336.282227,4376.922852,6277,3,61,,,,0,4,4,4,4,4,4,4,4,4,4,4,4,4,4,100,,,,,,,,,,,,,,,,,,,,,,,,,,,,,,,,,,,,,,,,,,,,,,,,,,,,,,,,,,,,,,,,,,,,,,,,,,,,,,,,,,,,,,,,,,,,,,,,,,,,,,,,,,,,,,,,,,,,,,,,,,,,,,,,,,,,,,
1702359965,1702359965,100,0,4267.94873,4250.641113,4280.641113,4250.512695,4278.077148,4273.589844,4267.563965,4264.743652,4246.794922,4235.384766,4443.077148,4445.256348,4342.307617,4381.410156,6785,3,61,,,,0,4,4,4,4,4,4,4,4,4,4,4,4,4,4,100,,,,,,,,,,,,,,,,,25,0,0.10658,0.663757,-0.330933,0.662231,0.935661,-0.305701,-0.107923,-2.37649,-65.891876,25.892288,,,,,,,,,,,,,,,,,,,,,,,,,,,,,,,,,,,,,,,,,,,,,,,,,,,,,,,,,,,,,,,,,,,,,,,,,,,,,,,,,,,,,,,,,,,,,,,,,,,,,,,,,,
1702359965,1702359965,101,0,4271.538574,4254.358887,4279.743652,4249.230957,4279.102539,4276.153809,4269.358887,4262.563965,4244.102539,4229.487305,4439.358887,4442.692383,4342.692383,4381.410156,7049,3,61,,,,0,4,4,4,4,4,4,4,4,4,4,4,4,4,4,100,,,,,,,,,,,,,,,,,,,,,,,,,,,,,,,,,,,,,,,,,,,,,,,,,,,,,,,,,,,,,,,,,,,,,,,,,,,,,,,,,,,,,,,,,,,,,,,,,,,,,,,,,,,,,,,,,,,,,,,,,,,,,,,,,,,,,,
1702359965,1702359965,102,0,4265.769043,4249.230957,4279.871582,4250.384766,4279.487305,4269.871582,4265.128418,4260.384766,4238.974121,4220.128418,4435.256348,4433.846191,4339.487305,4379.871582,5908,3,61,,,,0,4,4,4,4,4,4,4,4,4,4,4,4,4,4,100,,,,,,,,,,,,,,,,,,,,,,,,,,,,,,,,,,,,,,,,,,,,,,,,,,,,,,,,,,,,,,,,,,,,,,,,,,,,,,,,,,,,,,,,,,,,,,,,,,,,,,,,,,,,,,,,,,,,,,,,,,,,,,,,,,,,,,
1702359965,1702359965,103,0,4262.94873,4251.410156,4276.922852,4256.794922,4278.717773,4270,4262.692383,4264.358887,4246.153809,4229.871582,4442.692383,4438.589844,4345.641113,4379.743652,6277,3,61,,,,0,4,4,4,4,4,4,4,4,4,4,4,4,4,4,100,,,,,,,,,,,,,,,,,,,,,,,,,,,,,,,,,,,,,,,,,,,,,,,,,,,,,,,,,,,,,,,,,,,,,,,,,,,,,,,,,,,,,,,,,,,,,,,,,,,,,,,,,,,,,,,,,,,,,,,,,,,,,,,,,,,,,,
1702359965,1702359965,104,0,4269.615234,4261.410156,4277.436035,4264.102539,4277.436035,4275.128418,4262.94873,4266.794922,4250.641113,4236.282227,4450,4449.615234,4356.282227,4381.922852,6785,3,61,,,,0,4,4,4,4,4,4,4,4,4,4,4,4,4,4,100,,,,,,,,,,,,,,,,,26,0,0.10639,0.663757,-0.330872,0.662292,0.928336,-0.301306,-0.106947,-2.372175,-65.769356,25.70306,,,,,,,,,,,,,,,,,,,,,,,,,,,,,,,,,,,,,,,,,,,,,,,,,,,,,,,,,,,,,,,,,,,,,,,,,,,,,,,,,,,,,,,,,,,,,,,,,,,,,,,,,,
1702359965,1702359965,105,0,4277.820313,4267.179688,4287.436035,4274.230957,4280.128418,4277.692383,4264.615234,4267.307617,4248.717773,4231.025879,4453.974121,4456.666504,4361.666504,4392.307617,7049,3,61,,,,0,4,4,4,4,4,4,4,4,4,4,4,4,4,4,100,,,,,,,,,,,,,,,,,,,,,,,,,,,,,,,,,,,,,,,,,,,,,,,,,,,,,,,,,,,,,,,,,,,,,,,,,,,,,,,,,,,,,,,,,,,,,,,,,,,,,,,,,,,,,,,,,,,,,,,,,,,,,,,,,,,,,,
1702359965,1702359965,106,0,4279.871582,4265.769043,4295.512695,4279.230957,4283.077148,4279.487305,4268.461426,4271.282227,4246.922852,4236.282227,4459.743652,4456.922852,4361.282227,4398.717773,5908,3,61,,,,0,4,4,4,4,4,4,4,4,4,4,4,4,4,4,100,,,,,,,,,,,,,,,,,,,,,,,,,,,,,,,,,,,,,,,,,,,,,,,,,,,,,,,,,,,,,,,,,,,,,,,,,,,,,,,,,,,,,,,,,,,,,,,,,,,,,,,,,,,,,,,,,,,,,,,,,,,,,,,,,,,,,,
1702359965,1702359965,107,0,4276.538574,4262.179688,4294.358887,4277.436035,4281.666504,4276.282227,4270.769043,4273.717773,4246.922852,4247.563965,4458.589844,4454.102539,4355.512695,4393.846191,6277,3,61,,,,0,4,4,4,4,4,4,4,4,4,4,4,4,4,4,100,,,,,,,,,,,,,,,,,,,,,,,,,,,,,,,,,,,,,,,,,,,,,,,,,,,,,,,,,,,,,,,,,,,,,,,,,,,,,,,,,,,,,,,,,,,,,,,,,,,,,,,,,,,,,,,,,,,,,,,,,,,,,,,,,,,,,,
1702359965,1702359965,108,0,4277.820313,4265,4293.717773,4279.615234,4282.307617,4276.025879,4274.230957,4275.641113,4257.820313,4248.589844,4459.615234,4457.436035,4358.974121,4394.102539,6785,3,61,,,,0,4,4,4,4,4,4,4,4,4,4,4,4,4,4,100,,,,,,,,,,,,,,,,,27,0,0.106387,0.66394,-0.33075,0.66217,0.95373,-0.297888,-0.107435,-2.451624,-65.709091,25.649422,,,,,,,,,,,,,,,,,,,,,,,,,,,,,,,,,,,,,,,,,,,,,,,,,,,,,,,,,,,,,,,,,,,,,,,,,,,,,,,,,,,,,,,,,,,,,,,,,,,,,,,,,,
1702359965,1702359965,109,0,4280,4267.692383,4294.358887,4282.179688,4283.333496,4282.692383,4281.410156,4280.512695,4267.05127,4244.487305,4465.512695,4462.05127,4367.94873,4398.333496,7049,3,61,,,,0,4,4,4,4,4,4,4,4,4,4,4,4,4,4,100,1,100,4,4,4,4,4,4,4,4,4,4,4,4,4,4,,,,,,,,,,,,,,,,,,,,,,,,,,,,,,,,,,,,,,,,,,,,,,,,,2.050998,1.152905,1.131311,0.480767,0.099427,3.197126,1.05955,1.53863,0.625462,0.110284,1.193218,1.256771,0.697732,0.516068,0.103821,6.92547,2.670657,2.959911,0.450355,0.117091,0.680389,0.201128,0.316309,0.179726,0.128336,0.554248,0.410053,0.356188,0.077456,0.092869,1.130143,1.375569,0.500275,0.157414,0.090461,0.812137,0.916505,0.295733,0.169742,0.094603,0.873014,0.758072,0.277775,0.129014,0.090384,1.301269,0.886337,0.482853,0.151983,0.19989,1.858162,2.056854,0.740501,0.291585,0.177771,1.373108,1.863574,0.573876,0.431952,0.134426,3.444683,1.895319,1.212868,0.475767,0.238306,2.424312,1.410537,1.032763,0.564228,0.144384
1702359965,1702359965,110,0,4278.589844,4264.102539,4298.461426,4284.487305,4282.05127,4283.846191,4283.974121,4281.025879,4262.94873,4246.153809,4462.94873,4464.358887,4367.179688,4398.974121,5908,3,61,,,,0,4,4,4,4,4,4,4,4,4,4,4,4,4,4,100,,,,,,,,,,,,,,,,,,,,,,,,,,,,,,,,,,,,,,,,,,,,,,,,,,,,,,,,,,,,,,,,,,,,,,,,,,,,,,,,,,,,,,,,,,,,,,,,,,,,,,,,,,,,,,,,,,,,,,,,,,,,,,,,,,,,,,
1702359965,1702359965,111,0,4284.358887,4269.230957,4307.179688,4293.205078,4281.922852,4281.153809,4281.025879,4279.871582,4262.179688,4250.897461,4465.769043,4471.153809,4370.384766,4404.743652,6277,3,61,,,,0,4,4,4,4,4,4,4,4,4,4,4,4,4,4,100,,,,,,,,,,,,,,,,,,,,,,,,,,,,,,,,,,,,,,,,,,,,,,,,,,,,,,,,,,,,,,,,,,,,,,,,,,,,,,,,,,,,,,,,,,,,,,,,,,,,,,,,,,,,,,,,,,,,,,,,,,,,,,,,,,,,,,
1702359965,1702359965,112,0,4293.846191,4280.769043,4307.563965,4298.974121,4282.692383,4280.897461,4277.436035,4277.436035,4264.743652,4249.230957,4478.333496,4472.692383,4379.871582,4412.692383,6785,3,61,,,,0,4,4,4,4,4,4,4,4,4,4,4,4,4,4,100,,,,,,,,,,,,,,,,,28,0,0.106576,0.66394,-0.330566,0.662231,0.937126,-0.302283,-0.087413,-2.339795,-65.57151,25.717812,,,,,,,,,,,,,,,,,,,,,,,,,,,,,,,,,,,,,,,,,,,,,,,,,,,,,,,,,,,,,,,,,,,,,,,,,,,,,,,,,,,,,,,,,,,,,,,,,,,,,,,,,,
1702359965,1702359965,113,0,4291.410156,4274.615234,4301.153809,4296.794922,4280.769043,4280.512695,4269.102539,4268.077148,4262.307617,4245.256348,4475.256348,4463.974121,4376.025879,4409.743652,7049,3,61,,,,0,4,4,4,4,4,4,4,4,4,4,4,4,4,4,100,,,,,,,,,,,,,,,,,,,,,,,,,,,,,,,,,,,,,,,,,,,,,,,,,,,,,,,,,,,,,,,,,,,,,,,,,,,,,,,,,,,,,,,,,,,,,,,,,,,,,,,,,,,,,,,,,,,,,,,,,,,,,,,,,,,,,,
1702359965,1702359965,114,0,4279.871582,4261.794922,4297.307617,4294.358887,4276.538574,4276.410156,4264.102539,4263.717773,4259.230957,4246.666504,4460.384766,4459.102539,4367.179688,4399.487305,5908,3,61,,,,0,4,4,4,4,4,4,4,4,4,4,4,4,4,4,100,,,,,,,,,,,,,,,,,,,,,,,,,,,,,,,,,,,,,,,,,,,,,,,,,,,,,,,,,,,,,,,,,,,,,,,,,,,,,,,,,,,,,,,,,,,,,,,,,,,,,,,,,,,,,,,,,,,,,,,,,,,,,,,,,,,,,,
1702359965,1702359965,115,0,4281.153809,4267.94873,4297.94873,4295.128418,4278.461426,4276.538574,4273.333496,4272.05127,4260.384766,4250,4461.666504,4459.743652,4373.846191,4400.128418,6277,3,61,,,,0,4,4,4,4,4,4,4,4,4,4,4,4,4,4,100,,,,,,,,,,,,,,,,,,,,,,,,,,,,,,,,,,,,,,,,,,,,,,,,,,,,,,,,,,,,,,,,,,,,,,,,,,,,,,,,,,,,,,,,,,,,,,,,,,,,,,,,,,,,,,,,,,,,,,,,,,,,,,,,,,,,,,
1702359965,1702359965,116,0,4292.179688,4278.717773,4301.538574,4300.641113,4285.384766,4286.153809,4282.692383,4280.256348,4267.692383,4249.615234,4473.846191,4463.589844,4383.846191,4410.384766,6785,3,61,,,,0,4,4,4,4,4,4,4,4,4,4,4,4,4,4,100,,,,,,,,,,,,,,,,,29,0,0.106385,0.664001,-0.330505,0.662231,0.926383,-0.303748,-0.099622,-2.439149,-65.747696,25.679365,,,,,,,,,,,,,,,,,,,,,,,,,,,,,,,,,,,,,,,,,,,,,,,,,,,,,,,,,,,,,,,,,,,,,,,,,,,,,,,,,,,,,,,,,,,,,,,,,,,,,,,,,,
1702359965,1702359965,117,0,4289.102539,4278.974121,4299.871582,4306.794922,4283.974121,4289.615234,4280.512695,4279.230957,4271.153809,4248.205078,4478.077148,4466.025879,4383.333496,4414.230957,7049,3,61,,,,0,4,4,4,4,4,4,4,4,4,4,4,4,4,4,100,,,,,,,,,,,,,,,,,,,,,,,,,,,,,,,,,,,,,,,,,,,,,,,,,,,,,,,,,,,,,,,,,,,,,,,,,,,,,,,,,,,,,,,,,,,,,,,,,,,,,,,,,,,,,,,,,,,,,,,,,,,,,,,,,,,,,,
1702359965,1702359965,118,0,4281.922852,4280.512695,4296.666504,4308.846191,4280.128418,4285.512695,4280.256348,4277.436035,4269.230957,4251.025879,4474.102539,4463.717773,4381.666504,4409.743652,5908,3,61,,,,0,4,4,4,4,4,4,4,4,4,4,4,4,4,4,100,,,,,,,,,,,,,,,,,,,,,,,,,,,,,,,,,,,,,,,,,,,,,,,,,,,,,,,,,,,,,,,,,,,,,,,,,,,,,,,,,,,,,,,,,,,,,,,,,,,,,,,,,,,,,,,,,,,,,,,,,,,,,,,,,,,,,,
1702359965,1702359965,119,0,4284.871582,4282.05127,4297.820313,4309.615234,4286.025879,4285.128418,4284.743652,4278.077148,4267.563965,4249.743652,4463.589844,4462.179688,4381.282227,4407.436035,6277,3,61,,,,0,4,4,4,4,4,4,4,4,4,4,4,4,4,4,100,,,,,,,,,,,,,,,,,,,,,,,,,,,,,,,,,,,,,,,,,,,,,,,,,,,,,,,,,,,,,,,,,,,,,,,,,,,,,,,,,,,,,,,,,,,,,,,,,,,,,,,,,,,,,,,,,,,,,,,,,,,,,,,,,,,,,,
1702359965,1702359965,120,0,4287.563965,4283.974121,4303.077148,4313.205078,4294.358887,4286.025879,4283.717773,4279.615234,4269.102539,4245.256348,4462.563965,4463.205078,4380.769043,4411.282227,6785,3,61,,,,0,4,4,4,4,4,4,4,4,4,4,4,4,4,4,100,,,,,,,,,,,,,,,,,30,0,0.106763,0.664063,-0.330505,0.662109,0.920523,-0.294958,-0.106458,-2.395234,-65.756256,25.694761,,,,,,,,,,,,,,,,,,,,,,,,,,,,,,,,,,,,,,,,,,,,,,,,,,,,,,,,,,,,,,,,,,,,,,,,,,,,,,,,,,,,,,,,,,,,,,,,,,,,,,,,,,
1702359965,1702359965,121,0,4283.333496,4287.692383,4308.205078,4317.307617,4291.922852,4281.922852,4281.666504,4282.820313,4272.05127,4248.077148,4471.794922,4463.846191,4380.897461,4412.692383,7049,3,61,,,,0,4,4,4,4,4,4,4,4,4,4,4,4,4,4,100,,,,,,,,,,,,,,,,,,,,,,,,,,,,,,,,,,,,,,,,,,,,,,,,,,,,,,,,,,,,,,,,,,,,,,,,,,,,,,,,,,,,,,,,,,,,,,,,,,,,,,,,,,,,,,,,,,,,,,,,,,,,,,,,,,,,,,
1702359965,1702359965,122,0,4281.410156,4286.025879,4307.307617,4316.922852,4283.846191,4280.128418,4282.436035,4282.05127,4271.410156,4250.384766,4468.077148,4462.692383,4381.025879,4408.846191,5908,3,61,,,,0,4,4,4,4,4,4,4,4,4,4,4,4,4,4,100,,,,,,,,,,,,,,,,,,,,,,,,,,,,,,,,,,,,,,,,,,,,,,,,,,,,,,,,,,,,,,,,,,,,,,,,,,,,,,,,,,,,,,,,,,,,,,,,,,,,,,,,,,,,,,,,,,,,,,,,,,,,,,,,,,,,,,
1702359965,1702359965,123,0,4281.922852,4280.128418,4301.025879,4311.282227,4280,4281.153809,4280.256348,4279.358887,4270.641113,4246.794922,4463.717773,4461.794922,4384.358887,4406.282227,6277,3,61,,,,0,4,4,4,4,4,4,4,4,4,4,4,4,4,4,100,,,,,,,,,,,,,,,,,,,,,,,,,,,,,,,,,,,,,,,,,,,,,,,,,,,,,,,,,,,,,,,,,,,,,,,,,,,,,,,,,,,,,,,,,,,,,,,,,,,,,,,,,,,,,,,,,,,,,,,,,,,,,,,,,,,,,,
1702359965,1702359965,124,0,4279.871582,4278.717773,4298.077148,4307.307617,4281.282227,4280.512695,4277.05127,4280.256348,4274.102539,4246.538574,4475.512695,4462.05127,4390.384766,4409.615234,6785,3,61,,,,0,4,4,4,4,4,4,4,4,4,4,4,4,4,4,100,,,,,,,,,,,,,,,,,31,0,0.107142,0.664001,-0.330505,0.662109,0.926383,-0.299353,-0.10597,-2.20571,-65.863968,25.758617,,,,,,,,,,,,,,,,,,,,,,,,,,,,,,,,,,,,,,,,,,,,,,,,,,,,,,,,,,,,,,,,,,,,,,,,,,,,,,,,,,,,,,,,,,,,,,,,,,,,,,,,,,
1702359965,1702359965,125,0,4279.871582,4280.128418,4303.333496,4310.128418,4282.94873,4283.717773,4277.94873,4284.358887,4279.358887,4252.436035,4479.871582,4467.05127,4393.077148,4414.358887,7049,3,61,,,,0,4,4,4,4,4,4,4,4,4,4,4,4,4,4,100,,,,,,,,,,,,,,,,,,,,,,,,,,,,,,,,,,,,,,,,,,,,,,,,,,,,,,,,,,,,,,,,,1.708668,1.389222,1.236892,0.418753,0.096608,2.897819,1.053174,1.507827,0.596034,0.113793,1.070703,1.503234,0.863299,0.498927,0.117823,6.468874,2.838812,2.949582,0.414672,0.131058,0.667818,0.19676,0.347614,0.158836,0.123506,0.714348,0.469541,0.426335,0.081504,0.097048,1.432216,1.478642,0.558902,0.152117,0.096251,0.968483,0.979807,0.288403,0.170859,0.090283,0.928121,0.83633,0.297405,0.126304,0.094914,1.332877,1.050286,0.553246,0.130272,0.201074,1.828681,2.242608,0.858827,0.262798,0.202202,1.435685,2.24629,0.77009,0.415106,0.138512,3.413102,1.908402,1.249431,0.433359,0.239136,2.121567,1.621523,1.159779,0.50895,0.132919
1702359965,1702359965,126,0,4279.871582,4279.102539,4307.179688,4311.153809,4280.384766,4287.94873,4281.538574,4285,4276.538574,4250.256348,4471.025879,4469.487305,4389.102539,4412.692383,5908,3,61,,,,0,4,4,4,4,4,4,4,4,4,4,4,4,4,4,100,,,,,,,,,,,,,,,,,,,,,,,,,,,,,,,,,,,,,,,,,,,,,,,,,,,,,,,,,,,,,,,,,,,,,,,,,,,,,,,,,,,,,,,,,,,,,,,,,,,,,,,,,,,,,,,,,,,,,,,,,,,,,,,,,,,,,,
1702359965,1702359965,127,0,4274.487305,4278.205078,4304.615234,4306.794922,4279.743652,4289.743652,4284.230957,4282.05127,4274.230957,4249.230957,4472.05127,4464.743652,4386.025879,4404.871582,61,3,61,,,,0,4,4,4,4,4,4,4,4,4,4,4,4,4,4,100,,,,,,,,,,,,,,,,,,,,,,,,,,,,,,,,,,,,,,,,,,,,,,,,,,,,,,,,,,,,,,,,,,,,,,,,,,,,,,,,,,,,,,,,,,,,,,,,,,,,,,,,,,,,,,,,,,,,,,,,,,,,,,,,,,,,,,
1702359965,1702359965,0,0,4266.922852,4278.717773,4297.436035,4304.230957,4285.897461,4291.282227,4284.743652,4279.743652,4276.025879,4260.256348,4475.128418,4459.102539,4387.307617,4397.307617,5430,3,61,,,,0,4,4,4,4,4,4,4,4,4,4,4,4,4,4,100,,,,,,,,,,,,,,,,,0,0,0.106954,0.66394,-0.330444,0.662231,0.937126,-0.2974,-0.107435,-2.185139,-65.644234,25.632757,,,,,,,,,,,,,,,,,,,,,,,,,,,,,,,,,,,,,,,,,,,,,,,,,,,,,,,,,,,,,,,,,,,,,,,,,,,,,,,,,,,,,,,,,,,,,,,,,,,,,,,,,,
1702359965,1702359965,1,0,4260.384766,4278.717773,4291.153809,4304.871582,4286.794922,4289.358887,4281.538574,4277.563965,4270,4258.461426,4467.307617,4451.538574,4385,4395.769043,5517,3,61,,,,0,4,4,4,4,4,4,4,4,4,4,4,4,4,4,100,,,,,,,,,,,,,,,,,,,,,,,,,,,,,,,,,,,,,,,,,,,,,,,,,,,,,,,,,,,,,,,,,,,,,,,,,,,,,,,,,,,,,,,,,,,,,,,,,,,,,,,,,,,,,,,,,,,,,,,,,,,,,,,,,,,,,,
1702359965,1702359965,2,0,4258.717773,4278.717773,4289.487305,4306.922852,4285.256348,4286.794922,4279.102539,4274.871582,4263.461426,4246.025879,4463.077148,4445.128418,4384.102539,4395.897461,5400,3,61,,,,0,4,4,4,4,4,4,4,4,4,4,4,4,4,4,100,,,,,,,,,,,,,,,,,,,,,,,,,,,,,,,,,,,,,,,,,,,,,,,,,,,,,,,,,,,,,,,,,,,,,,,,,,,,,,,,,,,,,,,,,,,,,,,,,,,,,,,,,,,,,,,,,,,,,,,,,,,,,,,,,,,,,,
1702359965,1702359965,3,0,4261.153809,4280.769043,4290.769043,4310.384766,4290.512695,4287.05127,4280.384766,4275.256348,4267.05127,4252.05127,4468.589844,4450,4392.436035,4398.717773,5364,3,61,,,,0,4,4,4,4,4,4,4,4,4,4,4,4,4,4,100,,,,,,,,,,,,,,,,,,,,,,,,,,,,,,,,,,,,,,,,,,,,,,,,,,,,,,,,,,,,,,,,,,,,,,,,,,,,,,,,,,,,,,,,,,,,,,,,,,,,,,,,,,,,,,,,,,,,,,,,,,,,,,,,,,,,,,
1702359965,1702359965,4,0,4264.871582,4283.974121,4296.410156,4313.461426,4290.384766,4286.922852,4280.897461,4280.256348,4278.077148,4262.179688,4478.205078,4463.461426,4397.563965,4407.94873,5344,3,61,,,,0,4,4,4,4,4,4,4,4,4,4,4,4,4,4,100,,,,,,,,,,,,,,,,,1,0,0.107143,0.663879,-0.330383,0.662292,0.933708,-0.29447,-0.102063,-2.216625,-65.69648,25.652815,,,,,,,,,,,,,,,,,,,,,,,,,,,,,,,,,,,,,,,,,,,,,,,,,,,,,,,,,,,,,,,,,,,,,,,,,,,,,,,,,,,,,,,,,,,,,,,,,,,,,,,,,,
1702359965,1702359965,5,0,4262.436035,4279.358887,4296.153809,4309.230957,4280.128418,4282.563965,4277.05127,4279.743652,4276.538574,4253.717773,4476.153809,4461.025879,4390.384766,4408.077148,5217,3,61,,,,0,4,4,4,4,4,4,4,4,4,4,4,4,4,4,100,,,,,,,,,,,,,,,,,,,,,,,,,,,,,,,,,,,,,,,,,,,,,,,,,,,,,,,,,,,,,,,,,,,,,,,,,,,,,,,,,,,,,,,,,,,,,,,,,,,,,,,,,,,,,,,,,,,,,,,,,,,,,,,,,,,,,,
1702359965,1702359965,6,0,4257.692383,4274.230957,4289.743652,4305.897461,4277.692383,4280.256348,4275.897461,4273.974121,4265.897461,4247.436035,4464.230957,4445.512695,4385.256348,4400,5150,3,61,,,,0,4,4,4,4,4,4,4,4,4,4,4,4,4,4,100,,,,,,,,,,,,,,,,,,,,,,,,,,,,,,,,,,,,,,,,,,,,,,,,,,,,,,,,,,,,,,,,,,,,,,,,,,,,,,,,,,,,,,,,,,,,,,,,,,,,,,,,,,,,,,,,,,,,,,,,,,,,,,,,,,,,,,
1702359965,1702359965,7,0,4256.025879,4277.692383,4292.563965,4310.128418,4280.897461,4280.641113,4279.871582,4275.256348,4263.717773,4253.205078,4458.461426,4445,4386.282227,4397.692383,5155,3,61,,,,0,4,4,4,4,4,4,4,4,4,4,4,4,4,4,100,,,,,,,,,,,,,,,,,,,,,,,,,,,,,,,,,,,,,,,,,,,,,,,,,,,,,,,,,,,,,,,,,,,,,,,,,,,,,,,,,,,,,,,,,,,,,,,,,,,,,,,,,,,,,,,,,,,,,,,,,,,,,,,,,,,,,,
1702359965,1702359965,8,0,4251.025879,4280.769043,4290.641113,4312.05127,4275.512695,4280.512695,4277.05127,4278.077148,4266.922852,4245.384766,4458.717773,4444.871582,4382.436035,4393.717773,5302,3,61,,,,0,4,4,4,4,4,4,4,4,4,4,4,4,4,4,100,,,,,,,,,,,,,,,,,2,0,0.106577,0.663818,-0.330444,0.662415,0.934196,-0.311073,-0.096203,-2.31163,-65.760162,25.554199,,,,,,,,,,,,,,,,,,,,,,,,,,,,,,,,,,,,,,,,,,,,,,,,,,,,,,,,,,,,,,,,,,,,,,,,,,,,,,,,,,,,,,,,,,,,,,,,,,,,,,,,,,
1702359965,1702359965,9,0,4244.230957,4278.461426,4280.769043,4307.94873,4270.897461,4277.05127,4265.256348,4275,4264.230957,4232.436035,4457.820313,4430.641113,4377.179688,4385.128418,5364,3,61,,,,0,4,4,4,4,4,4,4,4,4,4,4,4,4,4,100,,,,,,,,,,,,,,,,,,,,,,,,,,,,,,,,,,,,,,,,,,,,,,,,,,,,,,,,,,,,,,,,,,,,,,,,,,,,,,,,,,,,,,,,,,,,,,,,,,,,,,,,,,,,,,,,,,,,,,,,,,,,,,,,,,,,,,
1702359965,1702359965,10,0,4245.512695,4277.820313,4283.974121,4307.94873,4274.615234,4274.615234,4263.717773,4276.153809,4265.512695,4240,4458.974121,4430.256348,4379.102539,4388.205078,5903,3,61,,,,0,4,4,4,4,4,4,4,4,4,4,4,4,4,4,100,,,,,,,,,,,,,,,,,,,,,,,,,,,,,,,,,,,,,,,,,,,,,,,,,,,,,,,,,,,,,,,,,,,,,,,,,,,,,,,,,,,,,,,,,,,,,,,,,,,,,,,,,,,,,,,,,,,,,,,,,,,,,,,,,,,,,,
1702359965,1702359965,11,0,4249.615234,4279.743652,4294.487305,4309.871582,4278.461426,4278.205078,4272.563965,4278.589844,4269.871582,4248.589844,4460.897461,4446.538574,4382.436035,4396.025879,6274,3,61,,,,0,4,4,4,4,4,4,4,4,4,4,4,4,4,4,100,,,,,,,,,,,,,,,,,,,,,,,,,,,,,,,,,,,,,,,,,,,,,,,,,,,,,,,,,,,,,,,,,,,,,,,,,,,,,,,,,,,,,,,,,,,,,,,,,,,,,,,,,,,,,,,,,,,,,,,,,,,,,,,,,,,,,,
1702359965,1702359965,12,0,4249.230957,4279.871582,4296.538574,4306.153809,4277.692383,4280.897461,4276.922852,4274.358887,4266.794922,4244.230957,4459.871582,4450.256348,4383.589844,4395.641113,6783,3,61,,,,0,4,4,4,4,4,4,4,4,4,4,4,4,4,4,100,,,,,,,,,,,,,,,,,3,0,0.106579,0.663757,-0.330566,0.662415,0.936149,-0.300818,-0.102552,-2.180467,-65.900818,25.54878,,,,,,,,,,,,,,,,,,,,,,,,,,,,,,,,,,,,,,,,,,,,,,,,,,,,,,,,,,,,,,,,,,,,,,,,,,,,,,,,,,,,,,,,,,,,,,,,,,,,,,,,,,
1702359965,1702359965,13,0,4252.436035,4278.974121,4296.410156,4306.410156,4276.025879,4280.384766,4278.077148,4277.179688,4268.846191,4249.871582,4462.94873,4447.307617,4390.128418,4397.94873,7054,3,61,,,,0,4,4,4,4,4,4,4,4,4,4,4,4,4,4,100,,,,,,,,,,,,,,,,,,,,,,,,,,,,,,,,,,,,,,,,,,,,,,,,,,,,,,,,,,,,,,,,,1.425218,1.626856,1.294964,0.35579,0.099538,2.685603,1.070503,1.355046,0.549114,0.124883,0.939104,1.678049,0.996963,0.476574,0.133127,5.888146,2.857051,2.760502,0.386413,0.154942,0.680382,0.201455,0.363215,0.139052,0.116847,0.831086,0.497789,0.477123,0.095081,0.105491,1.624469,1.465164,0.595168,0.151234,0.104749,1.060583,1.030247,0.293784,0.1792,0.09571,0.961731,0.898355,0.30643,0.139532,0.104384,1.343145,1.200908,0.594912,0.126243,0.217151,1.832144,2.367754,1.067298,0.262075,0.227216,1.470046,2.603718,0.998374,0.415268,0.149722,3.282278,1.879679,1.303047,0.402016,0.235382,1.86216,1.845184,1.278526,0.465475,0.126641
1702359965,1702359965,14,0,4259.358887,4281.666504,4299.102539,4309.487305,4276.666504,4281.922852,4278.717773,4281.794922,4274.487305,4257.307617,4466.666504,4450.256348,4397.563965,4402.436035,5903,3,61,,,,0,4,4,4,4,4,4,4,4,4,4,4,4,4,4,100,,,,,,,,,,,,,,,,,,,,,,,,,,,,,,,,,,,,,,,,,,,,,,,,,,,,,,,,,,,,,,,,,,,,,,,,,,,,,,,,,,,,,,,,,,,,,,,,,,,,,,,,,,,,,,,,,,,,,,,,,,,,,,,,,,,,,,
1702359965,1702359965,15,0,4260,4287.05127,4297.05127,4301.538574,4277.563965,4283.846191,4276.282227,4269.615234,4266.794922,4247.05127,4462.436035,4446.538574,4397.05127,4400.384766,6274,3,61,,,,0,4,4,4,4,4,4,4,4,4,4,4,4,4,4,100,,,,,,,,,,,,,,,,,,,,,,,,,,,,,,,,,,,,,,,,,,,,,,,,,,,,,,,,,,,,,,,,,,,,,,,,,,,,,,,,,,,,,,,,,,,,,,,,,,,,,,,,,,,,,,,,,,,,,,,,,,,,,,,,,,,,,,
1702359965,1702359965,16,0,4255.128418,4287.179688,4295.769043,4294.743652,4276.538574,4279.358887,4273.717773,4257.307617,4258.717773,4238.205078,4457.05127,4440.641113,4392.94873,4396.282227,0,3,61,,,,0,4,4,4,4,4,4,4,4,4,4,4,4,4,4,100,,,,,,,,,,,,,,,,,4,0,0.106958,0.663696,-0.330566,0.662415,0.922964,-0.296423,-0.104505,-2.095753,-65.994064,25.593901,,,,,,,,,,,,,,,,,,,,,,,,,,,,,,,,,,,,,,,,,,,,,,,,,,,,,,,,,,,,,,,,,,,,,,,,,,,,,,,,,,,,,,,,,,,,,,,,,,,,,,,,,,
1702359965,1702359965,17,0,4259.358887,4288.717773,4301.025879,4305,4278.205078,4280.512695,4276.538574,4269.615234,4268.717773,4248.974121,4463.974121,4448.974121,4398.589844,4402.820313,0,3,61,,,,0,4,4,4,4,4,4,4,4,4,4,4,4,4,4,100,,,,,,,,,,,,,,,,,,,,,,,,,,,,,,,,,,,,,,,,,,,,,,,,,,,,,,,,,,,,,,,,,,,,,,,,,,,,,,,,,,,,,,,,,,,,,,,,,,,,,,,,,,,,,,,,,,,,,,,,,,,,,,,,,,,,,,
1702359966,1702359966,18,0,4270.769043,4295.769043,4309.358887,4314.230957,4281.410156,4289.358887,4279.871582,4284.102539,4281.153809,4260.128418,4476.282227,4465,4409.102539,4415.641113,0,3,61,,,,0,4,4,4,4,4,4,4,4,4,4,4,4,4,4,100,,,,,,,,,,,,,,,,,,,,,,,,,,,,,,,,,,,,,,,,,,,,,,,,,,,,,,,,,,,,,,,,,,,,,,,,,,,,,,,,,,,,,,,,,,,,,,,,,,,,,,,,,,,,,,,,,,,,,,,,,,,,,,,,,,,,,,
1702359966,1702359966,19,0,4271.666504,4299.743652,4312.307617,4312.436035,4279.871582,4289.102539,4279.102539,4284.230957,4287.05127,4265.897461,4481.153809,4470.769043,4413.589844,4417.692383,0,3,61,,,,0,4,4,4,4,4,4,4,4,4,4,4,4,4,4,100,,,,,,,,,,,,,,,,,,,,,,,,,,,,,,,,,,,,,,,,,,,,,,,,,,,,,,,,,,,,,,,,,,,,,,,,,,,,,,,,,,,,,,,,,,,,,,,,,,,,,,,,,,,,,,,,,,,,,,,,,,,,,,,,,,,,,,
1702359966,1702359966,20,0,4260.512695,4293.461426,4303.077148,4307.05127,4276.153809,4281.410156,4278.461426,4287.563965,4290,4269.102539,4475.256348,4463.333496,4407.05127,4404.871582,0,3,61,,,,0,4,4,4,4,4,4,4,4,4,4,4,4,4,4,100,,,,,,,,,,,,,,,,,5,0,0.10677,0.663635,-0.330627,0.662476,0.937126,-0.285679,-0.098645,-2.319511,-65.944656,25.551178,,,,,,,,,,,,,,,,,,,,,,,,,,,,,,,,,,,,,,,,,,,,,,,,,,,,,,,,,,,,,,,,,,,,,,,,,,,,,,,,,,,,,,,,,,,,,,,,,,,,,,,,,,
1702359966,1702359966,21,0,4256.666504,4284.102539,4294.743652,4300.512695,4275.128418,4279.871582,4279.743652,4291.538574,4287.436035,4259.743652,4464.743652,4458.077148,4391.922852,4394.871582,0,3,61,,,,0,4,4,4,4,4,4,4,4,4,4,4,4,4,4,100,,,,,,,,,,,,,,,,,,,,,,,,,,,,,,,,,,,,,,,,,,,,,,,,,,,,,,,,,,,,,,,,,,,,,,,,,,,,,,,,,,,,,,,,,,,,,,,,,,,,,,,,,,,,,,,,,,,,,,,,,,,,,,,,,,,,,,
1702359966,1702359966,22,0,4264.230957,4282.436035,4296.410156,4301.025879,4271.922852,4282.436035,4281.666504,4284.487305,4280.897461,4250.256348,4461.153809,4458.461426,4387.179688,4398.974121,0,3,61,,,,0,4,4,4,4,4,4,4,4,4,4,4,4,4,4,100,,,,,,,,,,,,,,,,,,,,,,,,,,,,,,,,,,,,,,,,,,,,,,,,,,,,,,,,,,,,,,,,,,,,,,,,,,,,,,,,,,,,,,,,,,,,,,,,,,,,,,,,,,,,,,,,,,,,,,,,,,,,,,,,,,,,,,
1702359966,1702359966,23,0,4259.102539,4282.692383,4296.410156,4303.205078,4264.487305,4279.487305,4280.641113,4276.282227,4268.461426,4242.820313,4456.153809,4451.282227,4389.230957,4398.461426,0,3,61,,,,0,4,4,4,4,4,4,4,4,4,4,4,4,4,4,100,,,,,,,,,,,,,,,,,,,,,,,,,,,,,,,,,,,,,,,,,,,,,,,,,,,,,,,,,,,,,,,,,,,,,,,,,,,,,,,,,,,,,,,,,,,,,,,,,,,,,,,,,,,,,,,,,,,,,,,,,,,,,,,,,,,,,,
1702359966,1702359966,24,0,4246.153809,4277.307617,4291.282227,4295.641113,4263.589844,4277.692383,4278.717773,4277.179688,4259.358887,4235,4449.230957,4442.05127,4383.461426,4389.230957,0,3,61,,,,0,4,4,4,4,4,4,4,4,4,4,4,4,4,4,100,,,,,,,,,,,,,,,,,6,0,0.106962,0.663452,-0.330811,0.662537,0.929313,-0.30033,-0.102063,-2.270894,-65.950195,25.679394,,,,,,,,,,,,,,,,,,,,,,,,,,,,,,,,,,,,,,,,,,,,,,,,,,,,,,,,,,,,,,,,,,,,,,,,,,,,,,,,,,,,,,,,,,,,,,,,,,,,,,,,,,
