Timestamp,OriginalTimestamp,EEG.Counter,EEG.Interpolated,EEG.AF3,EEG.F7,EEG.F3,EEG.FC5,EEG.T7,EEG.P7,EEG.O1,EEG.O2,EEG.P8,EEG.T8,EEG.FC6,EEG.F4,EEG.F8,EEG.AF4,EEG.RawCq,EEG.Battery,EEG.BatteryPercent,MarkerIndex,MarkerType,MarkerValueInt,EEG.MarkerHardware,CQ.AF3,CQ.F7,CQ.F3,CQ.FC5,CQ.T7,CQ.P7,CQ.O1,CQ.O2,CQ.P8,CQ.T8,CQ.FC6,CQ.F4,CQ.F8,CQ.AF4,CQ.Overall,EQ.SampleRateQuality,EQ.OVERALL,EQ.AF3,EQ.F7,EQ.F3,EQ.FC5,EQ.T7,EQ.P7,EQ.O1,EQ.O2,EQ.P8,EQ.T8,EQ.FC6,EQ.F4,EQ.F8,EQ.AF4,MOT.CounterMems,MOT.InterpolatedMems,MOT.Q0,MOT.Q1,MOT.Q2,MOT.Q3,MOT.AccX,MOT.AccY,MOT.AccZ,MOT.MagX,MOT.MagY,MOT.MagZ,PM.Attention.IsActive,PM.Attention.Scaled,PM.Attention.Raw,PM.Attention.Min,PM.Attention.Max,PM.Engagement.IsActive,PM.Engagement.Scaled,PM.Engagement.Raw,PM.Engagement.Min,PM.Engagement.Max,PM.Excitement.IsActive,PM.Excitement.Scaled,PM.Excitement.Raw,PM.Excitement.Min,PM.Excitement.Max,PM.LongTermExcitement,PM.Stress.IsActive,PM.Stress.Scaled,PM.Stress.Raw,PM.Stress.Min,PM.Stress.Max,PM.Relaxation.IsActive,PM.Relaxation.Scaled,PM.Relaxation.Raw,PM.Relaxation.Min,PM.Relaxation.Max,PM.Interest.IsActive,PM.Interest.Scaled,PM.Interest.Raw,PM.Interest.Min,PM.Interest.Max,PM.Focus.IsActive,PM.Focus.Scaled,PM.Focus.Raw,PM.Focus.Min,PM.Focus.Max,POW.AF3.Theta,POW.AF3.Alpha,POW.AF3.BetaL,POW.AF3.BetaH,POW.AF3.Gamma,POW.F7.Theta,POW.F7.Alpha,POW.F7.BetaL,POW.F7.BetaH,POW.F7.Gamma,POW.F3.Theta,POW.F3.Alpha,POW.F3.BetaL,POW.F3.BetaH,POW.F3.Gamma,POW.FC5.Theta,POW.FC5.Alpha,POW.FC5.BetaL,POW.FC5.BetaH,POW.FC5.Gamma,POW.T7.Theta,POW.T7.Alpha,POW.T7.BetaL,POW.T7.BetaH,POW.T7.Gamma,POW.P7.Theta,POW.P7.Alpha,POW.P7.BetaL,POW.P7.BetaH,POW.P7.Gamma,POW.O1.Theta,POW.O1.Alpha,POW.O1.BetaL,POW.O1.BetaH,POW.O1.Gamma,POW.O2.Theta,POW.O2.Alpha,POW.O2.BetaL,POW.O2.BetaH,POW.O2.Gamma,POW.P8.Theta,POW.P8.Alpha,POW.P8.BetaL,POW.P8.BetaH,POW.P8.Gamma,POW.T8.Theta,POW.T8.Alpha,POW.T8.BetaL,POW.T8.BetaH,POW.T8.Gamma,POW.FC6.Theta,POW.FC6.Alpha,POW.FC6.BetaL,POW.FC6.BetaH,POW.FC6.Gamma,POW.F4.Theta,POW.F4.Alpha,POW.F4.BetaL,POW.F4.BetaH,POW.F4.Gamma,POW.F8.Theta,POW.F8.Alpha,POW.F8.BetaL,POW.F8.BetaH,POW.F8.Gamma,POW.AF4.Theta,POW.AF4.Alpha,POW.AF4.BetaL,POW.AF4.BetaH,POW.AF4.Gamma
,,,,,,,,,,,,,,,,,,,,,,,,,,,,,,,,,,,,,,,,,,,,,,,,,,,,,,,,,,,,,,,,,,,,,,,,,,,,,,,,,,,,,,,,,,,,,,,,,,,,,,,,,,,,,,,,,,,,,,,,,,,,,,,,,,,,,,,,,,,,,,,,,,,,,,,,,,,,,,,,,,,,,,,,,,,,,
1702360572,1702360572,125,0,4244.487305,4239.871582,4275.256348,4230.641113,4286.410156,4259.871582,4247.563965,4251.153809,4237.692383,4210.641113,4410.256348,4413.077148,4279.487305,4362.692383,7039,3,58,,,,0,4,4,4,4,4,4,4,4,4,4,4,4,4,4,100,,,,,,,,,,,,,,,,,,,,,,,,,,,,,,,,,,,,,,,,,,,,,,,,,,,,,,,,,,,,,,,,,47.263771,6.585939,2.179184,1.071765,0.445556,237.772324,34.12146,6.054389,1.575284,0.607098,11.255503,1.923669,1.463378,0.740808,0.387682,44.823357,7.162379,1.979132,0.743059,0.583271,5.0356,1.014696,1.031587,0.623006,1.472524,2.010315,0.547058,1.009086,0.377321,0.179208,2.686846,0.787244,1.288214,0.619603,0.2564,4.04179,0.548126,0.957685,0.716688,0.431823,3.827652,0.412175,0.821952,0.929636,0.555173,6.217602,0.532129,1.090351,1.042369,1.466652,17.962564,1.735375,1.298054,1.220489,0.835408,11.860617,1.945146,1.6885,1.339922,0.734861,64.490776,6.259581,1.976207,1.54906,0.934743,41.855255,6.086851,2.263276,1.026259,0.597197
1702360572,1702360572,126,0,4254.487305,4249.871582,4285.384766,4241.922852,4300.384766,4268.461426,4263.077148,4258.974121,4246.538574,4219.487305,4421.538574,4427.563965,4291.666504,4370.641113,5903,3,58,,,,0,4,4,4,4,4,4,4,4,4,4,4,4,4,4,100,,,,,,,,,,,,,,,,,,,,,,,,,,,,,,,,,,,,,,,,,,,,,,,,,,,,,,,,,,,,,,,,,,,,,,,,,,,,,,,,,,,,,,,,,,,,,,,,,,,,,,,,,,,,,,,,,,,,,,,,,,,,,,,,,,,,,,
1702360572,1702360572,127,0,4266.025879,4250.769043,4300,4251.153809,4302.436035,4273.461426,4271.666504,4269.871582,4254.102539,4261.410156,4441.794922,4448.589844,4308.205078,4384.871582,58,3,58,,,,0,4,4,4,4,4,4,4,4,4,4,4,4,4,4,100,,,,,,,,,,,,,,,,,,,,,,,,,,,,,,,,,,,,,,,,,,,,,,,,,,,,,,,,,,,,,,,,,,,,,,,,,,,,,,,,,,,,,,,,,,,,,,,,,,,,,,,,,,,,,,,,,,,,,,,,,,,,,,,,,,,,,,
1702360572,1702360572,0,0,4266.282227,4240,4297.563965,4238.974121,4277.05127,4264.230957,4257.820313,4265.384766,4247.94873,4240.897461,4439.358887,4446.410156,4310.128418,4383.846191,5444,3,58,,,,0,4,4,4,4,4,4,4,4,4,4,4,4,4,4,100,,,,,,,,,,,,,,,,,0,0,0.682013,-0.234802,-0.673706,-0.160767,0.99768,-0.101575,-0.013185,-11.776477,-6.319007,90.963875,,,,,,,,,,,,,,,,,,,,,,,,,,,,,,,,,,,,,,,,,,,,,,,,,,,,,,,,,,,,,,,,,,,,,,,,,,,,,,,,,,,,,,,,,,,,,,,,,,,,,,,,,,
1702360572,1702360572,1,0,4263.333496,4227.05127,4293.205078,4231.538574,4274.358887,4261.794922,4256.025879,4262.436035,4253.846191,4226.794922,4436.153809,4441.538574,4325.256348,4382.563965,5529,3,58,,,,0,4,4,4,4,4,4,4,4,4,4,4,4,4,4,100,,,,,,,,,,,,,,,,,,,,,,,,,,,,,,,,,,,,,,,,,,,,,,,,,,,,,,,,,,,,,,,,,,,,,,,,,,,,,,,,,,,,,,,,,,,,,,,,,,,,,,,,,,,,,,,,,,,,,,,,,,,,,,,,,,,,,,
1702360572,1702360572,2,0,4258.589844,4207.692383,4293.461426,4232.692383,4284.487305,4265.641113,4263.846191,4269.871582,4266.922852,4263.333496,4450.256348,4446.794922,4343.717773,4386.538574,5390,3,58,,,,0,4,4,4,4,4,4,4,4,4,4,4,4,4,4,100,,,,,,,,,,,,,,,,,,,,,,,,,,,,,,,,,,,,,,,,,,,,,,,,,,,,,,,,,,,,,,,,,,,,,,,,,,,,,,,,,,,,,,,,,,,,,,,,,,,,,,,,,,,,,,,,,,,,,,,,,,,,,,,,,,,,,,
1702360572,1702360572,3,0,4247.692383,4189.358887,4284.102539,4222.179688,4269.230957,4261.153809,4253.333496,4265.641113,4254.743652,4266.410156,4454.230957,4436.666504,4339.230957,4378.205078,5400,3,58,,,,0,4,4,4,4,4,4,4,4,4,4,4,4,4,4,100,,,,,,,,,,,,,,,,,,,,,,,,,,,,,,,,,,,,,,,,,,,,,,,,,,,,,,,,,,,,,,,,,,,,,,,,,,,,,,,,,,,,,,,,,,,,,,,,,,,,,,,,,,,,,,,,,,,,,,,,,,,,,,,,,,,,,,
1702360572,1702360572,4,0,4243.333496,4183.077148,4274.871582,4213.589844,4257.307617,4261.282227,4242.179688,4259.487305,4243.589844,4241.410156,4442.05127,4424.743652,4332.05127,4368.461426,5360,3,58,,,,0,4,4,4,4,4,4,4,4,4,4,4,4,4,4,100,,,,,,,,,,,,,,,,,1,0,0.681772,-0.234009,-0.674255,-0.160645,0.984007,-0.115737,-0.030765,-11.798829,-6.27044,90.917488,,,,,,,,,,,,,,,,,,,,,,,,,,,,,,,,,,,,,,,,,,,,,,,,,,,,,,,,,,,,,,,,,,,,,,,,,,,,,,,,,,,,,,,,,,,,,,,,,,,,,,,,,,
1702360572,1702360572,5,0,4248.077148,4185.384766,4278.846191,4224.358887,4266.153809,4265.384766,4247.179688,4264.615234,4259.230957,4250.897461,4448.846191,4435.384766,4339.743652,4374.487305,5232,3,58,,,,0,4,4,4,4,4,4,4,4,4,4,4,4,4,4,100,,,,,,,,,,,,,,,,,,,,,,,,,,,,,,,,,,,,,,,,,,,,,,,,,,,,,,,,,,,,,,,,,,,,,,,,,,,,,,,,,,,,,,,,,,,,,,,,,,,,,,,,,,,,,,,,,,,,,,,,,,,,,,,,,,,,,,
1702360572,1702360572,6,0,4251.794922,4194.487305,4285.256348,4236.922852,4277.307617,4266.666504,4258.077148,4268.974121,4270.769043,4269.615234,4464.230957,4445.897461,4349.230957,4384.358887,5135,3,58,,,,0,4,4,4,4,4,4,4,4,4,4,4,4,4,4,100,,,,,,,,,,,,,,,,,,,,,,,,,,,,,,,,,,,,,,,,,,,,,,,,,,,,,,,,,,,,,,,,,,,,,,,,,,,,,,,,,,,,,,,,,,,,,,,,,,,,,,,,,,,,,,,,,,,,,,,,,,,,,,,,,,,,,,
1702360572,1702360572,7,0,4249.358887,4198.974121,4282.820313,4228.846191,4279.230957,4270.512695,4263.461426,4265.128418,4261.666504,4263.974121,4452.436035,4435.256348,4333.589844,4377.307617,5178,3,58,,,,0,4,4,4,4,4,4,4,4,4,4,4,4,4,4,100,,,,,,,,,,,,,,,,,,,,,,,,,,,,,,,,,,,,,,,,,,,,,,,,,,,,,,,,,,,,,,,,,,,,,,,,,,,,,,,,,,,,,,,,,,,,,,,,,,,,,,,,,,,,,,,,,,,,,,,,,,,,,,,,,,,,,,
1702360572,1702360572,8,0,4245.384766,4192.436035,4278.077148,4220.897461,4276.410156,4269.871582,4263.461426,4263.333496,4257.563965,4255.897461,4437.563965,4427.05127,4316.538574,4366.794922,5313,3,58,,,,0,4,4,4,4,4,4,4,4,4,4,4,4,4,4,100,,,,,,,,,,,,,,,,,2,0,0.681343,-0.233154,-0.674927,-0.160889,0.990355,-0.109388,-0.028812,-11.785613,-6.226729,90.87574,,,,,,,,,,,,,,,,,,,,,,,,,,,,,,,,,,,,,,,,,,,,,,,,,,,,,,,,,,,,,,,,,,,,,,,,,,,,,,,,,,,,,,,,,,,,,,,,,,,,,,,,,,
1702360572,1702360572,9,0,4248.717773,4186.538574,4280.512695,4227.563965,4274.230957,4263.717773,4258.461426,4265.256348,4263.717773,4258.461426,4445.897461,4436.538574,4333.717773,4372.05127,5365,3,58,,,,0,4,4,4,4,4,4,4,4,4,4,4,4,4,4,100,,,,,,,,,,,,,,,,,,,,,,,,,,,,,,,,,,,,,,,,,,,,,,,,,,,,,,,,,,,,,,,,,,,,,,,,,,,,,,,,,,,,,,,,,,,,,,,,,,,,,,,,,,,,,,,,,,,,,,,,,,,,,,,,,,,,,,
1702360572,1702360572,10,0,4251.025879,4188.205078,4282.307617,4226.794922,4261.282227,4264.743652,4253.461426,4264.102539,4263.589844,4259.487305,4452.692383,4437.94873,4350.256348,4376.025879,5898,3,58,,,,0,4,4,4,4,4,4,4,4,4,4,4,4,4,4,100,,,,,,,,,,,,,,,,,,,,,,,,,,,,,,,,,,,,,,,,,,,,,,,,,,,,,,,,,,,,,,,,,,,,,,,,,,,,,,,,,,,,,,,,,,,,,,,,,,,,,,,,,,,,,,,,,,,,,,,,,,,,,,,,,,,,,,
1702360572,1702360572,11,0,4242.94873,4186.282227,4276.538574,4215.897461,4248.846191,4267.692383,4254.358887,4264.358887,4260.897461,4263.205078,4446.025879,4427.307617,4334.102539,4367.563965,6277,3,58,,,,0,4,4,4,4,4,4,4,4,4,4,4,4,4,4,100,,,,,,,,,,,,,,,,,,,,,,,,,,,,,,,,,,,,,,,,,,,,,,,,,,,,,,,,,,,,,,,,,,,,,,,,,,,,,,,,,,,,,,,,,,,,,,,,,,,,,,,,,,,,,,,,,,,,,,,,,,,,,,,,,,,,,,
1702360572,1702360572,12,0,4238.333496,4183.846191,4274.102539,4215.256348,4254.487305,4263.333496,4254.358887,4263.974121,4260.641113,4264.743652,4442.179688,4424.487305,4322.307617,4364.230957,6811,3,58,,,,0,4,4,4,4,4,4,4,4,4,4,4,4,4,4,100,,,,,,,,,,,,,,,,,3,0,0.680945,-0.232605,-0.675415,-0.161316,0.994262,-0.099133,-0.023929,-11.740385,-6.13739,90.904831,,,,,,,,,,,,,,,,,,,,,,,,,,,,,,,,,,,,,,,,,,,,,,,,,,,,,,,,,,,,,,,,,,,,,,,,,,,,,,,,,,,,,,,,,,,,,,,,,,,,,,,,,,
1702360572,1702360572,13,0,4242.436035,4185.384766,4277.563965,4218.333496,4259.102539,4260.128418,4247.563965,4258.974121,4258.717773,4248.846191,4439.871582,4425.384766,4327.436035,4366.153809,7044,3,58,,,,0,4,4,4,4,4,4,4,4,4,4,4,4,4,4,100,,,,,,,,,,,,,,,,,,,,,,,,,,,,,,,,,,,,,,,,,,,,,,,,,,,,,,,,,,,,,,,,,66.437042,8.552936,2.459314,1.077764,0.438641,330.347229,45.068817,7.988509,1.792454,0.572325,15.030452,2.224303,1.343356,0.74122,0.394754,62.220604,8.846333,2.215206,0.721785,0.522305,5.15827,1.374989,0.836495,0.541268,1.265943,2.066138,0.5012,0.866112,0.360675,0.174776,2.55475,0.733781,1.041339,0.601486,0.246339,3.797756,0.458312,0.795689,0.666665,0.425109,3.503692,0.349603,0.698119,0.853,0.521025,5.919416,0.578745,0.939876,1.065418,1.450267,24.374105,2.378136,1.319983,1.145171,0.823541,15.050503,2.188048,1.570412,1.198584,0.740194,91.676941,9.002484,2.47887,1.590678,0.951714,60.788586,8.375595,2.522297,1.037928,0.581435
1702360572,1702360572,14,0,4245.384766,4189.358887,4280.384766,4217.307617,4255.384766,4264.102539,4250.256348,4263.461426,4260.512695,4247.692383,4444.230957,4428.205078,4326.410156,4367.692383,5898,3,58,,,,0,4,4,4,4,4,4,4,4,4,4,4,4,4,4,100,,,,,,,,,,,,,,,,,,,,,,,,,,,,,,,,,,,,,,,,,,,,,,,,,,,,,,,,,,,,,,,,,,,,,,,,,,,,,,,,,,,,,,,,,,,,,,,,,,,,,,,,,,,,,,,,,,,,,,,,,,,,,,,,,,,,,,
1702360572,1702360572,15,0,4239.871582,4192.94873,4278.205078,4216.922852,4256.025879,4265.769043,4262.820313,4270.512695,4265.769043,4264.358887,4448.717773,4430.769043,4324.487305,4368.589844,6277,3,58,,,,0,4,4,4,4,4,4,4,4,4,4,4,4,4,4,100,,,,,,,,,,,,,,,,,,,,,,,,,,,,,,,,,,,,,,,,,,,,,,,,,,,,,,,,,,,,,,,,,,,,,,,,,,,,,,,,,,,,,,,,,,,,,,,,,,,,,,,,,,,,,,,,,,,,,,,,,,,,,,,,,,,,,,
1702360572,1702360572,16,0,4236.794922,4199.358887,4274.102539,4218.461426,4263.205078,4264.615234,4263.461426,4265.512695,4263.205078,4258.077148,4438.589844,4426.794922,4327.692383,4370.128418,0,3,58,,,,0,4,4,4,4,4,4,4,4,4,4,4,4,4,4,100,,,,,,,,,,,,,,,,,4,0,0.680861,-0.232422,-0.675476,-0.161682,0.975217,-0.096691,-0.033207,-11.683013,-5.906984,90.831017,,,,,,,,,,,,,,,,,,,,,,,,,,,,,,,,,,,,,,,,,,,,,,,,,,,,,,,,,,,,,,,,,,,,,,,,,,,,,,,,,,,,,,,,,,,,,,,,,,,,,,,,,,
1702360572,1702360572,17,0,4245.641113,4209.230957,4280.384766,4225.384766,4266.538574,4266.922852,4260.512695,4268.589844,4266.025879,4247.179688,4441.538574,4433.077148,4329.358887,4378.333496,0,3,58,,,,0,4,4,4,4,4,4,4,4,4,4,4,4,4,4,100,,,,,,,,,,,,,,,,,,,,,,,,,,,,,,,,,,,,,,,,,,,,,,,,,,,,,,,,,,,,,,,,,,,,,,,,,,,,,,,,,,,,,,,,,,,,,,,,,,,,,,,,,,,,,,,,,,,,,,,,,,,,,,,,,,,,,,
1702360572,1702360572,18,0,4251.538574,4209.615234,4290.384766,4234.487305,4260,4269.230957,4267.692383,4283.333496,4279.743652,4262.563965,4459.358887,4449.102539,4335.641113,4385.641113,0,3,58,,,,0,4,4,4,4,4,4,4,4,4,4,4,4,4,4,100,,,,,,,,,,,,,,,,,,,,,,,,,,,,,,,,,,,,,,,,,,,,,,,,,,,,,,,,,,,,,,,,,,,,,,,,,,,,,,,,,,,,,,,,,,,,,,,,,,,,,,,,,,,,,,,,,,,,,,,,,,,,,,,,,,,,,,
1702360572,1702360572,19,0,4245.512695,4206.922852,4286.153809,4228.717773,4247.94873,4266.538574,4263.333496,4278.589844,4276.922852,4276.538574,4458.205078,4446.025879,4338.589844,4382.05127,0,3,58,,,,0,4,4,4,4,4,4,4,4,4,4,4,4,4,4,100,,,,,,,,,,,,,,,,,,,,,,,,,,,,,,,,,,,,,,,,,,,,,,,,,,,,,,,,,,,,,,,,,,,,,,,,,,,,,,,,,,,,,,,,,,,,,,,,,,,,,,,,,,,,,,,,,,,,,,,,,,,,,,,,,,,,,,
1702360572,1702360572,20,0,4242.05127,4210.384766,4277.692383,4216.794922,4241.153809,4262.692383,4248.974121,4258.974121,4256.794922,4260.897461,4442.436035,4430,4325.512695,4375.128418,0,3,58,,,,0,4,4,4,4,4,4,4,4,4,4,4,4,4,4,100,,,,,,,,,,,,,,,,,5,0,0.680972,-0.232422,-0.675232,-0.162231,0.966427,-0.091808,-0.027835,-11.631378,-5.816286,90.797913,,,,,,,,,,,,,,,,,,,,,,,,,,,,,,,,,,,,,,,,,,,,,,,,,,,,,,,,,,,,,,,,,,,,,,,,,,,,,,,,,,,,,,,,,,,,,,,,,,,,,,,,,,
1702360572,1702360572,21,0,4245.128418,4212.563965,4285,4220.384766,4252.94873,4259.871582,4245.256348,4254.743652,4253.205078,4243.589844,4439.102539,4430,4320.769043,4374.871582,0,3,58,,,,0,4,4,4,4,4,4,4,4,4,4,4,4,4,4,100,,,,,,,,,,,,,,,,,,,,,,,,,,,,,,,,,,,,,,,,,,,,,,,,,,,,,,,,,,,,,,,,,,,,,,,,,,,,,,,,,,,,,,,,,,,,,,,,,,,,,,,,,,,,,,,,,,,,,,,,,,,,,,,,,,,,,,
1702360572,1702360572,22,0,4248.717773,4217.563965,4296.153809,4231.282227,4263.589844,4262.179688,4251.410156,4258.846191,4262.692383,4254.102539,4448.974121,4444.230957,4339.102539,4384.230957,0,3,58,,,,0,4,4,4,4,4,4,4,4,4,4,4,4,4,4,100,,,,,,,,,,,,,,,,,,,,,,,,,,,,,,,,,,,,,,,,,,,,,,,,,,,,,,,,,,,,,,,,,,,,,,,,,,,,,,,,,,,,,,,,,,,,,,,,,,,,,,,,,,,,,,,,,,,,,,,,,,,,,,,,,,,,,,
1702360572,1702360572,23,0,4257.820313,4235.641113,4295.641113,4235.769043,4256.410156,4269.230957,4254.743652,4253.974121,4259.230957,4269.871582,4459.871582,4450.128418,4355.769043,4396.794922,0,3,58,,,,0,4,4,4,4,4,4,4,4,4,4,4,4,4,4,100,,,,,,,,,,,,,,,,,,,,,,,,,,,,,,,,,,,,,,,,,,,,,,,,,,,,,,,,,,,,,,,,,,,,,,,,,,,,,,,,,,,,,,,,,,,,,,,,,,,,,,,,,,,,,,,,,,,,,,,,,,,,,,,,,,,,,,
1702360572,1702360572,24,0,4259.102539,4247.692383,4288.717773,4236.922852,4244.358887,4266.538574,4248.717773,4245.512695,4247.05127,4251.282227,4453.461426,4435.512695,4354.487305,4393.205078,0,3,58,,,,0,4,4,4,4,4,4,4,4,4,4,4,4,4,4,100,,,,,,,,,,,,,,,,,6,0,0.681593,-0.232544,-0.674194,-0.163757,0.985472,-0.102552,-0.020022,-11.734907,-5.801324,90.668121,,,,,,,,,,,,,,,,,,,,,,,,,,,,,,,,,,,,,,,,,,,,,,,,,,,,,,,,,,,,,,,,,,,,,,,,,,,,,,,,,,,,,,,,,,,,,,,,,,,,,,,,,,
1702360572,1702360572,25,0,4257.563965,4258.077148,4292.179688,4244.743652,4255.512695,4259.230957,4243.717773,4243.461426,4243.589844,4229.871582,4442.692383,4428.589844,4359.487305,4389.871582,0,3,58,,,,0,4,4,4,4,4,4,4,4,4,4,4,4,4,4,100,,,,,,,,,,,,,,,,,,,,,,,,,,,,,,,,,,,,,,,,,,,,,,,,,,,,,,,,,,,,,,,,,,,,,,,,,,,,,,,,,,,,,,,,,,,,,,,,,,,,,,,,,,,,,,,,,,,,,,,,,,,,,,,,,,,,,,
1702360572,1702360572,26,0,4276.794922,4295.641113,4306.153809,4260.641113,4276.153809,4263.974121,4250.128418,4248.333496,4250.897461,4250,4462.436035,4449.487305,4384.487305,4411.922852,0,3,58,,,,0,4,4,4,4,4,4,4,4,4,4,4,4,4,4,100,,,,,,,,,,,,,,,,,,,,,,,,,,,,,,,,,,,,,,,,,,,,,,,,,,,,,,,,,,,,,,,,,,,,,,,,,,,,,,,,,,,,,,,,,,,,,,,,,,,,,,,,,,,,,,,,,,,,,,,,,,,,,,,,,,,,,,
1702360572,1702360572,27,0,4294.487305,4331.922852,4311.025879,4274.871582,4271.538574,4268.205078,4251.922852,4251.794922,4255.384766,4267.05127,4488.846191,4460.128418,4401.922852,4431.025879,0,3,58,,,,0,4,4,4,4,4,4,4,4,4,4,4,4,4,4,100,,,,,,,,,,,,,,,,,,,,,,,,,,,,,,,,,,,,,,,,,,,,,,,,,,,,,,,,,,,,,,,,,,,,,,,,,,,,,,,,,,,,,,,,,,,,,,,,,,,,,,,,,,,,,,,,,,,,,,,,,,,,,,,,,,,,,,
1702360572,1702360572,28,0,4291.538574,4344.230957,4305.128418,4281.538574,4258.717773,4265.384766,4247.307617,4249.102539,4248.846191,4255.512695,4485.384766,4449.615234,4402.692383,4429.871582,0,3,58,,,,0,4,4,4,4,4,4,4,4,4,4,4,4,4,4,100,,,,,,,,,,,,,,,,,7,0,0.682535,-0.233521,-0.672424,-0.16571,0.982542,-0.102063,-0.009767,-11.578083,-5.837858,90.601311,,,,,,,,,,,,,,,,,,,,,,,,,,,,,,,,,,,,,,,,,,,,,,,,,,,,,,,,,,,,,,,,,,,,,,,,,,,,,,,,,,,,,,,,,,,,,,,,,,,,,,,,,,
1702360572,1702360572,29,0,4297.563965,4371.666504,4305.512695,4287.307617,4257.179688,4268.205078,4253.077148,4247.94873,4243.077148,4240.769043,4483.205078,4450.128418,4418.077148,4438.205078,0,3,58,,,,0,4,4,4,4,4,4,4,4,4,4,4,4,4,4,100,,,,,,,,,,,,,,,,,,,,,,,,,,,,,,,,,,,,,,,,,,,,,,,,,,,,,,,,,,,,,,,,,79.830925,9.766678,2.732466,0.999622,0.421758,392.672943,52.066719,9.701075,1.940226,0.534406,17.782141,2.403549,1.254758,0.678089,0.393175,74.349815,9.798206,2.442352,0.663817,0.443281,5.094745,1.698693,0.631284,0.439368,1.062456,1.971457,0.464662,0.693006,0.350732,0.174127,2.307897,0.641729,0.753079,0.55632,0.237224,3.331535,0.400432,0.638807,0.581255,0.402821,2.971192,0.309566,0.574449,0.728938,0.467507,5.223825,0.649053,0.797995,1.042806,1.388982,29.509907,2.928919,1.283429,1.014932,0.789482,17.417063,2.329755,1.443512,0.9926,0.716777,113.017662,11.146132,2.859492,1.519271,0.905075,75.226318,9.995852,2.746742,0.98076,0.546302
1702360572,1702360572,30,0,4331.922852,4435.512695,4320.769043,4308.717773,4267.820313,4277.307617,4262.563965,4254.230957,4251.410156,4243.974121,4511.538574,4469.487305,4463.846191,4473.974121,0,3,58,,,,0,4,4,4,4,4,4,4,4,4,4,4,4,4,4,100,,,,,,,,,,,,,,,,,,,,,,,,,,,,,,,,,,,,,,,,,,,,,,,,,,,,,,,,,,,,,,,,,,,,,,,,,,,,,,,,,,,,,,,,,,,,,,,,,,,,,,,,,,,,,,,,,,,,,,,,,,,,,,,,,,,,,,
1702360572,1702360572,31,0,4380.384766,4510.897461,4348.205078,4346.025879,4288.077148,4283.974121,4270.769043,4267.436035,4267.94873,4267.436035,4551.922852,4499.743652,4520.769043,4526.666504,0,3,58,,,,0,4,4,4,4,4,4,4,4,4,4,4,4,4,4,100,,,,,,,,,,,,,,,,,,,,,,,,,,,,,,,,,,,,,,,,,,,,,,,,,,,,,,,,,,,,,,,,,,,,,,,,,,,,,,,,,,,,,,,,,,,,,,,,,,,,,,,,,,,,,,,,,,,,,,,,,,,,,,,,,,,,,,
1702360572,1702360572,32,0,4426.538574,4587.05127,4375.384766,4385.641113,4297.563965,4283.077148,4274.102539,4275.256348,4275.769043,4278.461426,4585.384766,4527.563965,4573.461426,4575.769043,0,3,58,,,,0,4,4,4,4,4,4,4,4,4,4,4,4,4,4,100,,,,,,,,,,,,,,,,,8,0,0.683443,-0.235168,-0.670349,-0.16803,1.002564,-0.116225,0.000488,-11.603608,-5.787405,90.657845,,,,,,,,,,,,,,,,,,,,,,,,,,,,,,,,,,,,,,,,,,,,,,,,,,,,,,,,,,,,,,,,,,,,,,,,,,,,,,,,,,,,,,,,,,,,,,,,,,,,,,,,,,
1702360572,1702360572,33,0,4462.94873,4663.589844,4391.794922,4417.563965,4292.563965,4278.717773,4264.487305,4271.025879,4276.410156,4274.743652,4610.897461,4540.641113,4623.717773,4611.153809,0,3,58,,,,0,4,4,4,4,4,4,4,4,4,4,4,4,4,4,100,,,,,,,,,,,,,,,,,,,,,,,,,,,,,,,,,,,,,,,,,,,,,,,,,,,,,,,,,,,,,,,,,,,,,,,,,,,,,,,,,,,,,,,,,,,,,,,,,,,,,,,,,,,,,,,,,,,,,,,,,,,,,,,,,,,,,,
1702360572,1702360572,34,0,4487.820313,4707.05127,4403.974121,4434.743652,4298.589844,4286.538574,4267.05127,4276.282227,4278.589844,4294.358887,4632.436035,4556.666504,4666.282227,4642.179688,0,3,58,,,,0,4,4,4,4,4,4,4,4,4,4,4,4,4,4,100,,,,,,,,,,,,,,,,,,,,,,,,,,,,,,,,,,,,,,,,,,,,,,,,,,,,,,,,,,,,,,,,,,,,,,,,,,,,,,,,,,,,,,,,,,,,,,,,,,,,,,,,,,,,,,,,,,,,,,,,,,,,,,,,,,,,,,
1702360572,1702360572,35,0,4500.897461,4704.871582,4415.641113,4438.461426,4315.641113,4298.205078,4284.102539,4288.461426,4285.128418,4315.769043,4651.794922,4575.384766,4693.589844,4666.282227,0,3,58,,,,0,4,4,4,4,4,4,4,4,4,4,4,4,4,4,100,,,,,,,,,,,,,,,,,,,,,,,,,,,,,,,,,,,,,,,,,,,,,,,,,,,,,,,,,,,,,,,,,,,,,,,,,,,,,,,,,,,,,,,,,,,,,,,,,,,,,,,,,,,,,,,,,,,,,,,,,,,,,,,,,,,,,,
1702360572,1702360572,36,0,4501.538574,4689.487305,4417.820313,4436.538574,4312.94873,4293.589844,4280.384766,4285.512695,4294.102539,4317.307617,4668.846191,4577.05127,4715.128418,4668.717773,0,3,58,,,,0,4,4,4,4,4,4,4,4,4,4,4,4,4,4,100,,,,,,,,,,,,,,,,,9,0,0.68367,-0.236389,-0.668945,-0.170959,1.007936,-0.11476,-0.01758,-11.559914,-5.758665,90.608727,,,,,,,,,,,,,,,,,,,,,,,,,,,,,,,,,,,,,,,,,,,,,,,,,,,,,,,,,,,,,,,,,,,,,,,,,,,,,,,,,,,,,,,,,,,,,,,,,,,,,,,,,,
1702360572,1702360572,37,0,4497.692383,4680.256348,4414.615234,4436.282227,4303.077148,4291.410156,4274.487305,4282.692383,4294.743652,4317.05127,4676.153809,4576.282227,4721.538574,4664.743652,0,3,58,,,,0,4,4,4,4,4,4,4,4,4,4,4,4,4,4,100,,,,,,,,,,,,,,,,,,,,,,,,,,,,,,,,,,,,,,,,,,,,,,,,,,,,,,,,,,,,,,,,,,,,,,,,,,,,,,,,,,,,,,,,,,,,,,,,,,,,,,,,,,,,,,,,,,,,,,,,,,,,,,,,,,,,,,
1702360572,1702360572,38,0,4494.230957,4672.692383,4414.230957,4432.692383,4310,4297.94873,4284.615234,4285.769043,4281.025879,4312.307617,4670.897461,4578.077148,4707.820313,4664.615234,0,3,58,,,,0,4,4,4,4,4,4,4,4,4,4,4,4,4,4,100,,,,,,,,,,,,,,,,,,,,,,,,,,,,,,,,,,,,,,,,,,,,,,,,,,,,,,,,,,,,,,,,,,,,,,,,,,,,,,,,,,,,,,,,,,,,,,,,,,,,,,,,,,,,,,,,,,,,,,,,,,,,,,,,,,,,,,
1702360572,1702360572,39,0,4493.461426,4661.410156,4415.128418,4429.102539,4309.230957,4287.820313,4274.487305,4281.282227,4277.436035,4317.05127,4664.743652,4572.820313,4702.436035,4661.153809,0,3,58,,,,0,4,4,4,4,4,4,4,4,4,4,4,4,4,4,100,,,,,,,,,,,,,,,,,,,,,,,,,,,,,,,,,,,,,,,,,,,,,,,,,,,,,,,,,,,,,,,,,,,,,,,,,,,,,,,,,,,,,,,,,,,,,,,,,,,,,,,,,,,,,,,,,,,,,,,,,,,,,,,,,,,,,,
1702360572,1702360572,40,0,4491.794922,4643.589844,4416.410156,4428.974121,4298.205078,4276.153809,4261.538574,4282.692383,4295,4335.641113,4659.102539,4573.589844,4706.025879,4658.205078,0,3,58,,,,0,4,4,4,4,4,4,4,4,4,4,4,4,4,4,100,,,,,,,,,,,,,,,,,10,0,0.683097,-0.236938,-0.668518,-0.174133,0.989379,-0.11183,0.000977,-11.453922,-5.916132,90.781189,,,,,,,,,,,,,,,,,,,,,,,,,,,,,,,,,,,,,,,,,,,,,,,,,,,,,,,,,,,,,,,,,,,,,,,,,,,,,,,,,,,,,,,,,,,,,,,,,,,,,,,,,,
1702360572,1702360572,41,0,4483.974121,4628.846191,4415.128418,4425.384766,4303.077148,4288.077148,4275.128418,4292.179688,4302.05127,4327.436035,4650.897461,4576.153809,4690.512695,4654.743652,0,3,58,,,,0,4,4,4,4,4,4,4,4,4,4,4,4,4,4,100,,,,,,,,,,,,,,,,,,,,,,,,,,,,,,,,,,,,,,,,,,,,,,,,,,,,,,,,,,,,,,,,,,,,,,,,,,,,,,,,,,,,,,,,,,,,,,,,,,,,,,,,,,,,,,,,,,,,,,,,,,,,,,,,,,,,,,
1702360572,1702360572,42,0,4472.436035,4610.256348,4411.794922,4418.205078,4311.025879,4298.974121,4284.358887,4290.512695,4293.333496,4306.666504,4646.153809,4568.846191,4665.256348,4640.897461,0,3,58,,,,0,4,4,4,4,4,4,4,4,4,4,4,4,4,4,100,,,,,,,,,,,,,,,,,,,,,,,,,,,,,,,,,,,,,,,,,,,,,,,,,,,,,,,,,,,,,,,,,,,,,,,,,,,,,,,,,,,,,,,,,,,,,,,,,,,,,,,,,,,,,,,,,,,,,,,,,,,,,,,,,,,,,,
1702360572,1702360572,43,0,4462.820313,4575.512695,4413.205078,4409.743652,4310.128418,4297.179688,4281.794922,4294.743652,4303.974121,4330,4649.487305,4570.128418,4658.205078,4630.512695,0,3,58,,,,0,4,4,4,4,4,4,4,4,4,4,4,4,4,4,100,,,,,,,,,,,,,,,,,,,,,,,,,,,,,,,,,,,,,,,,,,,,,,,,,,,,,,,,,,,,,,,,,,,,,,,,,,,,,,,,,,,,,,,,,,,,,,,,,,,,,,,,,,,,,,,,,,,,,,,,,,,,,,,,,,,,,,
1702360572,1702360572,44,0,4449.615234,4546.666504,4405.384766,4396.922852,4307.179688,4293.461426,4283.461426,4301.282227,4314.487305,4349.230957,4639.871582,4568.205078,4641.538574,4619.871582,0,3,58,,,,0,4,4,4,4,4,4,4,4,4,4,4,4,4,4,100,,,,,,,,,,,,,,,,,11,0,0.682488,-0.236145,-0.668457,-0.177795,0.976682,-0.095715,-0.01758,-11.375197,-6.041185,90.80307,,,,,,,,,,,,,,,,,,,,,,,,,,,,,,,,,,,,,,,,,,,,,,,,,,,,,,,,,,,,,,,,,,,,,,,,,,,,,,,,,,,,,,,,,,,,,,,,,,,,,,,,,,
1702360572,1702360572,45,0,4427.436035,4534.358887,4382.563965,4380.641113,4296.410156,4283.974121,4275.384766,4284.358887,4292.563965,4308.333496,4604.743652,4541.538574,4595,4591.666504,0,3,58,,,,0,4,4,4,4,4,4,4,4,4,4,4,4,4,4,100,1,25,3,1,3,1,4,4,4,4,4,3,1,4,1,3,,,,,,,,,,,,,,,,,,,,,,,,,,,,,,,,,,,,,,,,,,,,,,,,,82.295128,9.823447,2.88402,0.859023,0.39961,401.913574,52.755486,10.606372,1.959252,0.496347,18.352148,2.392807,1.20477,0.569277,0.38712,76.533806,9.647853,2.554691,0.581912,0.367827,4.883461,1.864256,0.478111,0.341713,0.904933,1.734903,0.444084,0.540285,0.352582,0.177511,2.011855,0.540701,0.511602,0.500235,0.233598,2.757987,0.379736,0.529098,0.482054,0.371751,2.350463,0.304453,0.478214,0.591352,0.41407,4.43251,0.732368,0.691116,0.977011,1.307102,31.217945,3.202479,1.173199,0.867631,0.75607,17.874228,2.323615,1.340479,0.784957,0.679345,119.384743,11.977029,2.991776,1.365079,0.817033,79.561539,10.400201,2.828812,0.871695,0.50241
1702360572,1702360572,46,0,4406.666504,4515,4370.512695,4367.307617,4285.769043,4274.743652,4261.538574,4269.102539,4273.461426,4280.128418,4576.282227,4520.384766,4564.871582,4570.641113,0,3,58,,,,0,4,4,4,4,4,4,4,4,4,4,4,4,4,4,100,,,,,,,,,,,,,,,,,,,,,,,,,,,,,,,,,,,,,,,,,,,,,,,,,,,,,,,,,,,,,,,,,,,,,,,,,,,,,,,,,,,,,,,,,,,,,,,,,,,,,,,,,,,,,,,,,,,,,,,,,,,,,,,,,,,,,,
1702360572,1702360572,47,0,4399.615234,4491.153809,4372.563965,4360.128418,4289.615234,4279.487305,4269.615234,4271.922852,4277.820313,4297.436035,4571.410156,4523.846191,4564.487305,4569.358887,0,3,58,,,,0,4,4,4,4,4,4,4,4,4,4,4,4,4,4,100,,,,,,,,,,,,,,,,,,,,,,,,,,,,,,,,,,,,,,,,,,,,,,,,,,,,,,,,,,,,,,,,,,,,,,,,,,,,,,,,,,,,,,,,,,,,,,,,,,,,,,,,,,,,,,,,,,,,,,,,,,,,,,,,,,,,,,
1702360572,1702360572,48,0,4394.743652,4476.666504,4367.307617,4355,4302.436035,4282.563965,4279.487305,4277.179688,4282.05127,4303.717773,4566.666504,4524.358887,4553.333496,4561.282227,0,3,58,,,,0,4,4,4,4,4,4,4,4,4,4,4,4,4,4,100,,,,,,,,,,,,,,,,,12,0,0.682007,-0.233826,-0.668762,-0.181519,0.963008,-0.072274,-0.002442,-11.204344,-6.087067,90.92276,,,,,,,,,,,,,,,,,,,,,,,,,,,,,,,,,,,,,,,,,,,,,,,,,,,,,,,,,,,,,,,,,,,,,,,,,,,,,,,,,,,,,,,,,,,,,,,,,,,,,,,,,,
1702360572,1702360572,49,0,4384.871582,4468.974121,4360.384766,4344.871582,4310.384766,4277.307617,4269.871582,4275.384766,4276.410156,4287.436035,4558.974121,4515.512695,4528.333496,4550.512695,0,3,58,,,,0,4,4,4,4,4,4,4,4,4,4,4,4,4,4,100,,,,,,,,,,,,,,,,,,,,,,,,,,,,,,,,,,,,,,,,,,,,,,,,,,,,,,,,,,,,,,,,,,,,,,,,,,,,,,,,,,,,,,,,,,,,,,,,,,,,,,,,,,,,,,,,,,,,,,,,,,,,,,,,,,,,,,
1702360572,1702360572,50,0,4391.282227,4472.692383,4374.102539,4342.692383,4320.384766,4284.615234,4268.077148,4274.358887,4278.333496,4294.743652,4566.538574,4526.794922,4535.897461,4562.307617,0,3,58,,,,0,4,4,4,4,4,4,4,4,4,4,4,4,4,4,100,,,,,,,,,,,,,,,,,,,,,,,,,,,,,,,,,,,,,,,,,,,,,,,,,,,,,,,,,,,,,,,,,,,,,,,,,,,,,,,,,,,,,,,,,,,,,,,,,,,,,,,,,,,,,,,,,,,,,,,,,,,,,,,,,,,,,,
1702360572,1702360572,51,0,4405,4474.358887,4390.897461,4351.282227,4331.922852,4301.666504,4284.230957,4284.487305,4294.230957,4319.871582,4578.205078,4546.153809,4562.179688,4579.358887,0,3,58,,,,0,4,4,4,4,4,4,4,4,4,4,4,4,4,4,100,,,,,,,,,,,,,,,,,,,,,,,,,,,,,,,,,,,,,,,,,,,,,,,,,,,,,,,,,,,,,,,,,,,,,,,,,,,,,,,,,,,,,,,,,,,,,,,,,,,,,,,,,,,,,,,,,,,,,,,,,,,,,,,,,,,,,,
1702360572,1702360572,52,0,4387.05127,4443.974121,4375.512695,4338.717773,4328.717773,4295.641113,4282.179688,4287.05127,4298.846191,4313.974121,4565.128418,4530.256348,4543.461426,4561.922852,0,3,58,,,,0,4,4,4,4,4,4,4,4,4,4,4,4,4,4,100,,,,,,,,,,,,,,,,,13,0,0.681758,-0.232422,-0.669006,-0.18335,0.971798,-0.061531,-0.024417,-11.100576,-6.045027,90.863823,,,,,,,,,,,,,,,,,,,,,,,,,,,,,,,,,,,,,,,,,,,,,,,,,,,,,,,,,,,,,,,,,,,,,,,,,,,,,,,,,,,,,,,,,,,,,,,,,,,,,,,,,,
1702360572,1702360572,53,0,4354.230957,4407.436035,4350.512695,4309.615234,4322.692383,4278.333496,4263.589844,4276.666504,4285.384766,4297.179688,4541.282227,4501.922852,4497.436035,4524.487305,0,3,58,,,,0,4,4,4,4,4,4,4,4,4,4,4,4,4,4,100,,,,,,,,,,,,,,,,,,,,,,,,,,,,,,,,,,,,,,,,,,,,,,,,,,,,,,,,,,,,,,,,,,,,,,,,,,,,,,,,,,,,,,,,,,,,,,,,,,,,,,,,,,,,,,,,,,,,,,,,,,,,,,,,,,,,,,
1702360572,1702360572,54,0,4347.820313,4400.384766,4353.205078,4298.205078,4328.077148,4283.333496,4265.897461,4277.179688,4279.230957,4300.641113,4531.410156,4504.102539,4480,4511.794922,0,3,58,,,,0,4,4,4,4,4,4,4,4,4,4,4,4,4,4,100,,,,,,,,,,,,,,,,,,,,,,,,,,,,,,,,,,,,,,,,,,,,,,,,,,,,,,,,,,,,,,,,,,,,,,,,,,,,,,,,,,,,,,,,,,,,,,,,,,,,,,,,,,,,,,,,,,,,,,,,,,,,,,,,,,,,,,
1702360572,1702360572,55,0,4345,4388.077148,4354.743652,4290.512695,4324.743652,4290.769043,4273.717773,4280.384766,4280.512695,4299.102539,4515.641113,4501.282227,4472.05127,4509.358887,0,3,58,,,,0,4,4,4,4,4,4,4,4,4,4,4,4,4,4,100,,,,,,,,,,,,,,,,,,,,,,,,,,,,,,,,,,,,,,,,,,,,,,,,,,,,,,,,,,,,,,,,,,,,,,,,,,,,,,,,,,,,,,,,,,,,,,,,,,,,,,,,,,,,,,,,,,,,,,,,,,,,,,,,,,,,,,
1702360572,1702360572,56,0,4324.230957,4352.179688,4336.282227,4267.563965,4305.641113,4280,4265.128418,4269.487305,4273.974121,4288.333496,4495.512695,4475.641113,4441.922852,4490.384766,0,3,58,,,,0,4,4,4,4,4,4,4,4,4,4,4,4,4,4,100,,,,,,,,,,,,,,,,,14,0,0.681658,-0.229248,-0.669189,-0.187012,0.969845,-0.060554,-0.02051,-10.940518,-5.990524,90.910774,,,,,,,,,,,,,,,,,,,,,,,,,,,,,,,,,,,,,,,,,,,,,,,,,,,,,,,,,,,,,,,,,,,,,,,,,,,,,,,,,,,,,,,,,,,,,,,,,,,,,,,,,,
1702360572,1702360572,57,0,4317.436035,4333.077148,4335.641113,4256.025879,4306.666504,4274.871582,4260.128418,4269.230957,4275.256348,4292.820313,4503.077148,4477.94873,4432.692383,4485,0,3,58,,,,0,4,4,4,4,4,4,4,4,4,4,4,4,4,4,100,,,,,,,,,,,,,,,,,,,,,,,,,,,,,,,,,,,,,,,,,,,,,,,,,,,,,,,,,,,,,,,,,,,,,,,,,,,,,,,,,,,,,,,,,,,,,,,,,,,,,,,,,,,,,,,,,,,,,,,,,,,,,,,,,,,,,,
1702360572,1702360572,58,0,4326.153809,4333.589844,4349.487305,4259.871582,4321.794922,4284.230957,4268.846191,4285.128418,4288.205078,4307.563965,4516.410156,4500.512695,4451.666504,4499.102539,0,3,58,,,,0,4,4,4,4,4,4,4,4,4,4,4,4,4,4,100,,,,,,,,,,,,,,,,,,,,,,,,,,,,,,,,,,,,,,,,,,,,,,,,,,,,,,,,,,,,,,,,,,,,,,,,,,,,,,,,,,,,,,,,,,,,,,,,,,,,,,,,,,,,,,,,,,,,,,,,,,,,,,,,,,,,,,
1702360572,1702360572,59,0,4303.846191,4302.307617,4334.102539,4238.974121,4302.563965,4284.102539,4268.461426,4282.94873,4285.256348,4300.256348,4492.179688,4482.692383,4430,4474.358887,0,3,58,,,,0,4,4,4,4,4,4,4,4,4,4,4,4,4,4,100,,,,,,,,,,,,,,,,,,,,,,,,,,,,,,,,,,,,,,,,,,,,,,,,,,,,,,,,,,,,,,,,,,,,,,,,,,,,,,,,,,,,,,,,,,,,,,,,,,,,,,,,,,,,,,,,,,,,,,,,,,,,,,,,,,,,,,
1702360572,1702360572,60,0,4260.897461,4253.205078,4305.897461,4199.230957,4274.230957,4269.743652,4257.692383,4271.538574,4271.922852,4272.436035,4455,4446.410156,4375.769043,4423.461426,0,3,58,,,,0,4,4,4,4,4,4,4,4,4,4,4,4,4,4,100,,,,,,,,,,,,,,,,,15,0,0.682161,-0.226807,-0.668579,-0.190308,0.979612,-0.050787,-0.002442,-10.7298,-5.841472,91.019691,,,,,,,,,,,,,,,,,,,,,,,,,,,,,,,,,,,,,,,,,,,,,,,,,,,,,,,,,,,,,,,,,,,,,,,,,,,,,,,,,,,,,,,,,,,,,,,,,,,,,,,,,,
1702360572,1702360572,61,0,4246.922852,4230.769043,4296.153809,4182.563965,4274.743652,4262.563965,4257.307617,4273.333496,4272.563965,4253.461426,4441.282227,4441.794922,4351.538574,4407.563965,0,3,58,,,,0,4,4,4,4,4,4,4,4,4,4,4,4,4,4,100,,,,,,,,,,,,,,,,,,,,,,,,,,,,,,,,,,,,,,,,,,,,,,,,,,,,,,,,,,,,,,,,,72.801712,8.66803,2.832895,0.695596,0.377364,352.403534,46.834511,10.393267,1.832954,0.457607,16.520859,2.158478,1.17924,0.444941,0.380117,67.83268,8.371547,2.485404,0.494133,0.312863,4.571916,1.806508,0.425984,0.266069,0.808277,1.434386,0.429008,0.438611,0.359312,0.183423,1.769776,0.45072,0.379462,0.446183,0.238293,2.285927,0.394398,0.488006,0.388054,0.341545,1.847879,0.348498,0.428159,0.469046,0.381989,3.658633,0.810586,0.623478,0.885575,1.246969,29.142485,3.095871,1.009477,0.7324,0.746078,16.286898,2.1513,1.284803,0.622552,0.645292,109.667938,11.181224,2.862945,1.175249,0.721185,72.181641,9.457908,2.713528,0.739231,0.46168
1702360573,1702360573,62,0,4243.846191,4217.307617,4291.794922,4185.256348,4283.461426,4270.256348,4262.820313,4270.897461,4273.333496,4261.025879,4440,4440.897461,4344.743652,4406.666504,0,3,58,,,,0,4,4,4,4,4,4,4,4,4,4,4,4,4,4,100,,,,,,,,,,,,,,,,,,,,,,,,,,,,,,,,,,,,,,,,,,,,,,,,,,,,,,,,,,,,,,,,,,,,,,,,,,,,,,,,,,,,,,,,,,,,,,,,,,,,,,,,,,,,,,,,,,,,,,,,,,,,,,,,,,,,,,
1702360573,1702360573,63,0,4232.820313,4199.615234,4291.282227,4181.922852,4281.410156,4280.256348,4266.410156,4268.333496,4269.230957,4278.589844,4445.384766,4435.641113,4328.589844,4397.563965,0,3,58,,,,0,4,4,4,4,4,4,4,4,4,4,4,4,4,4,100,,,,,,,,,,,,,,,,,,,,,,,,,,,,,,,,,,,,,,,,,,,,,,,,,,,,,,,,,,,,,,,,,,,,,,,,,,,,,,,,,,,,,,,,,,,,,,,,,,,,,,,,,,,,,,,,,,,,,,,,,,,,,,,,,,,,,,
1702360573,1702360573,64,0,4231.153809,4187.94873,4294.230957,4173.205078,4278.846191,4273.333496,4265.256348,4274.230957,4271.922852,4272.692383,4444.358887,4442.692383,4316.666504,4394.358887,5454,3,58,,,,0,4,4,4,4,4,4,4,4,4,4,4,4,4,4,100,,,,,,,,,,,,,,,,,16,0,0.683335,-0.22583,-0.666992,-0.19281,1.005005,-0.001465,0.002442,-10.523487,-5.840658,90.934387,,,,,,,,,,,,,,,,,,,,,,,,,,,,,,,,,,,,,,,,,,,,,,,,,,,,,,,,,,,,,,,,,,,,,,,,,,,,,,,,,,,,,,,,,,,,,,,,,,,,,,,,,,
1702360573,1702360573,65,0,4219.615234,4172.436035,4280.769043,4157.820313,4268.717773,4260.256348,4260.128418,4268.589844,4270.384766,4255.384766,4420,4430.897461,4295.897461,4381.410156,5537,3,58,,,,0,4,4,4,4,4,4,4,4,4,4,4,4,4,4,100,,,,,,,,,,,,,,,,,,,,,,,,,,,,,,,,,,,,,,,,,,,,,,,,,,,,,,,,,,,,,,,,,,,,,,,,,,,,,,,,,,,,,,,,,,,,,,,,,,,,,,,,,,,,,,,,,,,,,,,,,,,,,,,,,,,,,,
1702360573,1702360573,66,0,4200.769043,4153.077148,4270,4144.871582,4255.641113,4264.743652,4263.589844,4262.820313,4261.538574,4257.307617,4409.871582,4415,4279.230957,4365.128418,5392,3,58,,,,0,4,4,4,4,4,4,4,4,4,4,4,4,4,4,100,,,,,,,,,,,,,,,,,,,,,,,,,,,,,,,,,,,,,,,,,,,,,,,,,,,,,,,,,,,,,,,,,,,,,,,,,,,,,,,,,,,,,,,,,,,,,,,,,,,,,,,,,,,,,,,,,,,,,,,,,,,,,,,,,,,,,,
1702360573,1702360573,67,0,4200.384766,4141.538574,4278.846191,4144.487305,4247.05127,4268.333496,4265.897461,4271.794922,4262.436035,4264.358887,4419.487305,4423.846191,4287.05127,4366.538574,5400,3,58,,,,0,4,4,4,4,4,4,4,4,4,4,4,4,4,4,100,,,,,,,,,,,,,,,,,,,,,,,,,,,,,,,,,,,,,,,,,,,,,,,,,,,,,,,,,,,,,,,,,,,,,,,,,,,,,,,,,,,,,,,,,,,,,,,,,,,,,,,,,,,,,,,,,,,,,,,,,,,,,,,,,,,,,,
1702360573,1702360573,68,0,4192.820313,4127.820313,4268.461426,4136.922852,4230.769043,4251.025879,4251.794922,4268.974121,4265.512695,4252.94873,4405.897461,4417.179688,4275.641113,4355.769043,5342,3,58,,,,0,4,4,4,4,4,4,4,4,4,4,4,4,4,4,100,,,,,,,,,,,,,,,,,17,0,0.685009,-0.225525,-0.665039,-0.19397,1.001099,-0.009767,0.019534,-10.371138,-5.889925,91.09095,,,,,,,,,,,,,,,,,,,,,,,,,,,,,,,,,,,,,,,,,,,,,,,,,,,,,,,,,,,,,,,,,,,,,,,,,,,,,,,,,,,,,,,,,,,,,,,,,,,,,,,,,,
1702360573,1702360573,69,0,4171.410156,4117.179688,4244.487305,4120,4231.153809,4238.333496,4240.512695,4261.538574,4260.384766,4245.256348,4380.512695,4391.282227,4244.358887,4331.922852,5223,3,58,,,,0,4,4,4,4,4,4,4,4,4,4,4,4,4,4,100,,,,,,,,,,,,,,,,,,,,,,,,,,,,,,,,,,,,,,,,,,,,,,,,,,,,,,,,,,,,,,,,,,,,,,,,,,,,,,,,,,,,,,,,,,,,,,,,,,,,,,,,,,,,,,,,,,,,,,,,,,,,,,,,,,,,,,
1702360573,1702360573,70,0,4168.974121,4118.205078,4249.230957,4120.641113,4248.461426,4246.410156,4246.538574,4270.256348,4259.871582,4253.589844,4374.487305,4393.974121,4239.358887,4329.102539,5130,3,58,,,,0,4,4,4,4,4,4,4,4,4,4,4,4,4,4,100,,,,,,,,,,,,,,,,,,,,,,,,,,,,,,,,,,,,,,,,,,,,,,,,,,,,,,,,,,,,,,,,,,,,,,,,,,,,,,,,,,,,,,,,,,,,,,,,,,,,,,,,,,,,,,,,,,,,,,,,,,,,,,,,,,,,,,
1702360573,1702360573,71,0,4180.769043,4118.717773,4264.102539,4136.025879,4242.692383,4252.94873,4250.384766,4272.820313,4266.282227,4252.436035,4383.974121,4409.615234,4251.410156,4338.461426,5177,3,58,,,,0,4,4,4,4,4,4,4,4,4,4,4,4,4,4,100,,,,,,,,,,,,,,,,,,,,,,,,,,,,,,,,,,,,,,,,,,,,,,,,,,,,,,,,,,,,,,,,,,,,,,,,,,,,,,,,,,,,,,,,,,,,,,,,,,,,,,,,,,,,,,,,,,,,,,,,,,,,,,,,,,,,,,
1702360573,1702360573,72,0,4182.436035,4114.487305,4264.487305,4137.563965,4227.820313,4249.871582,4247.820313,4270.769043,4276.025879,4246.153809,4395,4412.563965,4249.230957,4338.974121,5312,3,58,,,,0,4,4,4,4,4,4,4,4,4,4,4,4,4,4,100,,,,,,,,,,,,,,,,,18,0,0.687038,-0.224915,-0.663025,-0.194397,1.026004,-0.048346,0.019534,-10.134025,-5.867599,91.01519,,,,,,,,,,,,,,,,,,,,,,,,,,,,,,,,,,,,,,,,,,,,,,,,,,,,,,,,,,,,,,,,,,,,,,,,,,,,,,,,,,,,,,,,,,,,,,,,,,,,,,,,,,
1702360573,1702360573,73,0,4171.922852,4104.743652,4259.358887,4125,4230.897461,4246.282227,4245.512695,4275.384766,4277.179688,4242.692383,4391.282227,4412.179688,4232.179688,4328.077148,5379,3,58,,,,0,4,4,4,4,4,4,4,4,4,4,4,4,4,4,100,,,,,,,,,,,,,,,,,,,,,,,,,,,,,,,,,,,,,,,,,,,,,,,,,,,,,,,,,,,,,,,,,,,,,,,,,,,,,,,,,,,,,,,,,,,,,,,,,,,,,,,,,,,,,,,,,,,,,,,,,,,,,,,,,,,,,,
1702360573,1702360573,74,0,4165.128418,4098.077148,4257.692383,4117.05127,4232.179688,4248.461426,4248.589844,4277.179688,4271.922852,4247.563965,4383.205078,4410.769043,4224.230957,4321.666504,5926,3,58,,,,0,4,4,4,4,4,4,4,4,4,4,4,4,4,4,100,,,,,,,,,,,,,,,,,,,,,,,,,,,,,,,,,,,,,,,,,,,,,,,,,,,,,,,,,,,,,,,,,,,,,,,,,,,,,,,,,,,,,,,,,,,,,,,,,,,,,,,,,,,,,,,,,,,,,,,,,,,,,,,,,,,,,,
1702360573,1702360573,75,0,4177.307617,4108.205078,4265.256348,4122.307617,4228.589844,4258.846191,4260.512695,4278.205078,4278.974121,4259.743652,4397.436035,4415.897461,4250.897461,4336.922852,6287,3,58,,,,0,4,4,4,4,4,4,4,4,4,4,4,4,4,4,100,,,,,,,,,,,,,,,,,,,,,,,,,,,,,,,,,,,,,,,,,,,,,,,,,,,,,,,,,,,,,,,,,,,,,,,,,,,,,,,,,,,,,,,,,,,,,,,,,,,,,,,,,,,,,,,,,,,,,,,,,,,,,,,,,,,,,,
1702360573,1702360573,76,0,4188.077148,4121.794922,4270.256348,4132.94873,4237.692383,4265.128418,4259.871582,4272.436035,4277.94873,4253.589844,4402.94873,4420.897461,4269.743652,4348.077148,6821,3,58,,,,0,4,4,4,4,4,4,4,4,4,4,4,4,4,4,100,,,,,,,,,,,,,,,,,19,0,0.688564,-0.224487,-0.661621,-0.194275,1.017702,-0.053717,0.036137,-9.987288,-5.747506,91.047005,,,,,,,,,,,,,,,,,,,,,,,,,,,,,,,,,,,,,,,,,,,,,,,,,,,,,,,,,,,,,,,,,,,,,,,,,,,,,,,,,,,,,,,,,,,,,,,,,,,,,,,,,,
1702360573,1702360573,77,0,4180,4122.563965,4263.589844,4136.025879,4256.025879,4261.794922,4249.871582,4256.025879,4256.282227,4232.436035,4381.538574,4411.025879,4238.717773,4334.102539,7044,3,58,,,,0,4,4,4,4,4,4,4,4,4,4,4,4,4,4,100,,,,,,,,,,,,,,,,,,,,,,,,,,,,,,,,,,,,,,,,,,,,,,,,,,,,,,,,,,,,,,,,,56.414101,6.804079,2.61676,0.555745,0.359481,267.597626,36.604179,9.227174,1.622379,0.418706,13.204214,1.785544,1.176858,0.337866,0.374341,52.268715,6.408142,2.263222,0.423872,0.284888,4.281409,1.562597,0.489609,0.222611,0.761912,1.143955,0.403009,0.386822,0.360865,0.190006,1.607146,0.387181,0.369267,0.402555,0.251943,2.048183,0.438488,0.514709,0.311048,0.319637,1.610601,0.447649,0.439977,0.377162,0.383638,3.314052,0.875977,0.583696,0.791088,1.249723,25.312069,2.755194,0.851964,0.62816,0.769389,13.602276,1.902894,1.299278,0.522146,0.627854,91.041542,9.286172,2.605256,0.999858,0.649836,57.829227,7.694439,2.465995,0.616838,0.434133
1702360573,1702360573,78,0,4181.922852,4120.769043,4268.846191,4137.307617,4261.922852,4265.128418,4258.461426,4259.487305,4258.589844,4243.717773,4384.743652,4413.461426,4221.538574,4333.333496,5926,3,58,,,,0,4,4,4,4,4,4,4,4,4,4,4,4,4,4,100,,,,,,,,,,,,,,,,,,,,,,,,,,,,,,,,,,,,,,,,,,,,,,,,,,,,,,,,,,,,,,,,,,,,,,,,,,,,,,,,,,,,,,,,,,,,,,,,,,,,,,,,,,,,,,,,,,,,,,,,,,,,,,,,,,,,,,
1702360573,1702360573,79,0,4190.641113,4120,4282.307617,4138.589844,4250.384766,4271.025879,4271.025879,4279.615234,4280.512695,4259.230957,4404.230957,4430.256348,4237.436035,4345,6287,3,58,,,,0,4,4,4,4,4,4,4,4,4,4,4,4,4,4,100,,,,,,,,,,,,,,,,,,,,,,,,,,,,,,,,,,,,,,,,,,,,,,,,,,,,,,,,,,,,,,,,,,,,,,,,,,,,,,,,,,,,,,,,,,,,,,,,,,,,,,,,,,,,,,,,,,,,,,,,,,,,,,,,,,,,,,
1702360573,1702360573,80,0,4185.512695,4118.589844,4278.205078,4137.307617,4254.615234,4264.358887,4263.461426,4277.05127,4272.94873,4233.461426,4393.589844,4428.717773,4228.974121,4337.563965,6821,3,58,,,,0,4,4,4,4,4,4,4,4,4,4,4,4,4,4,100,,,,,,,,,,,,,,,,,20,0,0.689214,-0.225342,-0.661011,-0.193054,0.985472,-0.061043,0.041021,-9.888559,-5.589422,91.242302,,,,,,,,,,,,,,,,,,,,,,,,,,,,,,,,,,,,,,,,,,,,,,,,,,,,,,,,,,,,,,,,,,,,,,,,,,,,,,,,,,,,,,,,,,,,,,,,,,,,,,,,,,
1702360573,1702360573,81,0,4194.230957,4131.153809,4278.077148,4141.794922,4269.615234,4260.769043,4259.102539,4269.871582,4263.205078,4231.666504,4390.384766,4426.538574,4227.05127,4338.717773,7044,3,58,,,,0,4,4,4,4,4,4,4,4,4,4,4,4,4,4,100,,,,,,,,,,,,,,,,,,,,,,,,,,,,,,,,,,,,,,,,,,,,,,,,,,,,,,,,,,,,,,,,,,,,,,,,,,,,,,,,,,,,,,,,,,,,,,,,,,,,,,,,,,,,,,,,,,,,,,,,,,,,,,,,,,,,,,
1702360573,1702360573,82,0,4213.974121,4142.820313,4294.743652,4153.077148,4257.05127,4273.461426,4273.205078,4287.179688,4282.563965,4263.974121,4421.538574,4445.384766,4259.615234,4359.871582,5926,3,58,,,,0,4,4,4,4,4,4,4,4,4,4,4,4,4,4,100,,,,,,,,,,,,,,,,,,,,,,,,,,,,,,,,,,,,,,,,,,,,,,,,,,,,,,,,,,,,,,,,,,,,,,,,,,,,,,,,,,,,,,,,,,,,,,,,,,,,,,,,,,,,,,,,,,,,,,,,,,,,,,,,,,,,,,
1702360573,1702360573,83,0,4210.769043,4138.846191,4298.589844,4152.820313,4243.974121,4280.384766,4283.974121,4300.512695,4292.563965,4259.743652,4432.692383,4453.077148,4258.846191,4363.717773,6287,3,58,,,,0,4,4,4,4,4,4,4,4,4,4,4,4,4,4,100,,,,,,,,,,,,,,,,,,,,,,,,,,,,,,,,,,,,,,,,,,,,,,,,,,,,,,,,,,,,,,,,,,,,,,,,,,,,,,,,,,,,,,,,,,,,,,,,,,,,,,,,,,,,,,,,,,,,,,,,,,,,,,,,,,,,,,
1702360573,1702360573,84,0,4198.589844,4133.461426,4285.256348,4138.974121,4250.128418,4270.897461,4278.461426,4286.794922,4280.128418,4235.256348,4413.333496,4436.922852,4232.563965,4349.743652,6821,3,58,,,,0,4,4,4,4,4,4,4,4,4,4,4,4,4,4,100,,,,,,,,,,,,,,,,,21,0,0.689043,-0.226257,-0.661072,-0.192383,0.976193,-0.066414,0.0293,-9.783037,-5.563813,91.318077,,,,,,,,,,,,,,,,,,,,,,,,,,,,,,,,,,,,,,,,,,,,,,,,,,,,,,,,,,,,,,,,,,,,,,,,,,,,,,,,,,,,,,,,,,,,,,,,,,,,,,,,,,
1702360573,1702360573,85,0,4202.692383,4137.179688,4280.384766,4135.769043,4251.538574,4261.410156,4266.538574,4278.461426,4273.717773,4247.563965,4408.846191,4429.487305,4240.769043,4348.077148,7044,3,58,,,,0,4,4,4,4,4,4,4,4,4,4,4,4,4,4,100,,,,,,,,,,,,,,,,,,,,,,,,,,,,,,,,,,,,,,,,,,,,,,,,,,,,,,,,,,,,,,,,,,,,,,,,,,,,,,,,,,,,,,,,,,,,,,,,,,,,,,,,,,,,,,,,,,,,,,,,,,,,,,,,,,,,,,
1702360573,1702360573,86,0,4201.410156,4135.128418,4283.461426,4139.358887,4248.846191,4257.820313,4256.666504,4278.205078,4270.769043,4252.307617,4403.974121,4427.307617,4245.384766,4346.794922,5926,3,58,,,,0,4,4,4,4,4,4,4,4,4,4,4,4,4,4,100,,,,,,,,,,,,,,,,,,,,,,,,,,,,,,,,,,,,,,,,,,,,,,,,,,,,,,,,,,,,,,,,,,,,,,,,,,,,,,,,,,,,,,,,,,,,,,,,,,,,,,,,,,,,,,,,,,,,,,,,,,,,,,,,,,,,,,
1702360573,1702360573,87,0,4186.282227,4124.615234,4276.794922,4137.820313,4248.333496,4255.128418,4249.743652,4265.384766,4257.307617,4214.743652,4378.589844,4412.563965,4217.94873,4330.128418,6287,3,58,,,,0,4,4,4,4,4,4,4,4,4,4,4,4,4,4,100,,,,,,,,,,,,,,,,,,,,,,,,,,,,,,,,,,,,,,,,,,,,,,,,,,,,,,,,,,,,,,,,,,,,,,,,,,,,,,,,,,,,,,,,,,,,,,,,,,,,,,,,,,,,,,,,,,,,,,,,,,,,,,,,,,,,,,
1702360573,1702360573,88,0,4182.563965,4121.410156,4271.153809,4139.230957,4245.256348,4259.743652,4254.615234,4265.512695,4256.410156,4208.974121,4379.871582,4408.589844,4211.025879,4322.820313,6821,3,58,,,,0,4,4,4,4,4,4,4,4,4,4,4,4,4,4,100,,,,,,,,,,,,,,,,,22,0,0.687643,-0.227051,-0.661865,-0.193726,0.97424,-0.086925,0.037114,-9.7714,-5.657432,91.336266,,,,,,,,,,,,,,,,,,,,,,,,,,,,,,,,,,,,,,,,,,,,,,,,,,,,,,,,,,,,,,,,,,,,,,,,,,,,,,,,,,,,,,,,,,,,,,,,,,,,,,,,,,
1702360573,1702360573,89,0,4186.666504,4125.897461,4275.384766,4140,4248.717773,4265.641113,4263.333496,4278.077148,4267.179688,4234.871582,4401.025879,4415.769043,4224.615234,4326.794922,7044,3,58,,,,0,4,4,4,4,4,4,4,4,4,4,4,4,4,4,100,,,,,,,,,,,,,,,,,,,,,,,,,,,,,,,,,,,,,,,,,,,,,,,,,,,,,,,,,,,,,,,,,,,,,,,,,,,,,,,,,,,,,,,,,,,,,,,,,,,,,,,,,,,,,,,,,,,,,,,,,,,,,,,,,,,,,,
1702360573,1702360573,90,0,4189.487305,4134.487305,4276.794922,4144.487305,4246.538574,4264.358887,4262.307617,4275.512695,4265.641113,4234.871582,4399.102539,4418.974121,4223.974121,4328.077148,5926,3,58,,,,0,4,4,4,4,4,4,4,4,4,4,4,4,4,4,100,,,,,,,,,,,,,,,,,,,,,,,,,,,,,,,,,,,,,,,,,,,,,,,,,,,,,,,,,,,,,,,,,,,,,,,,,,,,,,,,,,,,,,,,,,,,,,,,,,,,,,,,,,,,,,,,,,,,,,,,,,,,,,,,,,,,,,
1702360573,1702360573,91,0,4192.05127,4132.94873,4276.410156,4151.410156,4232.05127,4267.820313,4264.871582,4270.897461,4265,4225,4395.384766,4422.179688,4227.436035,4326.410156,6287,3,58,,,,0,4,4,4,4,4,4,4,4,4,4,4,4,4,4,100,,,,,,,,,,,,,,,,,,,,,,,,,,,,,,,,,,,,,,,,,,,,,,,,,,,,,,,,,,,,,,,,,,,,,,,,,,,,,,,,,,,,,,,,,,,,,,,,,,,,,,,,,,,,,,,,,,,,,,,,,,,,,,,,,,,,,,
1702360573,1702360573,92,0,4189.230957,4122.307617,4279.358887,4147.436035,4234.487305,4273.333496,4274.743652,4275.897461,4274.230957,4232.307617,4403.717773,4424.615234,4231.410156,4324.358887,6821,3,58,,,,0,4,4,4,4,4,4,4,4,4,4,4,4,4,4,100,,,,,,,,,,,,,,,,,23,0,0.685817,-0.2276,-0.663086,-0.195374,1.010377,-0.043462,0.027347,-9.460927,-5.741689,91.552643,,,,,,,,,,,,,,,,,,,,,,,,,,,,,,,,,,,,,,,,,,,,,,,,,,,,,,,,,,,,,,,,,,,,,,,,,,,,,,,,,,,,,,,,,,,,,,,,,,,,,,,,,,
1702360573,1702360573,93,0,4185.641113,4127.05127,4276.922852,4143.333496,4250.128418,4268.717773,4274.358887,4275.769043,4272.563965,4243.717773,4400.769043,4420.897461,4221.794922,4322.179688,7044,3,58,,,,0,4,4,4,4,4,4,4,4,4,4,4,4,4,4,100,,,,,,,,,,,,,,,,,,,,,,,,,,,,,,,,,,,,,,,,,,,,,,,,,,,,,,,,,,,,,,,,,40.625042,5.001141,2.388739,0.480734,0.350049,182.650711,25.736984,7.684466,1.434942,0.385086,9.824058,1.424696,1.221403,0.275673,0.372283,36.433529,4.401266,2.002387,0.393866,0.281166,4.199585,1.260902,0.645203,0.217782,0.743226,0.922647,0.364747,0.36816,0.352372,0.197535,1.509502,0.362047,0.449094,0.372269,0.273636,2.110039,0.497917,0.591091,0.254657,0.307696,1.72372,0.587083,0.526011,0.316828,0.415113,3.40977,0.936871,0.563527,0.713996,1.331248,22.548895,2.450376,0.786428,0.576906,0.817963,11.120529,1.719093,1.411087,0.480349,0.633267,74.504242,7.318919,2.462162,0.886356,0.627738,43.631958,5.969844,2.257675,0.544841,0.426718
1702360573,1702360573,94,0,4184.871582,4133.077148,4267.179688,4149.743652,4239.615234,4262.307617,4263.846191,4274.358887,4261.666504,4243.846191,4388.077148,4412.179688,4213.846191,4316.794922,5926,3,58,,,,0,4,4,4,4,4,4,4,4,4,4,4,4,4,4,100,,,,,,,,,,,,,,,,,,,,,,,,,,,,,,,,,,,,,,,,,,,,,,,,,,,,,,,,,,,,,,,,,,,,,,,,,,,,,,,,,,,,,,,,,,,,,,,,,,,,,,,,,,,,,,,,,,,,,,,,,,,,,,,,,,,,,,
1702360573,1702360573,95,0,4183.333496,4125.512695,4262.563965,4153.846191,4221.025879,4262.436035,4262.563965,4275.384766,4261.282227,4231.282227,4383.846191,4407.179688,4215.384766,4311.410156,6287,3,58,,,,0,4,4,4,4,4,4,4,4,4,4,4,4,4,4,100,,,,,,,,,,,,,,,,,,,,,,,,,,,,,,,,,,,,,,,,,,,,,,,,,,,,,,,,,,,,,,,,,,,,,,,,,,,,,,,,,,,,,,,,,,,,,,,,,,,,,,,,,,,,,,,,,,,,,,,,,,,,,,,,,,,,,,
1702360573,1702360573,96,0,4183.333496,4128.846191,4262.820313,4151.025879,4225,4261.410156,4261.282227,4268.333496,4264.487305,4221.410156,4382.307617,4403.333496,4218.461426,4309.871582,6821,3,58,,,,0,4,4,4,4,4,4,4,4,4,4,4,4,4,4,100,,,,,,,,,,,,,,,,,24,0,0.683762,-0.228027,-0.664734,-0.196472,0.985472,-0.016604,0.017092,-9.448167,-5.850853,91.630707,,,,,,,,,,,,,,,,,,,,,,,,,,,,,,,,,,,,,,,,,,,,,,,,,,,,,,,,,,,,,,,,,,,,,,,,,,,,,,,,,,,,,,,,,,,,,,,,,,,,,,,,,,
1702360573,1702360573,97,0,4183.717773,4139.743652,4255.384766,4152.692383,4226.153809,4259.487305,4252.563965,4259.102539,4255.512695,4226.282227,4378.077148,4395.641113,4218.333496,4310.128418,7044,3,58,,,,0,4,4,4,4,4,4,4,4,4,4,4,4,4,4,100,,,,,,,,,,,,,,,,,,,,,,,,,,,,,,,,,,,,,,,,,,,,,,,,,,,,,,,,,,,,,,,,,,,,,,,,,,,,,,,,,,,,,,,,,,,,,,,,,,,,,,,,,,,,,,,,,,,,,,,,,,,,,,,,,,,,,,
1702360573,1702360573,98,0,4186.410156,4142.179688,4251.794922,4162.94873,4227.563965,4264.487305,4254.743652,4264.743652,4253.717773,4235.256348,4387.94873,4399.871582,4228.589844,4317.05127,5926,3,58,,,,0,4,4,4,4,4,4,4,4,4,4,4,4,4,4,100,,,,,,,,,,,,,,,,,,,,,,,,,,,,,,,,,,,,,,,,,,,,,,,,,,,,,,,,,,,,,,,,,,,,,,,,,,,,,,,,,,,,,,,,,,,,,,,,,,,,,,,,,,,,,,,,,,,,,,,,,,,,,,,,,,,,,,
1702360573,1702360573,99,0,4193.846191,4145.897461,4259.358887,4173.077148,4236.025879,4266.922852,4263.717773,4273.974121,4265.256348,4237.94873,4405.512695,4414.871582,4246.410156,4327.563965,6287,3,58,,,,0,4,4,4,4,4,4,4,4,4,4,4,4,4,4,100,,,,,,,,,,,,,,,,,,,,,,,,,,,,,,,,,,,,,,,,,,,,,,,,,,,,,,,,,,,,,,,,,,,,,,,,,,,,,,,,,,,,,,,,,,,,,,,,,,,,,,,,,,,,,,,,,,,,,,,,,,,,,,,,,,,,,,
1702360573,1702360573,100,0,4195.128418,4145.384766,4263.077148,4169.871582,4223.717773,4261.538574,4261.153809,4267.307617,4267.692383,4235.384766,4401.666504,4415.128418,4245.641113,4324.615234,6821,3,58,,,,0,4,4,4,4,4,4,4,4,4,4,4,4,4,4,100,,,,,,,,,,,,,,,,,25,0,0.682097,-0.228271,-0.666016,-0.197632,0.969845,-0.047857,0.00293,-9.436684,-5.832435,91.750969,,,,,,,,,,,,,,,,,,,,,,,,,,,,,,,,,,,,,,,,,,,,,,,,,,,,,,,,,,,,,,,,,,,,,,,,,,,,,,,,,,,,,,,,,,,,,,,,,,,,,,,,,,
1702360573,1702360573,101,0,4192.94873,4139.743652,4261.282227,4167.436035,4210.769043,4258.717773,4257.94873,4264.230957,4265.256348,4232.563965,4396.794922,4411.153809,4235.128418,4318.717773,7044,3,58,,,,0,4,4,4,4,4,4,4,4,4,4,4,4,4,4,100,,,,,,,,,,,,,,,,,,,,,,,,,,,,,,,,,,,,,,,,,,,,,,,,,,,,,,,,,,,,,,,,,,,,,,,,,,,,,,,,,,,,,,,,,,,,,,,,,,,,,,,,,,,,,,,,,,,,,,,,,,,,,,,,,,,,,,
1702360573,1702360573,102,0,4194.871582,4143.333496,4258.974121,4176.410156,4217.820313,4258.077148,4255.128418,4270.384766,4266.538574,4223.974121,4401.794922,4417.307617,4237.179688,4318.589844,5926,3,58,,,,0,4,4,4,4,4,4,4,4,4,4,4,4,4,4,100,,,,,,,,,,,,,,,,,,,,,,,,,,,,,,,,,,,,,,,,,,,,,,,,,,,,,,,,,,,,,,,,,,,,,,,,,,,,,,,,,,,,,,,,,,,,,,,,,,,,,,,,,,,,,,,,,,,,,,,,,,,,,,,,,,,,,,
1702360573,1702360573,103,0,4178.974121,4131.666504,4240.769043,4162.05127,4207.563965,4243.205078,4233.974121,4255.128418,4252.94873,4208.077148,4380.256348,4396.922852,4225.128418,4298.846191,6287,3,58,,,,0,4,4,4,4,4,4,4,4,4,4,4,4,4,4,100,,,,,,,,,,,,,,,,,,,,,,,,,,,,,,,,,,,,,,,,,,,,,,,,,,,,,,,,,,,,,,,,,,,,,,,,,,,,,,,,,,,,,,,,,,,,,,,,,,,,,,,,,,,,,,,,,,,,,,,,,,,,,,,,,,,,,,
1702360573,1702360573,104,0,4166.538574,4120.256348,4225.897461,4146.794922,4195.897461,4232.94873,4222.820313,4237.307617,4239.487305,4211.538574,4366.922852,4374.102539,4213.205078,4287.05127,6821,3,58,,,,0,4,4,4,4,4,4,4,4,4,4,4,4,4,4,100,,,,,,,,,,,,,,,,,26,0,0.681789,-0.229004,-0.665771,-0.198669,0.984495,-0.039067,0.007813,-9.509683,-5.932525,91.692543,,,,,,,,,,,,,,,,,,,,,,,,,,,,,,,,,,,,,,,,,,,,,,,,,,,,,,,,,,,,,,,,,,,,,,,,,,,,,,,,,,,,,,,,,,,,,,,,,,,,,,,,,,
1702360573,1702360573,105,0,4181.282227,4137.820313,4237.820313,4166.794922,4219.615234,4244.102539,4236.922852,4247.563965,4247.436035,4219.743652,4391.666504,4390,4233.333496,4306.153809,7044,3,58,,,,0,4,4,4,4,4,4,4,4,4,4,4,4,4,4,100,,,,,,,,,,,,,,,,,,,,,,,,,,,,,,,,,,,,,,,,,,,,,,,,,,,,,,,,,,,,,,,,,,,,,,,,,,,,,,,,,,,,,,,,,,,,,,,,,,,,,,,,,,,,,,,,,,,,,,,,,,,,,,,,,,,,,,
1702360573,1702360573,106,0,4188.333496,4148.077148,4244.487305,4180,4232.436035,4250.256348,4237.692383,4251.025879,4243.461426,4199.615234,4390.384766,4394.358887,4240.897461,4311.025879,5926,3,58,,,,0,4,4,4,4,4,4,4,4,4,4,4,4,4,4,100,,,,,,,,,,,,,,,,,,,,,,,,,,,,,,,,,,,,,,,,,,,,,,,,,,,,,,,,,,,,,,,,,,,,,,,,,,,,,,,,,,,,,,,,,,,,,,,,,,,,,,,,,,,,,,,,,,,,,,,,,,,,,,,,,,,,,,
1702360573,1702360573,107,0,4190.769043,4147.94873,4244.615234,4179.102539,4229.358887,4245.128418,4232.692383,4240.384766,4233.974121,4203.974121,4373.846191,4386.538574,4240.512695,4312.436035,6287,3,58,,,,0,4,4,4,4,4,4,4,4,4,4,4,4,4,4,100,,,,,,,,,,,,,,,,,,,,,,,,,,,,,,,,,,,,,,,,,,,,,,,,,,,,,,,,,,,,,,,,,,,,,,,,,,,,,,,,,,,,,,,,,,,,,,,,,,,,,,,,,,,,,,,,,,,,,,,,,,,,,,,,,,,,,,
1702360573,1702360573,108,0,4213.333496,4170.641113,4262.436035,4196.025879,4242.692383,4249.358887,4246.025879,4255.256348,4256.025879,4237.179688,4401.025879,4413.461426,4275,4343.717773,6821,3,58,,,,0,4,4,4,4,4,4,4,4,4,4,4,4,4,4,100,,,,,,,,,,,,,,,,,27,0,0.682132,-0.230286,-0.664795,-0.19928,0.97424,-0.043462,-0.004395,-9.442047,-6.072606,91.639954,,,,,,,,,,,,,,,,,,,,,,,,,,,,,,,,,,,,,,,,,,,,,,,,,,,,,,,,,,,,,,,,,,,,,,,,,,,,,,,,,,,,,,,,,,,,,,,,,,,,,,,,,,
1702360573,1702360573,109,0,4223.205078,4186.666504,4270.384766,4208.717773,4251.538574,4254.102539,4253.333496,4267.94873,4267.820313,4228.077148,4421.666504,4431.538574,4293.589844,4358.974121,7044,3,58,,,,0,4,4,4,4,4,4,4,4,4,4,4,4,4,4,100,1,25,1,1,1,1,4,4,4,4,4,3,1,3,1,1,,,,,,,,,,,,,,,,,,,,,,,,,,,,,,,,,,,,,,,,,,,,,,,,,31.259399,3.858555,2.324814,0.491151,0.352401,125.62397,17.504517,6.445209,1.359942,0.363804,7.641999,1.190149,1.341163,0.271806,0.377606,25.044487,2.913624,1.841364,0.416969,0.294218,4.423264,1.031349,0.850146,0.256028,0.732966,0.804406,0.332633,0.366829,0.335858,0.209068,1.437702,0.380544,0.566701,0.350831,0.300968,2.392365,0.551355,0.696374,0.217813,0.303558,2.133646,0.722957,0.69029,0.283535,0.460369,4.063376,1.006283,0.571458,0.67001,1.470021,22.964048,2.385223,0.891041,0.60357,0.872845,9.939492,1.680125,1.634171,0.486911,0.659494,68.405998,6.173856,2.6365,0.8629,0.668637,35.604774,4.969892,2.267128,0.556351,0.442428
1702360573,1702360573,110,0,4218.717773,4180.769043,4263.717773,4206.666504,4254.102539,4248.077148,4246.666504,4254.230957,4245.512695,4212.05127,4412.179688,4417.820313,4280,4349.487305,5926,3,58,,,,0,4,4,4,4,4,4,4,4,4,4,4,4,4,4,100,,,,,,,,,,,,,,,,,,,,,,,,,,,,,,,,,,,,,,,,,,,,,,,,,,,,,,,,,,,,,,,,,,,,,,,,,,,,,,,,,,,,,,,,,,,,,,,,,,,,,,,,,,,,,,,,,,,,,,,,,,,,,,,,,,,,,,
1702360573,1702360573,111,0,4237.179688,4196.025879,4273.717773,4216.410156,4264.358887,4251.410156,4249.487305,4253.205078,4240.512695,4233.589844,4423.077148,4424.102539,4296.153809,4366.538574,6287,3,58,,,,0,4,4,4,4,4,4,4,4,4,4,4,4,4,4,100,,,,,,,,,,,,,,,,,,,,,,,,,,,,,,,,,,,,,,,,,,,,,,,,,,,,,,,,,,,,,,,,,,,,,,,,,,,,,,,,,,,,,,,,,,,,,,,,,,,,,,,,,,,,,,,,,,,,,,,,,,,,,,,,,,,,,,
1702360573,1702360573,112,0,4251.794922,4216.666504,4280.641113,4219.358887,4266.922852,4255.128418,4251.922852,4265.769043,4254.230957,4237.563965,4436.025879,4435.897461,4318.589844,4383.717773,6821,3,58,,,,0,4,4,4,4,4,4,4,4,4,4,4,4,4,4,100,,,,,,,,,,,,,,,,,28,0,0.682809,-0.232544,-0.663147,-0.199829,0.970822,-0.059578,0,-9.431176,-6.315345,91.759293,,,,,,,,,,,,,,,,,,,,,,,,,,,,,,,,,,,,,,,,,,,,,,,,,,,,,,,,,,,,,,,,,,,,,,,,,,,,,,,,,,,,,,,,,,,,,,,,,,,,,,,,,,
1702360573,1702360573,113,0,4245.512695,4215,4277.05127,4213.461426,4264.358887,4252.94873,4247.179688,4262.692383,4249.230957,4222.307617,4429.487305,4429.615234,4316.538574,4375,7044,3,58,,,,0,4,4,4,4,4,4,4,4,4,4,4,4,4,4,100,,,,,,,,,,,,,,,,,,,,,,,,,,,,,,,,,,,,,,,,,,,,,,,,,,,,,,,,,,,,,,,,,,,,,,,,,,,,,,,,,,,,,,,,,,,,,,,,,,,,,,,,,,,,,,,,,,,,,,,,,,,,,,,,,,,,,,
1702360573,1702360573,114,0,4259.743652,4223.846191,4295.128418,4234.230957,4272.436035,4263.974121,4258.077148,4259.871582,4247.692383,4237.94873,4438.461426,4444.615234,4329.615234,4386.794922,5926,3,58,,,,0,4,4,4,4,4,4,4,4,4,4,4,4,4,4,100,,,,,,,,,,,,,,,,,,,,,,,,,,,,,,,,,,,,,,,,,,,,,,,,,,,,,,,,,,,,,,,,,,,,,,,,,,,,,,,,,,,,,,,,,,,,,,,,,,,,,,,,,,,,,,,,,,,,,,,,,,,,,,,,,,,,,,
1702360573,1702360573,115,0,4282.179688,4243.717773,4313.974121,4258.974121,4281.666504,4274.615234,4267.179688,4272.307617,4265.256348,4253.205078,4456.282227,4469.871582,4348.717773,4413.461426,6287,3,58,,,,0,4,4,4,4,4,4,4,4,4,4,4,4,4,4,100,,,,,,,,,,,,,,,,,,,,,,,,,,,,,,,,,,,,,,,,,,,,,,,,,,,,,,,,,,,,,,,,,,,,,,,,,,,,,,,,,,,,,,,,,,,,,,,,,,,,,,,,,,,,,,,,,,,,,,,,,,,,,,,,,,,,,,
1702360573,1702360573,116,0,4269.487305,4236.153809,4297.94873,4247.820313,4278.589844,4261.025879,4248.717773,4264.102539,4259.102539,4234.102539,4448.589844,4450.769043,4343.717773,4402.307617,6821,3,58,,,,0,4,4,4,4,4,4,4,4,4,4,4,4,4,4,100,,,,,,,,,,,,,,,,,29,0,0.683191,-0.233948,-0.661926,-0.200928,0.998657,-0.046392,0.009767,-9.238058,-6.33381,91.866699,,,,,,,,,,,,,,,,,,,,,,,,,,,,,,,,,,,,,,,,,,,,,,,,,,,,,,,,,,,,,,,,,,,,,,,,,,,,,,,,,,,,,,,,,,,,,,,,,,,,,,,,,,
1702360573,1702360573,117,0,4250.897461,4220.897461,4282.05127,4234.487305,4267.820313,4245.384766,4233.205078,4244.743652,4238.077148,4221.025879,4437.179688,4424.743652,4342.436035,4381.922852,7044,3,58,,,,0,4,4,4,4,4,4,4,4,4,4,4,4,4,4,100,,,,,,,,,,,,,,,,,,,,,,,,,,,,,,,,,,,,,,,,,,,,,,,,,,,,,,,,,,,,,,,,,,,,,,,,,,,,,,,,,,,,,,,,,,,,,,,,,,,,,,,,,,,,,,,,,,,,,,,,,,,,,,,,,,,,,,
1702360573,1702360573,118,0,4268.205078,4236.025879,4297.692383,4258.077148,4265.128418,4252.307617,4245.256348,4253.461426,4250.512695,4237.179688,4448.846191,4441.794922,4366.025879,4397.820313,5926,3,58,,,,0,4,4,4,4,4,4,4,4,4,4,4,4,4,4,100,,,,,,,,,,,,,,,,,,,,,,,,,,,,,,,,,,,,,,,,,,,,,,,,,,,,,,,,,,,,,,,,,,,,,,,,,,,,,,,,,,,,,,,,,,,,,,,,,,,,,,,,,,,,,,,,,,,,,,,,,,,,,,,,,,,,,,
1702360573,1702360573,119,0,4269.743652,4235.128418,4297.05127,4267.05127,4264.615234,4254.230957,4250.769043,4255.897461,4254.615234,4242.94873,4443.589844,4443.717773,4367.05127,4398.077148,6287,3,58,,,,0,4,4,4,4,4,4,4,4,4,4,4,4,4,4,100,,,,,,,,,,,,,,,,,,,,,,,,,,,,,,,,,,,,,,,,,,,,,,,,,,,,,,,,,,,,,,,,,,,,,,,,,,,,,,,,,,,,,,,,,,,,,,,,,,,,,,,,,,,,,,,,,,,,,,,,,,,,,,,,,,,,,,
1702360573,1702360573,120,0,4246.410156,4212.692383,4276.025879,4246.410156,4259.871582,4242.179688,4238.974121,4241.538574,4233.077148,4229.487305,4425.769043,4417.820313,4346.025879,4374.358887,6821,3,58,,,,0,4,4,4,4,4,4,4,4,4,4,4,4,4,4,100,,,,,,,,,,,,,,,,,30,0,0.683113,-0.234131,-0.661682,-0.201782,1.007447,-0.046392,0.009278,-9.147586,-6.467096,92.080025,,,,,,,,,,,,,,,,,,,,,,,,,,,,,,,,,,,,,,,,,,,,,,,,,,,,,,,,,,,,,,,,,,,,,,,,,,,,,,,,,,,,,,,,,,,,,,,,,,,,,,,,,,
1702360573,1702360573,121,0,4256.794922,4230.384766,4284.230957,4257.436035,4261.666504,4249.358887,4246.794922,4253.461426,4245,4234.743652,4441.794922,4429.358887,4360.641113,4386.153809,7044,3,58,,,,0,4,4,4,4,4,4,4,4,4,4,4,4,4,4,100,,,,,,,,,,,,,,,,,,,,,,,,,,,,,,,,,,,,,,,,,,,,,,,,,,,,,,,,,,,,,,,,,,,,,,,,,,,,,,,,,,,,,,,,,,,,,,,,,,,,,,,,,,,,,,,,,,,,,,,,,,,,,,,,,,,,,,
1702360573,1702360573,122,0,4279.230957,4257.820313,4302.692383,4286.666504,4265.641113,4269.358887,4263.974121,4270,4270.128418,4247.692383,4460.897461,4452.820313,4390.384766,4407.05127,5926,3,58,,,,0,4,4,4,4,4,4,4,4,4,4,4,4,4,4,100,,,,,,,,,,,,,,,,,,,,,,,,,,,,,,,,,,,,,,,,,,,,,,,,,,,,,,,,,,,,,,,,,,,,,,,,,,,,,,,,,,,,,,,,,,,,,,,,,,,,,,,,,,,,,,,,,,,,,,,,,,,,,,,,,,,,,,
1702360573,1702360573,123,0,4266.794922,4243.077148,4292.692383,4283.589844,4267.563965,4263.461426,4257.436035,4255.384766,4255,4238.589844,4440.384766,4435.897461,4384.487305,4390.512695,6287,3,58,,,,0,4,4,4,4,4,4,4,4,4,4,4,4,4,4,100,,,,,,,,,,,,,,,,,,,,,,,,,,,,,,,,,,,,,,,,,,,,,,,,,,,,,,,,,,,,,,,,,,,,,,,,,,,,,,,,,,,,,,,,,,,,,,,,,,,,,,,,,,,,,,,,,,,,,,,,,,,,,,,,,,,,,,
1702360573,1702360573,124,0,4256.794922,4229.743652,4284.871582,4273.589844,4270.641113,4246.922852,4245.897461,4250.128418,4238.974121,4227.94873,4424.102539,4423.077148,4378.974121,4380.128418,6821,3,58,,,,0,4,4,4,4,4,4,4,4,4,4,4,4,4,4,100,,,,,,,,,,,,,,,,,31,0,0.68208,-0.233765,-0.662354,-0.203491,1.000122,-0.049811,0.026859,-9.266161,-6.620387,92.088692,,,,,,,,,,,,,,,,,,,,,,,,,,,,,,,,,,,,,,,,,,,,,,,,,,,,,,,,,,,,,,,,,,,,,,,,,,,,,,,,,,,,,,,,,,,,,,,,,,,,,,,,,,
1702360573,1702360573,125,0,4275.256348,4249.102539,4298.461426,4283.205078,4270,4250.897461,4251.025879,4261.153809,4247.820313,4233.846191,4438.846191,4440,4404.871582,4400.128418,7044,3,58,,,,0,4,4,4,4,4,4,4,4,4,4,4,4,4,4,100,,,,,,,,,,,,,,,,,,,,,,,,,,,,,,,,,,,,,,,,,,,,,,,,,,,,,,,,,,,,,,,,,29.856995,3.599051,2.499086,0.574273,0.368033,105.596077,13.356877,5.881313,1.416603,0.360022,7.130258,1.145249,1.532849,0.318413,0.393163,20.00647,2.20422,1.845161,0.487066,0.316079,4.975183,0.958102,1.040239,0.33564,0.719229,0.806281,0.335035,0.370558,0.320463,0.228059,1.368194,0.454341,0.675938,0.334478,0.330471,2.688815,0.601245,0.817999,0.200604,0.305503,2.609134,0.809043,0.925895,0.274463,0.501765,4.936718,1.0858,0.633284,0.666722,1.619335,26.429163,2.617762,1.212541,0.72168,0.917068,10.260485,1.808797,1.954495,0.528312,0.697849,73.760056,6.186924,3.182457,0.927998,0.772851,35.382801,4.939379,2.564256,0.655011,0.479236
1702360573,1702360573,126,0,4282.94873,4257.820313,4300.897461,4286.666504,4265.897461,4258.333496,4256.794922,4258.974121,4252.436035,4234.743652,4444.871582,4446.410156,4411.153809,4405.769043,5926,3,58,,,,0,4,4,4,4,4,4,4,4,4,4,4,4,4,4,100,,,,,,,,,,,,,,,,,,,,,,,,,,,,,,,,,,,,,,,,,,,,,,,,,,,,,,,,,,,,,,,,,,,,,,,,,,,,,,,,,,,,,,,,,,,,,,,,,,,,,,,,,,,,,,,,,,,,,,,,,,,,,,,,,,,,,,
1702360573,1702360573,127,0,4265.769043,4238.461426,4283.589844,4274.743652,4253.333496,4247.179688,4245.384766,4252.307617,4243.717773,4223.205078,4426.538574,4430.256348,4389.230957,4380.641113,58,3,58,,,,0,4,4,4,4,4,4,4,4,4,4,4,4,4,4,100,,,,,,,,,,,,,,,,,,,,,,,,,,,,,,,,,,,,,,,,,,,,,,,,,,,,,,,,,,,,,,,,,,,,,,,,,,,,,,,,,,,,,,,,,,,,,,,,,,,,,,,,,,,,,,,,,,,,,,,,,,,,,,,,,,,,,,
1702360573,1702360573,0,0,4242.94873,4218.333496,4265.897461,4254.871582,4220.256348,4229.615234,4226.538574,4239.871582,4226.153809,4201.666504,4402.563965,4406.153809,4378.461426,4355.769043,5422,3,58,,,,0,4,4,4,4,4,4,4,4,4,4,4,4,4,4,100,,,,,,,,,,,,,,,,,0,0,0.680952,-0.234985,-0.663269,-0.202881,0.963497,-0.065926,0.002442,-9.289544,-6.708348,92.013153,,,,,,,,,,,,,,,,,,,,,,,,,,,,,,,,,,,,,,,,,,,,,,,,,,,,,,,,,,,,,,,,,,,,,,,,,,,,,,,,,,,,,,,,,,,,,,,,,,,,,,,,,,
1702360573,1702360573,1,0,4231.025879,4213.589844,4256.410156,4240.256348,4194.358887,4225.897461,4221.794922,4228.589844,4212.436035,4186.282227,4394.230957,4392.820313,4377.307617,4349.743652,5495,3,58,,,,0,4,4,4,4,4,4,4,4,4,4,4,4,4,4,100,,,,,,,,,,,,,,,,,,,,,,,,,,,,,,,,,,,,,,,,,,,,,,,,,,,,,,,,,,,,,,,,,,,,,,,,,,,,,,,,,,,,,,,,,,,,,,,,,,,,,,,,,,,,,,,,,,,,,,,,,,,,,,,,,,,,,,
1702360573,1702360573,2,0,4234.743652,4216.794922,4253.205078,4244.487305,4202.179688,4232.05127,4227.179688,4229.102539,4211.153809,4186.282227,4394.230957,4393.974121,4384.230957,4348.846191,5365,3,58,,,,0,4,4,4,4,4,4,4,4,4,4,4,4,4,4,100,,,,,,,,,,,,,,,,,,,,,,,,,,,,,,,,,,,,,,,,,,,,,,,,,,,,,,,,,,,,,,,,,,,,,,,,,,,,,,,,,,,,,,,,,,,,,,,,,,,,,,,,,,,,,,,,,,,,,,,,,,,,,,,,,,,,,,
1702360573,1702360573,3,0,4232.05127,4209.615234,4249.743652,4250.897461,4209.743652,4226.153809,4222.436035,4223.846191,4204.871582,4180.128418,4381.538574,4389.615234,4404.871582,4340.512695,5370,3,58,,,,0,4,4,4,4,4,4,4,4,4,4,4,4,4,4,100,,,,,,,,,,,,,,,,,,,,,,,,,,,,,,,,,,,,,,,,,,,,,,,,,,,,,,,,,,,,,,,,,,,,,,,,,,,,,,,,,,,,,,,,,,,,,,,,,,,,,,,,,,,,,,,,,,,,,,,,,,,,,,,,,,,,,,
1702360573,1702360573,4,0,4217.307617,4197.94873,4245.256348,4246.794922,4196.410156,4215.256348,4210.769043,4211.666504,4195.641113,4165.128418,4372.563965,4377.820313,4421.153809,4331.410156,5327,3,58,,,,0,4,4,4,4,4,4,4,4,4,4,4,4,4,4,100,,,,,,,,,,,,,,,,,1,0,0.680361,-0.236267,-0.663513,-0.202576,0.958613,-0.063484,0.025394,-9.427257,-6.587513,91.911842,,,,,,,,,,,,,,,,,,,,,,,,,,,,,,,,,,,,,,,,,,,,,,,,,,,,,,,,,,,,,,,,,,,,,,,,,,,,,,,,,,,,,,,,,,,,,,,,,,,,,,,,,,
1702360573,1702360573,5,0,4219.743652,4202.820313,4249.487305,4250.384766,4184.230957,4222.179688,4216.025879,4222.05127,4203.717773,4163.205078,4390.384766,4383.333496,4429.743652,4334.615234,5200,3,58,,,,0,4,4,4,4,4,4,4,4,4,4,4,4,4,4,100,,,,,,,,,,,,,,,,,,,,,,,,,,,,,,,,,,,,,,,,,,,,,,,,,,,,,,,,,,,,,,,,,,,,,,,,,,,,,,,,,,,,,,,,,,,,,,,,,,,,,,,,,,,,,,,,,,,,,,,,,,,,,,,,,,,,,,
1702360573,1702360573,6,0,4243.717773,4221.025879,4265.897461,4275.384766,4185,4236.794922,4233.461426,4241.922852,4221.025879,4172.692383,4414.230957,4403.717773,4448.589844,4353.974121,5101,3,58,,,,0,4,4,4,4,4,4,4,4,4,4,4,4,4,4,100,,,,,,,,,,,,,,,,,,,,,,,,,,,,,,,,,,,,,,,,,,,,,,,,,,,,,,,,,,,,,,,,,,,,,,,,,,,,,,,,,,,,,,,,,,,,,,,,,,,,,,,,,,,,,,,,,,,,,,,,,,,,,,,,,,,,,,
1702360573,1702360573,7,0,4248.974121,4228.205078,4269.102539,4286.025879,4190.897461,4235.512695,4235.769043,4241.025879,4222.692383,4172.94873,4407.307617,4405.897461,4449.615234,4360.897461,5133,3,58,,,,0,4,4,4,4,4,4,4,4,4,4,4,4,4,4,100,,,,,,,,,,,,,,,,,,,,,,,,,,,,,,,,,,,,,,,,,,,,,,,,,,,,,,,,,,,,,,,,,,,,,,,,,,,,,,,,,,,,,,,,,,,,,,,,,,,,,,,,,,,,,,,,,,,,,,,,,,,,,,,,,,,,,,
1702360573,1702360573,8,0,4229.615234,4212.692383,4251.538574,4263.205078,4182.05127,4220.769043,4217.05127,4228.333496,4211.666504,4162.05127,4386.282227,4391.153809,4423.974121,4343.974121,5278,3,58,,,,0,4,4,4,4,4,4,4,4,4,4,4,4,4,4,100,,,,,,,,,,,,,,,,,2,0,0.680474,-0.236877,-0.663086,-0.202881,0.953241,-0.02344,0.005372,-9.217864,-6.512095,92.020653,,,,,,,,,,,,,,,,,,,,,,,,,,,,,,,,,,,,,,,,,,,,,,,,,,,,,,,,,,,,,,,,,,,,,,,,,,,,,,,,,,,,,,,,,,,,,,,,,,,,,,,,,,
1702360573,1702360573,9,0,4227.94873,4207.179688,4251.282227,4260.897461,4167.179688,4213.717773,4206.794922,4229.615234,4213.846191,4171.282227,4395.384766,4395.256348,4426.922852,4344.615234,5365,3,58,,,,0,4,4,4,4,4,4,4,4,4,4,4,4,4,4,100,,,,,,,,,,,,,,,,,,,,,,,,,,,,,,,,,,,,,,,,,,,,,,,,,,,,,,,,,,,,,,,,,,,,,,,,,,,,,,,,,,,,,,,,,,,,,,,,,,,,,,,,,,,,,,,,,,,,,,,,,,,,,,,,,,,,,,
1702360573,1702360573,10,0,4242.05127,4220.641113,4267.820313,4279.102539,4169.743652,4219.102539,4215.384766,4233.974121,4222.05127,4190.128418,4412.692383,4406.794922,4446.282227,4359.102539,5865,3,58,,,,0,4,4,4,4,4,4,4,4,4,4,4,4,4,4,100,,,,,,,,,,,,,,,,,,,,,,,,,,,,,,,,,,,,,,,,,,,,,,,,,,,,,,,,,,,,,,,,,,,,,,,,,,,,,,,,,,,,,,,,,,,,,,,,,,,,,,,,,,,,,,,,,,,,,,,,,,,,,,,,,,,,,,
1702360573,1702360573,11,0,4239.230957,4220.256348,4264.871582,4271.153809,4172.436035,4220.769043,4218.077148,4220,4207.436035,4170.512695,4397.05127,4393.077148,4432.307617,4346.538574,6249,3,58,,,,0,4,4,4,4,4,4,4,4,4,4,4,4,4,4,100,,,,,,,,,,,,,,,,,,,,,,,,,,,,,,,,,,,,,,,,,,,,,,,,,,,,,,,,,,,,,,,,,,,,,,,,,,,,,,,,,,,,,,,,,,,,,,,,,,,,,,,,,,,,,,,,,,,,,,,,,,,,,,,,,,,,,,
1702360573,1702360573,12,0,4227.692383,4211.153809,4254.487305,4263.077148,4167.307617,4215.897461,4212.436035,4210.769043,4193.077148,4133.974121,4373.077148,4380.512695,4408.205078,4333.333496,6773,3,58,,,,0,4,4,4,4,4,4,4,4,4,4,4,4,4,4,100,,,,,,,,,,,,,,,,,3,0,0.681181,-0.236633,-0.662109,-0.203979,0.948846,-0.031742,0.005372,-9.079412,-6.577552,91.95192,,,,,,,,,,,,,,,,,,,,,,,,,,,,,,,,,,,,,,,,,,,,,,,,,,,,,,,,,,,,,,,,,,,,,,,,,,,,,,,,,,,,,,,,,,,,,,,,,,,,,,,,,,
1702360573,1702360573,13,0,4227.820313,4211.282227,4256.410156,4276.794922,4173.333496,4213.333496,4211.794922,4217.692383,4204.230957,4136.410156,4375.256348,4388.717773,4398.717773,4341.025879,7002,3,58,,,,0,4,4,4,4,4,4,4,4,4,4,4,4,4,4,100,,,,,,,,,,,,,,,,,,,,,,,,,,,,,,,,,,,,,,,,,,,,,,,,,,,,,,,,,,,,,,,,,33.137615,3.957778,2.80869,0.689202,0.396226,111.09166,12.478703,5.835119,1.540423,0.37459,7.758969,1.236574,1.744267,0.39297,0.4189,19.338236,2.112479,1.947576,0.577776,0.342902,5.873584,1.042004,1.152954,0.447732,0.696926,0.926579,0.378995,0.383291,0.317495,0.255641,1.312588,0.571525,0.766492,0.325741,0.358693,2.828877,0.640823,0.94911,0.203017,0.31487,2.918311,0.814393,1.213409,0.289148,0.529931,5.649407,1.163208,0.771006,0.700752,1.729054,30.584084,3.000684,1.730137,0.912005,0.944748,11.31222,2.023399,2.323733,0.591758,0.738917,83.615822,6.935971,3.934852,1.049845,0.923571,39.626137,5.545626,3.028584,0.808086,0.531094
1702360573,1702360573,14,0,4243.205078,4220.769043,4267.436035,4283.589844,4183.846191,4225,4221.025879,4222.94873,4220.512695,4158.974121,4398.333496,4403.846191,4405.128418,4354.230957,5865,3,58,,,,0,4,4,4,4,4,4,4,4,4,4,4,4,4,4,100,,,,,,,,,,,,,,,,,,,,,,,,,,,,,,,,,,,,,,,,,,,,,,,,,,,,,,,,,,,,,,,,,,,,,,,,,,,,,,,,,,,,,,,,,,,,,,,,,,,,,,,,,,,,,,,,,,,,,,,,,,,,,,,,,,,,,,
1702360573,1702360573,15,0,4248.333496,4225.897461,4269.102539,4279.615234,4175.256348,4231.922852,4220.128418,4218.333496,4213.846191,4151.922852,4400.128418,4401.666504,4410.128418,4356.538574,6249,3,58,,,,0,4,4,4,4,4,4,4,4,4,4,4,4,4,4,100,,,,,,,,,,,,,,,,,,,,,,,,,,,,,,,,,,,,,,,,,,,,,,,,,,,,,,,,,,,,,,,,,,,,,,,,,,,,,,,,,,,,,,,,,,,,,,,,,,,,,,,,,,,,,,,,,,,,,,,,,,,,,,,,,,,,,,
1702360573,1702360573,16,0,4232.820313,4221.153809,4256.153809,4275.641113,4162.179688,4216.666504,4203.461426,4210.897461,4194.615234,4131.153809,4373.333496,4382.05127,4392.692383,4342.692383,0,3,58,,,,0,4,4,4,4,4,4,4,4,4,4,4,4,4,4,100,,,,,,,,,,,,,,,,,4,0,0.682043,-0.236084,-0.660889,-0.205688,1.005494,-0.055671,0.00293,-9.038136,-6.75313,91.923401,,,,,,,,,,,,,,,,,,,,,,,,,,,,,,,,,,,,,,,,,,,,,,,,,,,,,,,,,,,,,,,,,,,,,,,,,,,,,,,,,,,,,,,,,,,,,,,,,,,,,,,,,,
1702360573,1702360573,17,0,4231.794922,4222.307617,4255.769043,4278.205078,4172.179688,4211.538574,4202.820313,4217.05127,4196.153809,4147.179688,4377.307617,4384.230957,4388.205078,4340.384766,0,3,58,,,,0,4,4,4,4,4,4,4,4,4,4,4,4,4,4,100,,,,,,,,,,,,,,,,,,,,,,,,,,,,,,,,,,,,,,,,,,,,,,,,,,,,,,,,,,,,,,,,,,,,,,,,,,,,,,,,,,,,,,,,,,,,,,,,,,,,,,,,,,,,,,,,,,,,,,,,,,,,,,,,,,,,,,
1702360573,1702360573,18,0,4251.794922,4235,4277.307617,4293.333496,4181.666504,4228.205078,4220.128418,4231.794922,4218.846191,4177.436035,4412.563965,4407.692383,4415.384766,4360.512695,0,3,58,,,,0,4,4,4,4,4,4,4,4,4,4,4,4,4,4,100,,,,,,,,,,,,,,,,,,,,,,,,,,,,,,,,,,,,,,,,,,,,,,,,,,,,,,,,,,,,,,,,,,,,,,,,,,,,,,,,,,,,,,,,,,,,,,,,,,,,,,,,,,,,,,,,,,,,,,,,,,,,,,,,,,,,,,
1702360573,1702360573,19,0,4256.794922,4239.487305,4283.205078,4300.897461,4173.717773,4230,4221.538574,4233.333496,4225,4168.717773,4413.717773,4411.153809,4416.794922,4363.589844,0,3,58,,,,0,4,4,4,4,4,4,4,4,4,4,4,4,4,4,100,,,,,,,,,,,,,,,,,,,,,,,,,,,,,,,,,,,,,,,,,,,,,,,,,,,,,,,,,,,,,,,,,,,,,,,,,,,,,,,,,,,,,,,,,,,,,,,,,,,,,,,,,,,,,,,,,,,,,,,,,,,,,,,,,,,,,,
1702360573,1702360573,20,0,4243.974121,4230.897461,4265.897461,4289.358887,4166.794922,4218.077148,4210.512695,4218.461426,4208.077148,4142.436035,4387.436035,4392.179688,4390.769043,4345.641113,0,3,58,,,,0,4,4,4,4,4,4,4,4,4,4,4,4,4,4,100,,,,,,,,,,,,,,,,,5,0,0.682358,-0.236328,-0.660095,-0.206909,1.047003,-0.061531,0.010743,-9.15099,-6.844484,91.964394,,,,,,,,,,,,,,,,,,,,,,,,,,,,,,,,,,,,,,,,,,,,,,,,,,,,,,,,,,,,,,,,,,,,,,,,,,,,,,,,,,,,,,,,,,,,,,,,,,,,,,,,,,
1702360573,1702360573,21,0,4242.563965,4230.128418,4263.333496,4288.333496,4170,4223.205078,4212.307617,4212.05127,4202.436035,4154.487305,4387.05127,4388.846191,4397.820313,4346.922852,0,3,58,,,,0,4,4,4,4,4,4,4,4,4,4,4,4,4,4,100,,,,,,,,,,,,,,,,,,,,,,,,,,,,,,,,,,,,,,,,,,,,,,,,,,,,,,,,,,,,,,,,,,,,,,,,,,,,,,,,,,,,,,,,,,,,,,,,,,,,,,,,,,,,,,,,,,,,,,,,,,,,,,,,,,,,,,
1702360573,1702360573,22,0,4252.820313,4235.769043,4279.487305,4297.05127,4179.230957,4231.922852,4219.358887,4223.846191,4216.794922,4185.384766,4409.230957,4407.563965,4424.102539,4360.512695,0,3,58,,,,0,4,4,4,4,4,4,4,4,4,4,4,4,4,4,100,,,,,,,,,,,,,,,,,,,,,,,,,,,,,,,,,,,,,,,,,,,,,,,,,,,,,,,,,,,,,,,,,,,,,,,,,,,,,,,,,,,,,,,,,,,,,,,,,,,,,,,,,,,,,,,,,,,,,,,,,,,,,,,,,,,,,,
1702360573,1702360573,23,0,4251.666504,4236.153809,4282.05127,4295.769043,4185,4230,4220.897461,4233.974121,4222.05127,4178.589844,4418.717773,4415.641113,4416.666504,4357.05127,0,3,58,,,,0,4,4,4,4,4,4,4,4,4,4,4,4,4,4,100,,,,,,,,,,,,,,,,,,,,,,,,,,,,,,,,,,,,,,,,,,,,,,,,,,,,,,,,,,,,,,,,,,,,,,,,,,,,,,,,,,,,,,,,,,,,,,,,,,,,,,,,,,,,,,,,,,,,,,,,,,,,,,,,,,,,,,
1702360573,1702360573,24,0,4235,4230.769043,4265,4290.384766,4186.922852,4228.846191,4218.846191,4227.05127,4207.05127,4143.333496,4395.256348,4396.410156,4379.743652,4340.512695,0,3,58,,,,0,4,4,4,4,4,4,4,4,4,4,4,4,4,4,100,,,,,,,,,,,,,,,,,6,0,0.682155,-0.236816,-0.660034,-0.207214,1.016726,-0.043462,0.002442,-8.98589,-6.926702,92.001282,,,,,,,,,,,,,,,,,,,,,,,,,,,,,,,,,,,,,,,,,,,,,,,,,,,,,,,,,,,,,,,,,,,,,,,,,,,,,,,,,,,,,,,,,,,,,,,,,,,,,,,,,,
1702360573,1702360573,25,0,4231.794922,4228.589844,4258.846191,4292.307617,4192.179688,4230.641113,4217.692383,4215.897461,4194.230957,4140,4377.436035,4383.846191,4364.615234,4335,0,3,58,,,,0,4,4,4,4,4,4,4,4,4,4,4,4,4,4,100,,,,,,,,,,,,,,,,,,,,,,,,,,,,,,,,,,,,,,,,,,,,,,,,,,,,,,,,,,,,,,,,,,,,,,,,,,,,,,,,,,,,,,,,,,,,,,,,,,,,,,,,,,,,,,,,,,,,,,,,,,,,,,,,,,,,,,
1702360573,1702360573,26,0,4250.897461,4245.256348,4276.410156,4308.077148,4191.282227,4232.436035,4221.666504,4219.487305,4201.025879,4170,4402.692383,4403.077148,4386.025879,4352.307617,0,3,58,,,,0,4,4,4,4,4,4,4,4,4,4,4,4,4,4,100,,,,,,,,,,,,,,,,,,,,,,,,,,,,,,,,,,,,,,,,,,,,,,,,,,,,,,,,,,,,,,,,,,,,,,,,,,,,,,,,,,,,,,,,,,,,,,,,,,,,,,,,,,,,,,,,,,,,,,,,,,,,,,,,,,,,,,
1702360573,1702360573,27,0,4251.666504,4249.487305,4274.871582,4310.897461,4173.077148,4229.743652,4217.94873,4216.794922,4200.384766,4160.512695,4400.897461,4401.282227,4376.025879,4353.717773,0,3,58,,,,0,4,4,4,4,4,4,4,4,4,4,4,4,4,4,100,,,,,,,,,,,,,,,,,,,,,,,,,,,,,,,,,,,,,,,,,,,,,,,,,,,,,,,,,,,,,,,,,,,,,,,,,,,,,,,,,,,,,,,,,,,,,,,,,,,,,,,,,,,,,,,,,,,,,,,,,,,,,,,,,,,,,,
1702360573,1702360573,28,0,4241.922852,4237.179688,4262.692383,4298.461426,4169.487305,4227.94873,4212.563965,4207.179688,4187.436035,4136.922852,4368.974121,4384.358887,4349.743652,4341.666504,0,3,58,,,,0,4,4,4,4,4,4,4,4,4,4,4,4,4,4,100,,,,,,,,,,,,,,,,,7,0,0.680965,-0.238098,-0.660706,-0.20752,0.996215,-0.043462,-0.010255,-8.920635,-6.884032,92.117821,,,,,,,,,,,,,,,,,,,,,,,,,,,,,,,,,,,,,,,,,,,,,,,,,,,,,,,,,,,,,,,,,,,,,,,,,,,,,,,,,,,,,,,,,,,,,,,,,,,,,,,,,,
1702360573,1702360573,29,0,4248.974121,4236.666504,4270.512695,4297.820313,4181.282227,4229.743652,4217.820313,4213.333496,4192.179688,4146.922852,4375.512695,4395.897461,4361.282227,4350.384766,0,3,58,,,,0,4,4,4,4,4,4,4,4,4,4,4,4,4,4,100,,,,,,,,,,,,,,,,,,,,,,,,,,,,,,,,,,,,,,,,,,,,,,,,,,,,,,,,,,,,,,,,,35.870922,4.387257,3.053897,0.77706,0.436824,119.773499,12.684707,5.828065,1.6143,0.406819,8.564042,1.348804,1.911618,0.465213,0.452506,19.508839,2.248672,2.025149,0.648255,0.377878,7.10861,1.241643,1.166322,0.570127,0.664416,1.147949,0.462533,0.419011,0.331931,0.290392,1.296099,0.73063,0.854575,0.327801,0.384162,2.701786,0.688871,1.085472,0.221399,0.334176,2.922376,0.750338,1.515163,0.320998,0.546181,5.847917,1.223299,0.973194,0.755169,1.767274,32.364132,3.269998,2.358783,1.113476,0.960886,11.955385,2.197143,2.684563,0.658914,0.777439,88.767044,7.596329,4.63646,1.169538,1.090266,42.756634,6.112772,3.44832,0.952824,0.592188
1702360573,1702360573,30,0,4244.487305,4233.846191,4271.153809,4298.333496,4169.871582,4228.077148,4217.563965,4219.102539,4203.205078,4145.384766,4384.487305,4397.820313,4360.512695,4350.512695,0,3,58,,,,0,4,4,4,4,4,4,4,4,4,4,4,4,4,4,100,,,,,,,,,,,,,,,,,,,,,,,,,,,,,,,,,,,,,,,,,,,,,,,,,,,,,,,,,,,,,,,,,,,,,,,,,,,,,,,,,,,,,,,,,,,,,,,,,,,,,,,,,,,,,,,,,,,,,,,,,,,,,,,,,,,,,,
1702360573,1702360573,31,0,4232.05127,4227.820313,4260.769043,4292.692383,4163.846191,4226.922852,4212.436035,4213.846191,4199.871582,4138.077148,4368.717773,4383.717773,4340.897461,4333.589844,0,3,58,,,,0,4,4,4,4,4,4,4,4,4,4,4,4,4,4,100,,,,,,,,,,,,,,,,,,,,,,,,,,,,,,,,,,,,,,,,,,,,,,,,,,,,,,,,,,,,,,,,,,,,,,,,,,,,,,,,,,,,,,,,,,,,,,,,,,,,,,,,,,,,,,,,,,,,,,,,,,,,,,,,,,,,,,
1702360573,1702360573,32,0,4249.102539,4240.641113,4272.436035,4298.717773,4183.077148,4233.333496,4223.846191,4219.102539,4204.743652,4158.974121,4383.717773,4401.538574,4365.256348,4345.769043,0,3,58,,,,0,4,4,4,4,4,4,4,4,4,4,4,4,4,4,100,,,,,,,,,,,,,,,,,8,0,0.679327,-0.240173,-0.661621,-0.207581,1.016237,-0.054206,-0.00293,-8.978572,-6.912295,92.039375,,,,,,,,,,,,,,,,,,,,,,,,,,,,,,,,,,,,,,,,,,,,,,,,,,,,,,,,,,,,,,,,,,,,,,,,,,,,,,,,,,,,,,,,,,,,,,,,,,,,,,,,,,
1702360573,1702360573,33,0,4264.871582,4246.794922,4283.846191,4304.102539,4189.230957,4237.563965,4231.794922,4227.94873,4218.461426,4174.358887,4410,4420.769043,4388.974121,4366.922852,0,3,58,,,,0,4,4,4,4,4,4,4,4,4,4,4,4,4,4,100,,,,,,,,,,,,,,,,,,,,,,,,,,,,,,,,,,,,,,,,,,,,,,,,,,,,,,,,,,,,,,,,,,,,,,,,,,,,,,,,,,,,,,,,,,,,,,,,,,,,,,,,,,,,,,,,,,,,,,,,,,,,,,,,,,,,,,
1702360573,1702360573,34,0,4247.05127,4228.974121,4269.102539,4289.230957,4186.410156,4228.974121,4217.179688,4217.820313,4212.94873,4171.794922,4392.692383,4400.256348,4356.666504,4349.487305,0,3,58,,,,0,4,4,4,4,4,4,4,4,4,4,4,4,4,4,100,,,,,,,,,,,,,,,,,,,,,,,,,,,,,,,,,,,,,,,,,,,,,,,,,,,,,,,,,,,,,,,,,,,,,,,,,,,,,,,,,,,,,,,,,,,,,,,,,,,,,,,,,,,,,,,,,,,,,,,,,,,,,,,,,,,,,,
1702360573,1702360573,35,0,4236.025879,4225.256348,4261.794922,4277.563965,4199.230957,4223.205078,4209.230957,4208.589844,4199.487305,4166.794922,4374.358887,4385.128418,4334.358887,4333.846191,0,3,58,,,,0,4,4,4,4,4,4,4,4,4,4,4,4,4,4,100,,,,,,,,,,,,,,,,,,,,,,,,,,,,,,,,,,,,,,,,,,,,,,,,,,,,,,,,,,,,,,,,,,,,,,,,,,,,,,,,,,,,,,,,,,,,,,,,,,,,,,,,,,,,,,,,,,,,,,,,,,,,,,,,,,,,,,
1702360573,1702360573,36,0,4248.974121,4234.230957,4267.692383,4275,4207.692383,4229.871582,4216.922852,4216.666504,4201.025879,4158.077148,4382.563965,4397.563965,4350.384766,4346.922852,0,3,58,,,,0,4,4,4,4,4,4,4,4,4,4,4,4,4,4,100,,,,,,,,,,,,,,,,,9,0,0.678027,-0.243713,-0.662231,-0.20575,0.941521,-0.045416,-0.02051,-8.914048,-6.904399,91.902107,,,,,,,,,,,,,,,,,,,,,,,,,,,,,,,,,,,,,,,,,,,,,,,,,,,,,,,,,,,,,,,,,,,,,,,,,,,,,,,,,,,,,,,,,,,,,,,,,,,,,,,,,,
1702360573,1702360573,37,0,4254.358887,4230.897461,4267.692383,4262.563965,4201.922852,4233.077148,4216.922852,4221.410156,4206.666504,4163.589844,4393.846191,4403.717773,4358.589844,4354.615234,0,3,58,,,,0,4,4,4,4,4,4,4,4,4,4,4,4,4,4,100,,,,,,,,,,,,,,,,,,,,,,,,,,,,,,,,,,,,,,,,,,,,,,,,,,,,,,,,,,,,,,,,,,,,,,,,,,,,,,,,,,,,,,,,,,,,,,,,,,,,,,,,,,,,,,,,,,,,,,,,,,,,,,,,,,,,,,
1702360573,1702360573,38,0,4243.846191,4228.077148,4262.94873,4249.358887,4199.871582,4228.461426,4212.307617,4213.461426,4199.358887,4165.897461,4391.025879,4392.820313,4344.871582,4346.538574,0,3,58,,,,0,4,4,4,4,4,4,4,4,4,4,4,4,4,4,100,,,,,,,,,,,,,,,,,,,,,,,,,,,,,,,,,,,,,,,,,,,,,,,,,,,,,,,,,,,,,,,,,,,,,,,,,,,,,,,,,,,,,,,,,,,,,,,,,,,,,,,,,,,,,,,,,,,,,,,,,,,,,,,,,,,,,,
1702360573,1702360573,39,0,4238.077148,4230.256348,4259.102539,4245.897461,4203.333496,4232.692383,4218.846191,4208.333496,4191.282227,4151.794922,4381.922852,4387.05127,4338.205078,4343.077148,0,3,58,,,,0,4,4,4,4,4,4,4,4,4,4,4,4,4,4,100,,,,,,,,,,,,,,,,,,,,,,,,,,,,,,,,,,,,,,,,,,,,,,,,,,,,,,,,,,,,,,,,,,,,,,,,,,,,,,,,,,,,,,,,,,,,,,,,,,,,,,,,,,,,,,,,,,,,,,,,,,,,,,,,,,,,,,
1702360573,1702360573,40,0,4232.05127,4217.563965,4247.05127,4235.128418,4198.461426,4228.077148,4212.94873,4206.538574,4193.461426,4159.487305,4373.333496,4381.794922,4338.205078,4336.153809,0,3,58,,,,0,4,4,4,4,4,4,4,4,4,4,4,4,4,4,100,,,,,,,,,,,,,,,,,10,0,0.677477,-0.24646,-0.662476,-0.203491,0.936638,-0.027835,-0.013185,-8.972643,-6.797293,91.961891,,,,,,,,,,,,,,,,,,,,,,,,,,,,,,,,,,,,,,,,,,,,,,,,,,,,,,,,,,,,,,,,,,,,,,,,,,,,,,,,,,,,,,,,,,,,,,,,,,,,,,,,,,
1702360573,1702360573,41,0,4213.974121,4197.436035,4229.615234,4215.641113,4179.358887,4204.615234,4187.436035,4194.743652,4188.205078,4161.153809,4357.179688,4361.666504,4321.410156,4314.230957,0,3,58,,,,0,4,4,4,4,4,4,4,4,4,4,4,4,4,4,100,,,,,,,,,,,,,,,,,,,,,,,,,,,,,,,,,,,,,,,,,,,,,,,,,,,,,,,,,,,,,,,,,,,,,,,,,,,,,,,,,,,,,,,,,,,,,,,,,,,,,,,,,,,,,,,,,,,,,,,,,,,,,,,,,,,,,,
1702360573,1702360573,42,0,4214.230957,4202.94873,4234.615234,4221.538574,4177.563965,4203.461426,4186.666504,4192.820313,4181.538574,4145.897461,4358.974121,4358.846191,4317.563965,4315.769043,0,3,58,,,,0,4,4,4,4,4,4,4,4,4,4,4,4,4,4,100,,,,,,,,,,,,,,,,,,,,,,,,,,,,,,,,,,,,,,,,,,,,,,,,,,,,,,,,,,,,,,,,,,,,,,,,,,,,,,,,,,,,,,,,,,,,,,,,,,,,,,,,,,,,,,,,,,,,,,,,,,,,,,,,,,,,,,
1702360573,1702360573,43,0,4234.230957,4223.589844,4252.563965,4246.282227,4198.846191,4226.538574,4214.102539,4211.410156,4190.256348,4163.717773,4379.102539,4381.410156,4337.436035,4341.794922,0,3,58,,,,0,4,4,4,4,4,4,4,4,4,4,4,4,4,4,100,,,,,,,,,,,,,,,,,,,,,,,,,,,,,,,,,,,,,,,,,,,,,,,,,,,,,,,,,,,,,,,,,,,,,,,,,,,,,,,,,,,,,,,,,,,,,,,,,,,,,,,,,,,,,,,,,,,,,,,,,,,,,,,,,,,,,,
1702360573,1702360573,44,0,4238.717773,4221.410156,4253.205078,4251.153809,4199.487305,4232.692383,4223.077148,4219.615234,4201.922852,4180.897461,4382.179688,4388.077148,4345.384766,4343.461426,0,3,58,,,,0,4,4,4,4,4,4,4,4,4,4,4,4,4,4,100,,,,,,,,,,,,,,,,,11,0,0.678236,-0.24646,-0.662109,-0.202148,1.006959,-0.054206,-0.01172,-9.008712,-6.93423,92.082367,,,,,,,,,,,,,,,,,,,,,,,,,,,,,,,,,,,,,,,,,,,,,,,,,,,,,,,,,,,,,,,,,,,,,,,,,,,,,,,,,,,,,,,,,,,,,,,,,,,,,,,,,,
1702360573,1702360573,45,0,4228.461426,4210.384766,4242.307617,4243.846191,4180.641113,4221.410156,4209.487305,4206.538574,4200.128418,4158.589844,4373.077148,4373.333496,4337.563965,4325.897461,0,3,58,,,,0,4,4,4,4,4,4,4,4,4,4,4,4,4,4,100,1,25,1,1,1,1,4,4,4,4,4,3,1,3,1,1,,,,,,,,,,,,,,,,,,,,,,,,,,,,,,,,,,,,,,,,,,,,,,,,,34.60537,4.484586,3.072071,0.798061,0.49198,115.367668,12.09104,5.400875,1.547214,0.455417,8.831108,1.413601,1.99232,0.514548,0.491225,17.969105,2.284232,1.994427,0.669874,0.427335,8.507846,1.508651,1.113088,0.673657,0.624319,1.419021,0.573539,0.487188,0.357784,0.329053,1.330727,0.926943,0.958292,0.342357,0.408266,2.318552,0.790832,1.218637,0.250852,0.365136,2.60135,0.694913,1.780909,0.3578,0.561727,5.456284,1.305821,1.189453,0.803212,1.735837,30.223154,3.28241,2.966501,1.256537,0.981775,11.513604,2.289949,2.980136,0.713628,0.814969,83.546394,7.51383,5.068084,1.2414,1.238965,41.101948,6.156116,3.641469,1.030367,0.659647
1702360573,1702360573,46,0,4225.897461,4220.512695,4240.641113,4252.307617,4179.358887,4217.307617,4207.820313,4197.94873,4189.358887,4147.179688,4375.128418,4366.794922,4343.974121,4324.102539,0,3,58,,,,0,4,4,4,4,4,4,4,4,4,4,4,4,4,4,100,,,,,,,,,,,,,,,,,,,,,,,,,,,,,,,,,,,,,,,,,,,,,,,,,,,,,,,,,,,,,,,,,,,,,,,,,,,,,,,,,,,,,,,,,,,,,,,,,,,,,,,,,,,,,,,,,,,,,,,,,,,,,,,,,,,,,,
1702360573,1702360573,47,0,4233.846191,4230.128418,4248.974121,4263.974121,4191.282227,4220.384766,4214.743652,4206.153809,4188.589844,4156.922852,4384.743652,4372.179688,4367.05127,4333.461426,0,3,58,,,,0,4,4,4,4,4,4,4,4,4,4,4,4,4,4,100,,,,,,,,,,,,,,,,,,,,,,,,,,,,,,,,,,,,,,,,,,,,,,,,,,,,,,,,,,,,,,,,,,,,,,,,,,,,,,,,,,,,,,,,,,,,,,,,,,,,,,,,,,,,,,,,,,,,,,,,,,,,,,,,,,,,,,
1702360573,1702360573,48,0,4239.358887,4226.025879,4255.384766,4271.410156,4190.512695,4224.230957,4218.846191,4215.384766,4203.589844,4160.256348,4390.641113,4382.307617,4383.717773,4335.256348,0,3,58,,,,0,4,4,4,4,4,4,4,4,4,4,4,4,4,4,100,,,,,,,,,,,,,,,,,12,0,0.680172,-0.246887,-0.660889,-0.199097,1.018191,-0.08546,-0.006837,-9.157841,-7.007474,91.990799,,,,,,,,,,,,,,,,,,,,,,,,,,,,,,,,,,,,,,,,,,,,,,,,,,,,,,,,,,,,,,,,,,,,,,,,,,,,,,,,,,,,,,,,,,,,,,,,,,,,,,,,,,
1702360573,1702360573,49,0,4236.666504,4233.589844,4251.282227,4275.641113,4176.922852,4223.461426,4216.794922,4211.282227,4202.307617,4151.666504,4386.922852,4380,4384.743652,4326.538574,0,3,58,,,,0,4,4,4,4,4,4,4,4,4,4,4,4,4,4,100,,,,,,,,,,,,,,,,,,,,,,,,,,,,,,,,,,,,,,,,,,,,,,,,,,,,,,,,,,,,,,,,,,,,,,,,,,,,,,,,,,,,,,,,,,,,,,,,,,,,,,,,,,,,,,,,,,,,,,,,,,,,,,,,,,,,,,
1702360573,1702360573,50,0,4232.436035,4242.94873,4239.487305,4265.769043,4159.615234,4215.512695,4206.153809,4199.487305,4181.025879,4125.641113,4374.358887,4362.563965,4382.436035,4322.179688,0,3,58,,,,0,4,4,4,4,4,4,4,4,4,4,4,4,4,4,100,,,,,,,,,,,,,,,,,,,,,,,,,,,,,,,,,,,,,,,,,,,,,,,,,,,,,,,,,,,,,,,,,,,,,,,,,,,,,,,,,,,,,,,,,,,,,,,,,,,,,,,,,,,,,,,,,,,,,,,,,,,,,,,,,,,,,,
1702360573,1702360573,51,0,4246.794922,4252.436035,4242.05127,4264.871582,4156.538574,4212.820313,4199.615234,4198.461426,4180.897461,4114.102539,4381.538574,4364.230957,4402.820313,4338.589844,0,3,58,,,,0,4,4,4,4,4,4,4,4,4,4,4,4,4,4,100,,,,,,,,,,,,,,,,,,,,,,,,,,,,,,,,,,,,,,,,,,,,,,,,,,,,,,,,,,,,,,,,,,,,,,,,,,,,,,,,,,,,,,,,,,,,,,,,,,,,,,,,,,,,,,,,,,,,,,,,,,,,,,,,,,,,,,
1702360573,1702360573,52,0,4271.922852,4298.077148,4255.512695,4295.897461,4174.743652,4217.307617,4201.794922,4204.230957,4183.589844,4132.05127,4402.179688,4379.102539,4437.307617,4362.692383,0,3,58,,,,0,4,4,4,4,4,4,4,4,4,4,4,4,4,4,100,,,,,,,,,,,,,,,,,13,0,0.681426,-0.247437,-0.660339,-0.195923,1.00061,-0.096691,0.024905,-9.42539,-7.206727,91.941719,,,,,,,,,,,,,,,,,,,,,,,,,,,,,,,,,,,,,,,,,,,,,,,,,,,,,,,,,,,,,,,,,,,,,,,,,,,,,,,,,,,,,,,,,,,,,,,,,,,,,,,,,,
1702360573,1702360573,53,0,4297.436035,4382.820313,4268.717773,4336.410156,4178.333496,4217.692383,4207.692383,4200.897461,4170.384766,4134.102539,4420.256348,4389.615234,4474.230957,4389.743652,0,3,58,,,,0,4,4,4,4,4,4,4,4,4,4,4,4,4,4,100,,,,,,,,,,,,,,,,,,,,,,,,,,,,,,,,,,,,,,,,,,,,,,,,,,,,,,,,,,,,,,,,,,,,,,,,,,,,,,,,,,,,,,,,,,,,,,,,,,,,,,,,,,,,,,,,,,,,,,,,,,,,,,,,,,,,,,
1702360573,1702360573,54,0,4333.205078,4457.179688,4285.512695,4363.974121,4167.692383,4214.230957,4210,4198.589844,4174.615234,4121.410156,4444.102539,4405.512695,4520.256348,4428.077148,0,3,58,,,,0,4,4,4,4,4,4,4,4,4,4,4,4,4,4,100,,,,,,,,,,,,,,,,,,,,,,,,,,,,,,,,,,,,,,,,,,,,,,,,,,,,,,,,,,,,,,,,,,,,,,,,,,,,,,,,,,,,,,,,,,,,,,,,,,,,,,,,,,,,,,,,,,,,,,,,,,,,,,,,,,,,,,
1702360573,1702360573,55,0,4375,4510.384766,4311.025879,4397.05127,4179.230957,4220.256348,4211.794922,4207.563965,4187.436035,4127.179688,4470.641113,4435.128418,4568.974121,4473.846191,0,3,58,,,,0,4,4,4,4,4,4,4,4,4,4,4,4,4,4,100,,,,,,,,,,,,,,,,,,,,,,,,,,,,,,,,,,,,,,,,,,,,,,,,,,,,,,,,,,,,,,,,,,,,,,,,,,,,,,,,,,,,,,,,,,,,,,,,,,,,,,,,,,,,,,,,,,,,,,,,,,,,,,,,,,,,,,
1702360573,1702360573,56,0,4414.871582,4566.794922,4339.615234,4436.538574,4200.384766,4232.436035,4218.974121,4220.897461,4189.871582,4146.794922,4502.692383,4466.794922,4617.307617,4519.230957,0,3,58,,,,0,4,4,4,4,4,4,4,4,4,4,4,4,4,4,100,,,,,,,,,,,,,,,,,14,0,0.681336,-0.247498,-0.660645,-0.195129,1.053351,-0.036137,0.019534,-9.382851,-7.15272,91.964218,,,,,,,,,,,,,,,,,,,,,,,,,,,,,,,,,,,,,,,,,,,,,,,,,,,,,,,,,,,,,,,,,,,,,,,,,,,,,,,,,,,,,,,,,,,,,,,,,,,,,,,,,,
1702360573,1702360573,57,0,4430.641113,4607.692383,4337.820313,4448.717773,4201.025879,4230.897461,4216.666504,4214.487305,4182.820313,4145,4508.974121,4464.487305,4625.512695,4533.461426,0,3,58,,,,0,4,4,4,4,4,4,4,4,4,4,4,4,4,4,100,,,,,,,,,,,,,,,,,,,,,,,,,,,,,,,,,,,,,,,,,,,,,,,,,,,,,,,,,,,,,,,,,,,,,,,,,,,,,,,,,,,,,,,,,,,,,,,,,,,,,,,,,,,,,,,,,,,,,,,,,,,,,,,,,,,,,,
1702360573,1702360573,58,0,4422.563965,4622.563965,4320,4445,4197.436035,4225.512695,4211.666504,4204.743652,4181.410156,4131.666504,4494.230957,4447.563965,4602.307617,4523.333496,0,3,58,,,,0,4,4,4,4,4,4,4,4,4,4,4,4,4,4,100,,,,,,,,,,,,,,,,,,,,,,,,,,,,,,,,,,,,,,,,,,,,,,,,,,,,,,,,,,,,,,,,,,,,,,,,,,,,,,,,,,,,,,,,,,,,,,,,,,,,,,,,,,,,,,,,,,,,,,,,,,,,,,,,,,,,,,
1702360573,1702360573,59,0,4430.512695,4635.256348,4337.307617,4461.282227,4214.487305,4239.358887,4233.333496,4232.563965,4206.794922,4147.94873,4511.922852,4473.846191,4609.615234,4540.128418,0,3,58,,,,0,4,4,4,4,4,4,4,4,4,4,4,4,4,4,100,,,,,,,,,,,,,,,,,,,,,,,,,,,,,,,,,,,,,,,,,,,,,,,,,,,,,,,,,,,,,,,,,,,,,,,,,,,,,,,,,,,,,,,,,,,,,,,,,,,,,,,,,,,,,,,,,,,,,,,,,,,,,,,,,,,,,,
1702360573,1702360573,60,0,4457.563965,4657.05127,4368.333496,4491.282227,4242.179688,4256.025879,4256.922852,4264.230957,4234.615234,4187.436035,4546.538574,4515.512695,4636.666504,4570.641113,0,3,58,,,,0,4,4,4,4,4,4,4,4,4,4,4,4,4,4,100,,,,,,,,,,,,,,,,,15,0,0.680304,-0.246582,-0.662781,-0.192627,1.063118,-0.066414,0.013185,-9.411233,-7.120782,91.967796,,,,,,,,,,,,,,,,,,,,,,,,,,,,,,,,,,,,,,,,,,,,,,,,,,,,,,,,,,,,,,,,,,,,,,,,,,,,,,,,,,,,,,,,,,,,,,,,,,,,,,,,,,
1702360573,1702360573,61,0,4469.487305,4676.410156,4378.717773,4509.358887,4254.871582,4260.128418,4256.282227,4268.077148,4244.230957,4209.487305,4560.512695,4519.230957,4645,4577.820313,0,3,58,,,,0,4,4,4,4,4,4,4,4,4,4,4,4,4,4,100,,,,,,,,,,,,,,,,,,,,,,,,,,,,,,,,,,,,,,,,,,,,,,,,,,,,,,,,,,,,,,,,,29.310869,4.274722,2.829914,0.74286,0.565021,95.055649,10.504159,4.475214,1.330395,0.517616,8.618733,1.452608,1.971288,0.529182,0.534847,14.562672,2.206449,1.868438,0.638802,0.494674,9.883325,1.800251,1.067849,0.73321,0.584702,1.714716,0.689944,0.582372,0.379775,0.367412,1.456118,1.145486,1.074492,0.36688,0.434009,1.850726,0.969681,1.322792,0.28173,0.407728,2.191285,0.727105,1.944337,0.38542,0.59258,4.80944,1.46726,1.348303,0.820964,1.669337,24.933035,3.123543,3.393405,1.282892,1.033873,10.254437,2.363697,3.150605,0.738774,0.862072,68.219429,6.817042,5.107298,1.232196,1.348922,34.90287,5.743413,3.540154,1.006955,0.734243
1702360574,1702360574,62,0,4452.179688,4661.538574,4370.897461,4508.846191,4236.922852,4259.871582,4260.897461,4266.666504,4248.205078,4200.384766,4554.230957,4506.794922,4625.769043,4567.563965,0,3,58,,,,0,4,4,4,4,4,4,4,4,4,4,4,4,4,4,100,,,,,,,,,,,,,,,,,,,,,,,,,,,,,,,,,,,,,,,,,,,,,,,,,,,,,,,,,,,,,,,,,,,,,,,,,,,,,,,,,,,,,,,,,,,,,,,,,,,,,,,,,,,,,,,,,,,,,,,,,,,,,,,,,,,,,,
1702360574,1702360574,63,0,4439.358887,4616.410156,4363.461426,4506.410156,4232.179688,4265.897461,4276.538574,4267.05127,4246.153809,4202.179688,4545.384766,4506.666504,4608.461426,4558.974121,0,3,58,,,,0,4,4,4,4,4,4,4,4,4,4,4,4,4,4,100,,,,,,,,,,,,,,,,,,,,,,,,,,,,,,,,,,,,,,,,,,,,,,,,,,,,,,,,,,,,,,,,,,,,,,,,,,,,,,,,,,,,,,,,,,,,,,,,,,,,,,,,,,,,,,,,,,,,,,,,,,,,,,,,,,,,,,
1702360574,1702360574,64,0,4447.94873,4585.256348,4367.563965,4514.871582,4275.897461,4278.846191,4282.820313,4266.666504,4243.333496,4227.307617,4548.461426,4511.282227,4615.769043,4559.102539,5419,3,58,,,,0,4,4,4,4,4,4,4,4,4,4,4,4,4,4,100,,,,,,,,,,,,,,,,,16,0,0.676867,-0.243469,-0.668152,-0.190125,1.029423,-0.046392,0.015627,-9.453443,-7.158703,91.987679,,,,,,,,,,,,,,,,,,,,,,,,,,,,,,,,,,,,,,,,,,,,,,,,,,,,,,,,,,,,,,,,,,,,,,,,,,,,,,,,,,,,,,,,,,,,,,,,,,,,,,,,,,
1702360574,1702360574,65,0,4429.102539,4555.897461,4360.512695,4508.077148,4284.487305,4280.512695,4279.615234,4266.538574,4247.436035,4219.487305,4543.974121,4500.512695,4595.256348,4542.94873,5487,3,58,,,,0,4,4,4,4,4,4,4,4,4,4,4,4,4,4,100,,,,,,,,,,,,,,,,,,,,,,,,,,,,,,,,,,,,,,,,,,,,,,,,,,,,,,,,,,,,,,,,,,,,,,,,,,,,,,,,,,,,,,,,,,,,,,,,,,,,,,,,,,,,,,,,,,,,,,,,,,,,,,,,,,,,,,
1702360574,1702360574,66,0,4379.871582,4497.94873,4329.615234,4471.282227,4232.563965,4267.179688,4272.179688,4257.820313,4239.230957,4179.487305,4503.589844,4469.871582,4514.871582,4498.717773,5360,3,58,,,,0,4,4,4,4,4,4,4,4,4,4,4,4,4,4,100,,,,,,,,,,,,,,,,,,,,,,,,,,,,,,,,,,,,,,,,,,,,,,,,,,,,,,,,,,,,,,,,,,,,,,,,,,,,,,,,,,,,,,,,,,,,,,,,,,,,,,,,,,,,,,,,,,,,,,,,,,,,,,,,,,,,,,
1702360574,1702360574,67,0,4365.897461,4458.717773,4316.410156,4453.461426,4215.641113,4260,4258.077148,4245.897461,4222.179688,4180.512695,4479.230957,4457.94873,4472.436035,4477.94873,5354,3,58,,,,0,4,4,4,4,4,4,4,4,4,4,4,4,4,4,100,,,,,,,,,,,,,,,,,,,,,,,,,,,,,,,,,,,,,,,,,,,,,,,,,,,,,,,,,,,,,,,,,,,,,,,,,,,,,,,,,,,,,,,,,,,,,,,,,,,,,,,,,,,,,,,,,,,,,,,,,,,,,,,,,,,,,,
1702360574,1702360574,68,0,4382.692383,4453.461426,4332.692383,4461.410156,4240.512695,4262.563965,4253.205078,4254.230957,4230.897461,4221.025879,4503.846191,4479.358887,4500,4491.922852,5337,3,58,,,,0,4,4,4,4,4,4,4,4,4,4,4,4,4,4,100,,,,,,,,,,,,,,,,,17,0,0.673187,-0.240295,-0.673889,-0.186951,1.004029,-0.083995,-0.013674,-9.674765,-7.242833,92.088913,,,,,,,,,,,,,,,,,,,,,,,,,,,,,,,,,,,,,,,,,,,,,,,,,,,,,,,,,,,,,,,,,,,,,,,,,,,,,,,,,,,,,,,,,,,,,,,,,,,,,,,,,,
1702360574,1702360574,69,0,4366.666504,4425.641113,4326.153809,4446.282227,4235.256348,4256.538574,4255.769043,4266.025879,4246.410156,4220,4503.461426,4479.358887,4466.538574,4479.743652,5203,3,58,,,,0,4,4,4,4,4,4,4,4,4,4,4,4,4,4,100,,,,,,,,,,,,,,,,,,,,,,,,,,,,,,,,,,,,,,,,,,,,,,,,,,,,,,,,,,,,,,,,,,,,,,,,,,,,,,,,,,,,,,,,,,,,,,,,,,,,,,,,,,,,,,,,,,,,,,,,,,,,,,,,,,,,,,
1702360574,1702360574,70,0,4342.692383,4391.538574,4315.256348,4428.974121,4223.333496,4260,4263.461426,4263.974121,4247.179688,4195.128418,4481.410156,4460.128418,4380.128418,4456.922852,5108,3,58,,,,0,4,4,4,4,4,4,4,4,4,4,4,4,4,4,100,,,,,,,,,,,,,,,,,,,,,,,,,,,,,,,,,,,,,,,,,,,,,,,,,,,,,,,,,,,,,,,,,,,,,,,,,,,,,,,,,,,,,,,,,,,,,,,,,,,,,,,,,,,,,,,,,,,,,,,,,,,,,,,,,,,,,,
1702360574,1702360574,71,0,4343.846191,4381.153809,4326.794922,4433.589844,4241.282227,4276.282227,4275.384766,4263.205078,4247.692383,4195.769043,4480.897461,4461.538574,4335.128418,4457.307617,5145,3,58,,,,0,4,4,4,4,4,4,4,4,4,4,4,4,4,4,100,,,,,,,,,,,,,,,,,,,,,,,,,,,,,,,,,,,,,,,,,,,,,,,,,,,,,,,,,,,,,,,,,,,,,,,,,,,,,,,,,,,,,,,,,,,,,,,,,,,,,,,,,,,,,,,,,,,,,,,,,,,,,,,,,,,,,,
1702360574,1702360574,72,0,4336.282227,4358.205078,4323.205078,4425.641113,4243.461426,4277.179688,4277.05127,4263.589844,4248.205078,4201.922852,4481.282227,4468.333496,4305.769043,4449.487305,5290,3,58,,,,0,4,4,4,4,4,4,4,4,4,4,4,4,4,4,100,,,,,,,,,,,,,,,,,18,0,0.671313,-0.237122,-0.677612,-0.184265,0.920523,-0.061043,-0.035649,-9.840622,-7.201883,91.913353,,,,,,,,,,,,,,,,,,,,,,,,,,,,,,,,,,,,,,,,,,,,,,,,,,,,,,,,,,,,,,,,,,,,,,,,,,,,,,,,,,,,,,,,,,,,,,,,,,,,,,,,,,
1702360574,1702360574,73,0,4312.179688,4320.769043,4301.538574,4406.153809,4229.871582,4261.153809,4263.333496,4254.358887,4238.974121,4197.563965,4465.256348,4457.05127,4261.282227,4421.922852,5370,3,58,,,,0,4,4,4,4,4,4,4,4,4,4,4,4,4,4,100,,,,,,,,,,,,,,,,,,,,,,,,,,,,,,,,,,,,,,,,,,,,,,,,,,,,,,,,,,,,,,,,,,,,,,,,,,,,,,,,,,,,,,,,,,,,,,,,,,,,,,,,,,,,,,,,,,,,,,,,,,,,,,,,,,,,,,
1702360574,1702360574,74,0,4289.102539,4291.922852,4284.102539,4394.230957,4221.922852,4248.846191,4247.563965,4235.256348,4216.666504,4184.358887,4434.487305,4431.410156,4223.077148,4392.820313,5888,3,58,,,,0,4,4,4,4,4,4,4,4,4,4,4,4,4,4,100,,,,,,,,,,,,,,,,,,,,,,,,,,,,,,,,,,,,,,,,,,,,,,,,,,,,,,,,,,,,,,,,,,,,,,,,,,,,,,,,,,,,,,,,,,,,,,,,,,,,,,,,,,,,,,,,,,,,,,,,,,,,,,,,,,,,,,
1702360574,1702360574,75,0,4272.179688,4267.05127,4279.487305,4377.94873,4205,4249.230957,4248.077148,4230.128418,4211.538574,4175.256348,4414.871582,4418.077148,4198.589844,4377.05127,6250,3,58,,,,0,4,4,4,4,4,4,4,4,4,4,4,4,4,4,100,,,,,,,,,,,,,,,,,,,,,,,,,,,,,,,,,,,,,,,,,,,,,,,,,,,,,,,,,,,,,,,,,,,,,,,,,,,,,,,,,,,,,,,,,,,,,,,,,,,,,,,,,,,,,,,,,,,,,,,,,,,,,,,,,,,,,,
1702360574,1702360574,76,0,4264.102539,4245.384766,4277.436035,4361.666504,4195,4247.94873,4248.717773,4236.794922,4221.410156,4173.717773,4417.692383,4421.282227,4178.077148,4370,6781,3,58,,,,0,4,4,4,4,4,4,4,4,4,4,4,4,4,4,100,,,,,,,,,,,,,,,,,19,0,0.671777,-0.234863,-0.678467,-0.182312,0.928336,-0.093761,-0.046881,-9.973227,-7.065028,92.022018,,,,,,,,,,,,,,,,,,,,,,,,,,,,,,,,,,,,,,,,,,,,,,,,,,,,,,,,,,,,,,,,,,,,,,,,,,,,,,,,,,,,,,,,,,,,,,,,,,,,,,,,,,
1702360574,1702360574,77,0,4261.282227,4231.794922,4277.179688,4362.05127,4206.153809,4245.769043,4241.538574,4237.94873,4227.179688,4184.871582,4425.256348,4424.615234,4172.692383,4363.205078,7025,3,58,,,,0,4,4,4,4,4,4,4,4,4,4,4,4,4,4,100,,,,,,,,,,,,,,,,,,,,,,,,,,,,,,,,,,,,,,,,,,,,,,,,,,,,,,,,,,,,,,,,,21.679411,3.840076,2.430094,0.634466,0.654299,65.745071,8.144119,3.336509,1.029514,0.586866,8.034418,1.499737,1.864797,0.508954,0.583063,10.29575,2.091743,1.728784,0.570539,0.574318,10.667789,2.08344,1.103698,0.735429,0.555798,1.93011,0.78778,0.682528,0.385897,0.401792,1.605955,1.362953,1.174456,0.395967,0.46374,1.368071,1.218855,1.365326,0.30735,0.457435,1.775907,0.901093,1.95751,0.39533,0.646182,4.081074,1.736399,1.388597,0.798296,1.612344,17.991745,2.9113,3.517524,1.177636,1.133969,8.419532,2.448268,3.147761,0.72701,0.928079,46.980408,5.915021,4.76752,1.142199,1.419266,25.993715,5.043021,3.210915,0.890413,0.815951
1702360574,1702360574,78,0,4266.538574,4217.307617,4290.128418,4365.512695,4218.461426,4260,4255.769043,4257.307617,4251.153809,4213.589844,4441.025879,4439.615234,4187.820313,4369.230957,5888,3,58,,,,0,4,4,4,4,4,4,4,4,4,4,4,4,4,4,100,,,,,,,,,,,,,,,,,,,,,,,,,,,,,,,,,,,,,,,,,,,,,,,,,,,,,,,,,,,,,,,,,,,,,,,,,,,,,,,,,,,,,,,,,,,,,,,,,,,,,,,,,,,,,,,,,,,,,,,,,,,,,,,,,,,,,,
1702360574,1702360574,79,0,4264.358887,4202.436035,4296.794922,4359.615234,4215.512695,4270.256348,4270.384766,4267.05127,4258.717773,4211.794922,4438.589844,4448.589844,4181.282227,4371.025879,6250,3,58,,,,0,4,4,4,4,4,4,4,4,4,4,4,4,4,4,100,,,,,,,,,,,,,,,,,,,,,,,,,,,,,,,,,,,,,,,,,,,,,,,,,,,,,,,,,,,,,,,,,,,,,,,,,,,,,,,,,,,,,,,,,,,,,,,,,,,,,,,,,,,,,,,,,,,,,,,,,,,,,,,,,,,,,,
1702360574,1702360574,80,0,4243.717773,4192.436035,4282.436035,4352.820313,4208.077148,4254.871582,4253.077148,4238.974121,4226.922852,4181.025879,4399.871582,4424.230957,4137.05127,4346.538574,6781,3,58,,,,0,4,4,4,4,4,4,4,4,4,4,4,4,4,4,100,,,,,,,,,,,,,,,,,20,0,0.673311,-0.232544,-0.67804,-0.181213,0.965938,-0.093273,-0.057136,-10.09257,-7.075192,91.953148,,,,,,,,,,,,,,,,,,,,,,,,,,,,,,,,,,,,,,,,,,,,,,,,,,,,,,,,,,,,,,,,,,,,,,,,,,,,,,,,,,,,,,,,,,,,,,,,,,,,,,,,,,
1702360574,1702360574,81,0,4232.563965,4178.974121,4272.179688,4347.94873,4204.871582,4246.410156,4239.743652,4228.333496,4219.743652,4181.922852,4380.641113,4404.871582,4107.436035,4329.487305,7025,3,58,,,,0,4,4,4,4,4,4,4,4,4,4,4,4,4,4,100,,,,,,,,,,,,,,,,,,,,,,,,,,,,,,,,,,,,,,,,,,,,,,,,,,,,,,,,,,,,,,,,,,,,,,,,,,,,,,,,,,,,,,,,,,,,,,,,,,,,,,,,,,,,,,,,,,,,,,,,,,,,,,,,,,,,,,
1702360574,1702360574,82,0,4249.102539,4171.025879,4284.230957,4347.05127,4205.256348,4263.974121,4260.769043,4253.717773,4247.692383,4212.307617,4408.205078,4427.05127,4131.922852,4346.538574,5888,3,58,,,,0,4,4,4,4,4,4,4,4,4,4,4,4,4,4,100,,,,,,,,,,,,,,,,,,,,,,,,,,,,,,,,,,,,,,,,,,,,,,,,,,,,,,,,,,,,,,,,,,,,,,,,,,,,,,,,,,,,,,,,,,,,,,,,,,,,,,,,,,,,,,,,,,,,,,,,,,,,,,,,,,,,,,
1702360574,1702360574,83,0,4250.384766,4169.102539,4281.153809,4343.846191,4202.436035,4267.179688,4268.846191,4256.410156,4244.230957,4206.794922,4405.256348,4432.179688,4139.615234,4347.563965,6250,3,58,,,,0,4,4,4,4,4,4,4,4,4,4,4,4,4,4,100,,,,,,,,,,,,,,,,,,,,,,,,,,,,,,,,,,,,,,,,,,,,,,,,,,,,,,,,,,,,,,,,,,,,,,,,,,,,,,,,,,,,,,,,,,,,,,,,,,,,,,,,,,,,,,,,,,,,,,,,,,,,,,,,,,,,,,
1702360574,1702360574,84,0,4229.230957,4161.282227,4262.94873,4335.769043,4200.512695,4248.974121,4252.307617,4239.487305,4221.153809,4183.205078,4372.436035,4405,4112.05127,4323.077148,6781,3,58,,,,0,4,4,4,4,4,4,4,4,4,4,4,4,4,4,100,,,,,,,,,,,,,,,,,21,0,0.674614,-0.22937,-0.677612,-0.182007,1.001099,-0.074716,-0.019534,-10.066647,-6.951006,91.774506,,,,,,,,,,,,,,,,,,,,,,,,,,,,,,,,,,,,,,,,,,,,,,,,,,,,,,,,,,,,,,,,,,,,,,,,,,,,,,,,,,,,,,,,,,,,,,,,,,,,,,,,,,
1702360574,1702360574,85,0,4226.922852,4155,4263.205078,4336.410156,4210.512695,4243.974121,4248.846191,4244.871582,4231.282227,4189.615234,4379.615234,4404.102539,4112.179688,4321.794922,7025,3,58,,,,0,4,4,4,4,4,4,4,4,4,4,4,4,4,4,100,,,,,,,,,,,,,,,,,,,,,,,,,,,,,,,,,,,,,,,,,,,,,,,,,,,,,,,,,,,,,,,,,,,,,,,,,,,,,,,,,,,,,,,,,,,,,,,,,,,,,,,,,,,,,,,,,,,,,,,,,,,,,,,,,,,,,,
1702360574,1702360574,86,0,4235,4154.487305,4269.615234,4339.615234,4214.871582,4257.563965,4260.512695,4253.461426,4244.487305,4194.487305,4392.179688,4417.94873,4124.615234,4330.128418,5888,3,58,,,,0,4,4,4,4,4,4,4,4,4,4,4,4,4,4,100,,,,,,,,,,,,,,,,,,,,,,,,,,,,,,,,,,,,,,,,,,,,,,,,,,,,,,,,,,,,,,,,,,,,,,,,,,,,,,,,,,,,,,,,,,,,,,,,,,,,,,,,,,,,,,,,,,,,,,,,,,,,,,,,,,,,,,
1702360574,1702360574,87,0,4226.153809,4143.974121,4260.256348,4331.282227,4201.410156,4263.205078,4262.94873,4250,4236.922852,4183.077148,4370,4406.794922,4105.641113,4316.538574,6250,3,58,,,,0,4,4,4,4,4,4,4,4,4,4,4,4,4,4,100,,,,,,,,,,,,,,,,,,,,,,,,,,,,,,,,,,,,,,,,,,,,,,,,,,,,,,,,,,,,,,,,,,,,,,,,,,,,,,,,,,,,,,,,,,,,,,,,,,,,,,,,,,,,,,,,,,,,,,,,,,,,,,,,,,,,,,
1702360574,1702360574,88,0,4217.563965,4132.692383,4250.897461,4323.205078,4200.128418,4256.025879,4254.871582,4244.102539,4231.922852,4179.487305,4352.692383,4390.256348,4083.076904,4302.820313,6781,3,58,,,,0,4,4,4,4,4,4,4,4,4,4,4,4,4,4,100,,,,,,,,,,,,,,,,,22,0,0.67519,-0.227844,-0.677307,-0.182922,1.002564,-0.087413,-0.020022,-9.943316,-6.789239,91.713722,,,,,,,,,,,,,,,,,,,,,,,,,,,,,,,,,,,,,,,,,,,,,,,,,,,,,,,,,,,,,,,,,,,,,,,,,,,,,,,,,,,,,,,,,,,,,,,,,,,,,,,,,,
1702360574,1702360574,89,0,4217.563965,4135.256348,4249.230957,4320.256348,4205.256348,4248.205078,4245.512695,4235.256348,4227.563965,4187.307617,4353.717773,4385.256348,4085.384521,4302.436035,7025,3,58,,,,0,4,4,4,4,4,4,4,4,4,4,4,4,4,4,100,,,,,,,,,,,,,,,,,,,,,,,,,,,,,,,,,,,,,,,,,,,,,,,,,,,,,,,,,,,,,,,,,,,,,,,,,,,,,,,,,,,,,,,,,,,,,,,,,,,,,,,,,,,,,,,,,,,,,,,,,,,,,,,,,,,,,,
1702360574,1702360574,90,0,4217.307617,4136.666504,4244.743652,4311.922852,4207.692383,4246.666504,4242.179688,4230,4217.307617,4187.563965,4354.871582,4384.615234,4088.589844,4299.358887,5888,3,58,,,,0,4,4,4,4,4,4,4,4,4,4,4,4,4,4,100,,,,,,,,,,,,,,,,,,,,,,,,,,,,,,,,,,,,,,,,,,,,,,,,,,,,,,,,,,,,,,,,,,,,,,,,,,,,,,,,,,,,,,,,,,,,,,,,,,,,,,,,,,,,,,,,,,,,,,,,,,,,,,,,,,,,,,
1702360574,1702360574,91,0,4224.230957,4137.05127,4249.487305,4309.358887,4225.769043,4252.436035,4250.641113,4237.563965,4222.820313,4182.05127,4368.333496,4398.589844,4094.743652,4305.384766,6250,3,58,,,,0,4,4,4,4,4,4,4,4,4,4,4,4,4,4,100,,,,,,,,,,,,,,,,,,,,,,,,,,,,,,,,,,,,,,,,,,,,,,,,,,,,,,,,,,,,,,,,,,,,,,,,,,,,,,,,,,,,,,,,,,,,,,,,,,,,,,,,,,,,,,,,,,,,,,,,,,,,,,,,,,,,,,
1702360574,1702360574,92,0,4235.641113,4138.589844,4265,4312.820313,4240.256348,4260.256348,4264.615234,4246.794922,4235.641113,4185.128418,4381.410156,4413.333496,4105.128418,4322.05127,6781,3,58,,,,0,4,4,4,4,4,4,4,4,4,4,4,4,4,4,100,,,,,,,,,,,,,,,,,23,0,0.676208,-0.22644,-0.676514,-0.183838,0.9801,-0.075204,-0.003907,-9.982317,-6.826982,91.50901,,,,,,,,,,,,,,,,,,,,,,,,,,,,,,,,,,,,,,,,,,,,,,,,,,,,,,,,,,,,,,,,,,,,,,,,,,,,,,,,,,,,,,,,,,,,,,,,,,,,,,,,,,
1702360574,1702360574,93,0,4239.230957,4134.102539,4269.615234,4304.358887,4234.102539,4265.512695,4268.717773,4251.538574,4236.538574,4193.333496,4376.153809,4413.461426,4109.487305,4327.05127,7025,3,58,,,,0,4,4,4,4,4,4,4,4,4,4,4,4,4,4,100,,,,,,,,,,,,,,,,,,,,,,,,,,,,,,,,,,,,,,,,,,,,,,,,,,,,,,,,,,,,,,,,,15.316327,3.401486,2.027541,0.511878,0.752116,42.231106,6.051677,2.359245,0.743196,0.653939,7.554833,1.584732,1.716298,0.46965,0.634611,7.576732,2.090123,1.673012,0.495392,0.653379,10.6778,2.319083,1.243806,0.687546,0.552472,2.010619,0.855373,0.756337,0.375188,0.429865,1.748299,1.561644,1.219478,0.427607,0.496447,1.033579,1.519851,1.328165,0.330562,0.50653,1.552337,1.249045,1.818918,0.392792,0.715396,3.658992,2.122388,1.298187,0.747242,1.598416,11.999687,2.772992,3.316882,0.988339,1.277139,6.859809,2.586754,2.959475,0.69165,1.0156,28.325848,5.178345,4.197532,1.024016,1.470641,18.458954,4.370475,2.792372,0.722853,0.902119
1702360574,1702360574,94,0,4228.974121,4118.846191,4251.282227,4283.717773,4227.307617,4258.461426,4253.077148,4246.025879,4227.436035,4194.230957,4364.230957,4398.974121,4104.871582,4315.256348,5888,3,58,,,,0,4,4,4,4,4,4,4,4,4,4,4,4,4,4,100,,,,,,,,,,,,,,,,,,,,,,,,,,,,,,,,,,,,,,,,,,,,,,,,,,,,,,,,,,,,,,,,,,,,,,,,,,,,,,,,,,,,,,,,,,,,,,,,,,,,,,,,,,,,,,,,,,,,,,,,,,,,,,,,,,,,,,
1702360574,1702360574,95,0,4216.538574,4111.538574,4236.153809,4274.743652,4230.256348,4247.436035,4242.94873,4235.897461,4219.102539,4192.179688,4357.563965,4386.666504,4099.487305,4305.384766,6250,3,58,,,,0,4,4,4,4,4,4,4,4,4,4,4,4,4,4,100,,,,,,,,,,,,,,,,,,,,,,,,,,,,,,,,,,,,,,,,,,,,,,,,,,,,,,,,,,,,,,,,,,,,,,,,,,,,,,,,,,,,,,,,,,,,,,,,,,,,,,,,,,,,,,,,,,,,,,,,,,,,,,,,,,,,,,
1702360574,1702360574,96,0,4216.538574,4119.871582,4243.077148,4282.179688,4233.077148,4246.538574,4250.256348,4240.384766,4222.820313,4197.94873,4360.384766,4392.820313,4100.384766,4308.077148,6781,3,58,,,,0,4,4,4,4,4,4,4,4,4,4,4,4,4,4,100,,,,,,,,,,,,,,,,,24,0,0.676647,-0.226318,-0.675598,-0.18573,0.97717,-0.074228,-0.007325,-9.917418,-6.877617,91.391449,,,,,,,,,,,,,,,,,,,,,,,,,,,,,,,,,,,,,,,,,,,,,,,,,,,,,,,,,,,,,,,,,,,,,,,,,,,,,,,,,,,,,,,,,,,,,,,,,,,,,,,,,,
1702360574,1702360574,97,0,4217.563965,4112.307617,4246.794922,4276.922852,4235,4246.410156,4253.077148,4248.461426,4231.025879,4200,4365.512695,4399.743652,4092.564209,4306.666504,7025,3,58,,,,0,4,4,4,4,4,4,4,4,4,4,4,4,4,4,100,,,,,,,,,,,,,,,,,,,,,,,,,,,,,,,,,,,,,,,,,,,,,,,,,,,,,,,,,,,,,,,,,,,,,,,,,,,,,,,,,,,,,,,,,,,,,,,,,,,,,,,,,,,,,,,,,,,,,,,,,,,,,,,,,,,,,,
1702360574,1702360574,98,0,4216.538574,4098.589844,4243.461426,4265.256348,4233.846191,4247.05127,4255.641113,4251.025879,4235.897461,4204.871582,4372.820313,4397.436035,4099.358887,4307.820313,5888,3,58,,,,0,4,4,4,4,4,4,4,4,4,4,4,4,4,4,100,,,,,,,,,,,,,,,,,,,,,,,,,,,,,,,,,,,,,,,,,,,,,,,,,,,,,,,,,,,,,,,,,,,,,,,,,,,,,,,,,,,,,,,,,,,,,,,,,,,,,,,,,,,,,,,,,,,,,,,,,,,,,,,,,,,,,,
1702360574,1702360574,99,0,4216.922852,4105.512695,4242.94873,4271.666504,4233.589844,4255.512695,4265,4257.05127,4242.05127,4214.102539,4375.512695,4395.128418,4116.922852,4313.205078,6250,3,58,,,,0,4,4,4,4,4,4,4,4,4,4,4,4,4,4,100,,,,,,,,,,,,,,,,,,,,,,,,,,,,,,,,,,,,,,,,,,,,,,,,,,,,,,,,,,,,,,,,,,,,,,,,,,,,,,,,,,,,,,,,,,,,,,,,,,,,,,,,,,,,,,,,,,,,,,,,,,,,,,,,,,,,,,
1702360574,1702360574,100,0,4216.025879,4112.307617,4244.487305,4281.282227,4239.487305,4259.615234,4270.897461,4264.102539,4248.589844,4212.820313,4372.820313,4399.871582,4115.256348,4313.077148,6781,3,58,,,,0,4,4,4,4,4,4,4,4,4,4,4,4,4,4,100,,,,,,,,,,,,,,,,,25,0,0.676004,-0.227295,-0.675171,-0.188416,1.05677,-0.090831,-0.038579,-9.675677,-7.123188,91.402298,,,,,,,,,,,,,,,,,,,,,,,,,,,,,,,,,,,,,,,,,,,,,,,,,,,,,,,,,,,,,,,,,,,,,,,,,,,,,,,,,,,,,,,,,,,,,,,,,,,,,,,,,,
1702360574,1702360574,101,0,4215.128418,4110.128418,4246.922852,4277.94873,4239.230957,4249.358887,4261.794922,4251.794922,4234.615234,4196.922852,4363.205078,4397.05127,4102.563965,4308.589844,7025,3,58,,,,0,4,4,4,4,4,4,4,4,4,4,4,4,4,4,100,,,,,,,,,,,,,,,,,,,,,,,,,,,,,,,,,,,,,,,,,,,,,,,,,,,,,,,,,,,,,,,,,,,,,,,,,,,,,,,,,,,,,,,,,,,,,,,,,,,,,,,,,,,,,,,,,,,,,,,,,,,,,,,,,,,,,,
1702360574,1702360574,102,0,4215.384766,4121.922852,4246.666504,4273.205078,4236.153809,4242.05127,4248.205078,4233.589844,4211.282227,4187.307617,4347.563965,4383.461426,4093.974365,4301.025879,5888,3,58,,,,0,4,4,4,4,4,4,4,4,4,4,4,4,4,4,100,,,,,,,,,,,,,,,,,,,,,,,,,,,,,,,,,,,,,,,,,,,,,,,,,,,,,,,,,,,,,,,,,,,,,,,,,,,,,,,,,,,,,,,,,,,,,,,,,,,,,,,,,,,,,,,,,,,,,,,,,,,,,,,,,,,,,,
1702360574,1702360574,103,0,4213.205078,4125.128418,4243.717773,4272.307617,4234.615234,4248.589844,4249.358887,4241.538574,4211.794922,4191.794922,4337.179688,4383.846191,4082.05127,4297.179688,6250,3,58,,,,0,4,4,4,4,4,4,4,4,4,4,4,4,4,4,100,,,,,,,,,,,,,,,,,,,,,,,,,,,,,,,,,,,,,,,,,,,,,,,,,,,,,,,,,,,,,,,,,,,,,,,,,,,,,,,,,,,,,,,,,,,,,,,,,,,,,,,,,,,,,,,,,,,,,,,,,,,,,,,,,,,,,,
1702360574,1702360574,104,0,4224.871582,4119.615234,4257.94873,4282.179688,4231.666504,4259.230957,4264.487305,4265.384766,4237.692383,4208.846191,4358.974121,4414.743652,4097.94873,4318.717773,6781,3,58,,,,0,4,4,4,4,4,4,4,4,4,4,4,4,4,4,100,,,,,,,,,,,,,,,,,26,0,0.675288,-0.231079,-0.67395,-0.190735,0.945428,-0.121597,-0.038091,-9.591442,-7.094203,91.412071,,,,,,,,,,,,,,,,,,,,,,,,,,,,,,,,,,,,,,,,,,,,,,,,,,,,,,,,,,,,,,,,,,,,,,,,,,,,,,,,,,,,,,,,,,,,,,,,,,,,,,,,,,
1702360574,1702360574,105,0,4244.487305,4141.282227,4277.179688,4303.205078,4236.538574,4262.563965,4268.589844,4264.871582,4250.128418,4226.922852,4392.563965,4435.128418,4143.333496,4343.717773,7025,3,58,,,,0,4,4,4,4,4,4,4,4,4,4,4,4,4,4,100,,,,,,,,,,,,,,,,,,,,,,,,,,,,,,,,,,,,,,,,,,,,,,,,,,,,,,,,,,,,,,,,,,,,,,,,,,,,,,,,,,,,,,,,,,,,,,,,,,,,,,,,,,,,,,,,,,,,,,,,,,,,,,,,,,,,,,
1702360574,1702360574,106,0,4240.641113,4142.179688,4266.922852,4301.794922,4235.897461,4258.846191,4259.615234,4247.179688,4235.897461,4227.179688,4385.769043,4413.846191,4158.333496,4335.897461,5888,3,58,,,,0,4,4,4,4,4,4,4,4,4,4,4,4,4,4,100,,,,,,,,,,,,,,,,,,,,,,,,,,,,,,,,,,,,,,,,,,,,,,,,,,,,,,,,,,,,,,,,,,,,,,,,,,,,,,,,,,,,,,,,,,,,,,,,,,,,,,,,,,,,,,,,,,,,,,,,,,,,,,,,,,,,,,
1702360574,1702360574,107,0,4235,4109.358887,4255.512695,4283.974121,4219.487305,4259.487305,4263.589844,4257.307617,4239.487305,4225.769043,4382.94873,4410.769043,4163.461426,4331.410156,6250,3,58,,,,0,4,4,4,4,4,4,4,4,4,4,4,4,4,4,100,,,,,,,,,,,,,,,,,,,,,,,,,,,,,,,,,,,,,,,,,,,,,,,,,,,,,,,,,,,,,,,,,,,,,,,,,,,,,,,,,,,,,,,,,,,,,,,,,,,,,,,,,,,,,,,,,,,,,,,,,,,,,,,,,,,,,,
1702360574,1702360574,108,0,4243.589844,4098.974121,4260.128418,4284.871582,4214.102539,4256.538574,4267.436035,4270.384766,4250.256348,4218.461426,4412.05127,4428.846191,4186.666504,4341.538574,6781,3,58,,,,0,4,4,4,4,4,4,4,4,4,4,4,4,4,4,100,,,,,,,,,,,,,,,,,27,0,0.6761,-0.235229,-0.670166,-0.196045,0.949823,-0.059089,-0.016604,-9.532298,-7.268116,91.570862,,,,,,,,,,,,,,,,,,,,,,,,,,,,,,,,,,,,,,,,,,,,,,,,,,,,,,,,,,,,,,,,,,,,,,,,,,,,,,,,,,,,,,,,,,,,,,,,,,,,,,,,,,
1702360574,1702360574,109,0,4247.692383,4110.641113,4263.333496,4294.230957,4220.512695,4248.461426,4261.282227,4263.461426,4247.820313,4214.358887,4429.871582,4430,4212.436035,4343.589844,7025,3,58,,,,0,4,4,4,4,4,4,4,4,4,4,4,4,4,4,100,1,25,1,1,3,1,3,4,4,4,4,3,1,3,1,1,,,,,,,,,,,,,,,,,,,,,,,,,,,,,,,,,,,,,,,,,,,,,,,,,14.241299,3.163891,1.767301,0.431417,0.84824,40.350002,5.318089,1.866153,0.583658,0.708491,7.844036,1.712836,1.592314,0.451139,0.686972,9.193716,2.291624,1.77384,0.453695,0.716518,10.039348,2.47289,1.450397,0.620154,0.592218,1.988094,0.88482,0.790123,0.36266,0.451004,1.928045,1.706747,1.20045,0.469728,0.527279,1.00816,1.817582,1.237053,0.366333,0.547564,1.672363,1.734472,1.601773,0.40384,0.781141,3.889991,2.577963,1.145253,0.698731,1.639289,9.288958,2.769093,2.909226,0.824865,1.437281,6.621325,2.782413,2.636788,0.675935,1.117797,22.458488,4.863098,3.60121,0.989329,1.545092,16.735762,4.00614,2.447769,0.586829,0.986684
1702360574,1702360574,110,0,4253.717773,4110,4272.436035,4297.05127,4217.692383,4255.641113,4264.871582,4269.358887,4260.384766,4247.820313,4438.846191,4436.538574,4231.922852,4354.230957,5888,3,58,,,,0,4,4,4,4,4,4,4,4,4,4,4,4,4,4,100,,,,,,,,,,,,,,,,,,,,,,,,,,,,,,,,,,,,,,,,,,,,,,,,,,,,,,,,,,,,,,,,,,,,,,,,,,,,,,,,,,,,,,,,,,,,,,,,,,,,,,,,,,,,,,,,,,,,,,,,,,,,,,,,,,,,,,
1702360574,1702360574,111,0,4261.153809,4105,4280.512695,4298.846191,4221.282227,4262.692383,4268.589844,4281.282227,4278.717773,4272.179688,4451.538574,4448.205078,4232.179688,4363.205078,6250,3,58,,,,0,4,4,4,4,4,4,4,4,4,4,4,4,4,4,100,,,,,,,,,,,,,,,,,,,,,,,,,,,,,,,,,,,,,,,,,,,,,,,,,,,,,,,,,,,,,,,,,,,,,,,,,,,,,,,,,,,,,,,,,,,,,,,,,,,,,,,,,,,,,,,,,,,,,,,,,,,,,,,,,,,,,,
1702360574,1702360574,112,0,4260.769043,4119.102539,4275.128418,4305.897461,4228.974121,4259.487305,4267.05127,4276.538574,4275.256348,4252.820313,4449.615234,4445.256348,4224.871582,4358.077148,6781,3,58,,,,0,4,4,4,4,4,4,4,4,4,4,4,4,4,4,100,,,,,,,,,,,,,,,,,28,0,0.67752,-0.237305,-0.66571,-0.203674,0.993774,0.010743,-0.012697,-9.412402,-7.191304,91.697113,,,,,,,,,,,,,,,,,,,,,,,,,,,,,,,,,,,,,,,,,,,,,,,,,,,,,,,,,,,,,,,,,,,,,,,,,,,,,,,,,,,,,,,,,,,,,,,,,,,,,,,,,,
1702360574,1702360574,113,0,4261.025879,4127.692383,4274.102539,4311.538574,4224.230957,4262.05127,4271.025879,4275.897461,4270.897461,4243.461426,4437.307617,4442.436035,4234.230957,4360,7025,3,58,,,,0,4,4,4,4,4,4,4,4,4,4,4,4,4,4,100,,,,,,,,,,,,,,,,,,,,,,,,,,,,,,,,,,,,,,,,,,,,,,,,,,,,,,,,,,,,,,,,,,,,,,,,,,,,,,,,,,,,,,,,,,,,,,,,,,,,,,,,,,,,,,,,,,,,,,,,,,,,,,,,,,,,,,
1702360574,1702360574,114,0,4263.974121,4123.717773,4278.461426,4311.922852,4218.333496,4260.641113,4267.307617,4275.256348,4275.384766,4256.794922,4429.871582,4443.717773,4235.769043,4367.436035,5888,3,58,,,,0,4,4,4,4,4,4,4,4,4,4,4,4,4,4,100,,,,,,,,,,,,,,,,,,,,,,,,,,,,,,,,,,,,,,,,,,,,,,,,,,,,,,,,,,,,,,,,,,,,,,,,,,,,,,,,,,,,,,,,,,,,,,,,,,,,,,,,,,,,,,,,,,,,,,,,,,,,,,,,,,,,,,
1702360574,1702360574,115,0,4269.102539,4141.794922,4283.077148,4321.794922,4222.436035,4259.230957,4265.384766,4267.820313,4278.846191,4264.102539,4434.615234,4447.94873,4226.922852,4370,6250,3,58,,,,0,4,4,4,4,4,4,4,4,4,4,4,4,4,4,100,,,,,,,,,,,,,,,,,,,,,,,,,,,,,,,,,,,,,,,,,,,,,,,,,,,,,,,,,,,,,,,,,,,,,,,,,,,,,,,,,,,,,,,,,,,,,,,,,,,,,,,,,,,,,,,,,,,,,,,,,,,,,,,,,,,,,,
1702360574,1702360574,116,0,4265.769043,4148.846191,4279.358887,4325.128418,4218.974121,4262.94873,4275.128418,4268.333496,4278.461426,4263.077148,4438.205078,4446.410156,4220.769043,4364.615234,6781,3,58,,,,0,4,4,4,4,4,4,4,4,4,4,4,4,4,4,100,,,,,,,,,,,,,,,,,29,0,0.67902,-0.238953,-0.662109,-0.208435,1.023074,0.016115,0.010255,-9.287828,-7.138841,91.777397,,,,,,,,,,,,,,,,,,,,,,,,,,,,,,,,,,,,,,,,,,,,,,,,,,,,,,,,,,,,,,,,,,,,,,,,,,,,,,,,,,,,,,,,,,,,,,,,,,,,,,,,,,
1702360574,1702360574,117,0,4254.358887,4132.307617,4267.94873,4317.05127,4213.846191,4260.641113,4273.461426,4264.230957,4265.641113,4247.05127,4421.922852,4426.538574,4198.461426,4354.615234,7025,3,58,,,,0,4,4,4,4,4,4,4,4,4,4,4,4,4,4,100,,,,,,,,,,,,,,,,,,,,,,,,,,,,,,,,,,,,,,,,,,,,,,,,,,,,,,,,,,,,,,,,,,,,,,,,,,,,,,,,,,,,,,,,,,,,,,,,,,,,,,,,,,,,,,,,,,,,,,,,,,,,,,,,,,,,,,
1702360574,1702360574,118,0,4258.846191,4143.846191,4268.974121,4316.666504,4215.512695,4255.512695,4259.743652,4256.282227,4258.333496,4239.743652,4415.512695,4414.615234,4186.922852,4354.743652,5888,3,58,,,,0,4,4,4,4,4,4,4,4,4,4,4,4,4,4,100,,,,,,,,,,,,,,,,,,,,,,,,,,,,,,,,,,,,,,,,,,,,,,,,,,,,,,,,,,,,,,,,,,,,,,,,,,,,,,,,,,,,,,,,,,,,,,,,,,,,,,,,,,,,,,,,,,,,,,,,,,,,,,,,,,,,,,
1702360574,1702360574,119,0,4265,4157.05127,4274.102539,4318.589844,4220.512695,4254.102539,4260.897461,4265.512695,4263.717773,4257.307617,4426.025879,4421.922852,4196.410156,4355.256348,6250,3,58,,,,0,4,4,4,4,4,4,4,4,4,4,4,4,4,4,100,,,,,,,,,,,,,,,,,,,,,,,,,,,,,,,,,,,,,,,,,,,,,,,,,,,,,,,,,,,,,,,,,,,,,,,,,,,,,,,,,,,,,,,,,,,,,,,,,,,,,,,,,,,,,,,,,,,,,,,,,,,,,,,,,,,,,,
1702360574,1702360574,120,0,4251.538574,4132.563965,4266.025879,4311.666504,4226.538574,4255.384766,4274.743652,4279.743652,4267.820313,4255.769043,4419.743652,4420,4187.94873,4344.358887,6781,3,58,,,,0,4,4,4,4,4,4,4,4,4,4,4,4,4,4,100,,,,,,,,,,,,,,,,,30,0,0.679782,-0.24054,-0.660034,-0.210693,1.029423,-0.018557,0.033696,-9.225712,-7.30829,91.932991,,,,,,,,,,,,,,,,,,,,,,,,,,,,,,,,,,,,,,,,,,,,,,,,,,,,,,,,,,,,,,,,,,,,,,,,,,,,,,,,,,,,,,,,,,,,,,,,,,,,,,,,,,
1702360574,1702360574,121,0,4241.794922,4124.102539,4259.487305,4307.94873,4225.769043,4258.717773,4272.436035,4277.307617,4272.179688,4237.179688,4402.179688,4409.230957,4167.05127,4338.333496,7025,3,58,,,,0,4,4,4,4,4,4,4,4,4,4,4,4,4,4,100,,,,,,,,,,,,,,,,,,,,,,,,,,,,,,,,,,,,,,,,,,,,,,,,,,,,,,,,,,,,,,,,,,,,,,,,,,,,,,,,,,,,,,,,,,,,,,,,,,,,,,,,,,,,,,,,,,,,,,,,,,,,,,,,,,,,,,
1702360574,1702360574,122,0,4246.666504,4143.461426,4264.743652,4312.692383,4225.384766,4259.102539,4262.436035,4279.487305,4283.717773,4253.974121,4407.307617,4417.179688,4163.589844,4342.820313,5888,3,58,,,,0,4,4,4,4,4,4,4,4,4,4,4,4,4,4,100,,,,,,,,,,,,,,,,,,,,,,,,,,,,,,,,,,,,,,,,,,,,,,,,,,,,,,,,,,,,,,,,,,,,,,,,,,,,,,,,,,,,,,,,,,,,,,,,,,,,,,,,,,,,,,,,,,,,,,,,,,,,,,,,,,,,,,
1702360574,1702360574,123,0,4243.077148,4139.743652,4265.128418,4307.820313,4229.358887,4254.871582,4267.692383,4287.820313,4291.153809,4269.358887,4418.974121,4426.410156,4165,4340,6250,3,58,,,,0,4,4,4,4,4,4,4,4,4,4,4,4,4,4,100,,,,,,,,,,,,,,,,,,,,,,,,,,,,,,,,,,,,,,,,,,,,,,,,,,,,,,,,,,,,,,,,,,,,,,,,,,,,,,,,,,,,,,,,,,,,,,,,,,,,,,,,,,,,,,,,,,,,,,,,,,,,,,,,,,,,,,
1702360574,1702360574,124,0,4239.358887,4132.820313,4262.436035,4303.205078,4230.897461,4257.94873,4276.666504,4283.974121,4291.025879,4248.077148,4411.666504,4418.205078,4161.538574,4335.769043,6781,3,58,,,,0,4,4,4,4,4,4,4,4,4,4,4,4,4,4,100,,,,,,,,,,,,,,,,,31,0,0.67988,-0.241821,-0.659485,-0.210632,1.036259,-0.027347,0.022464,-9.086474,-7.410794,91.839691,,,,,,,,,,,,,,,,,,,,,,,,,,,,,,,,,,,,,,,,,,,,,,,,,,,,,,,,,,,,,,,,,,,,,,,,,,,,,,,,,,,,,,,,,,,,,,,,,,,,,,,,,,
1702360574,1702360574,125,0,4244.487305,4143.846191,4268.205078,4314.743652,4239.230957,4263.846191,4269.487305,4279.102539,4293.333496,4243.589844,4406.025879,4412.307617,4164.871582,4338.846191,7025,3,58,,,,0,4,4,4,4,4,4,4,4,4,4,4,4,4,4,100,,,,,,,,,,,,,,,,,,,,,,,,,,,,,,,,,,,,,,,,,,,,,,,,,,,,,,,,,,,,,,,,,20.045778,3.213299,1.699164,0.436072,0.931072,66.8993,6.519569,1.922048,0.611728,0.740205,9.2085,1.858526,1.541989,0.491983,0.734942,15.947083,2.671369,2.02003,0.471949,0.751026,9.370885,2.519872,1.649582,0.578062,0.683965,1.970755,0.878169,0.792755,0.370634,0.465341,2.233242,1.77176,1.142513,0.536996,0.551403,1.363707,2.038913,1.145148,0.434328,0.578468,2.175546,2.24864,1.410957,0.46189,0.825424,4.887943,2.990898,1.02501,0.686258,1.722882,10.418073,2.8335,2.466406,0.801714,1.581048,8.131618,2.977701,2.2673,0.727477,1.220953,34.144676,4.902649,3.146272,1.141172,1.678626,22.603481,4.038393,2.269379,0.559271,1.059437
1702360574,1702360574,126,0,4250.384766,4158.974121,4275.769043,4321.922852,4249.487305,4261.538574,4265.384766,4279.487305,4293.974121,4254.358887,4415.384766,4420,4173.205078,4346.153809,5888,3,58,,,,0,4,4,4,4,4,4,4,4,4,4,4,4,4,4,100,,,,,,,,,,,,,,,,,,,,,,,,,,,,,,,,,,,,,,,,,,,,,,,,,,,,,,,,,,,,,,,,,,,,,,,,,,,,,,,,,,,,,,,,,,,,,,,,,,,,,,,,,,,,,,,,,,,,,,,,,,,,,,,,,,,,,,
1702360574,1702360574,127,0,4254.102539,4166.666504,4277.307617,4312.179688,4246.153809,4262.05127,4275,4283.333496,4290,4244.230957,4425.897461,4431.538574,4180.897461,4353.333496,58,3,58,,,,0,4,4,4,4,4,4,4,4,4,4,4,4,4,4,100,,,,,,,,,,,,,,,,,,,,,,,,,,,,,,,,,,,,,,,,,,,,,,,,,,,,,,,,,,,,,,,,,,,,,,,,,,,,,,,,,,,,,,,,,,,,,,,,,,,,,,,,,,,,,,,,,,,,,,,,,,,,,,,,,,,,,,
1702360574,1702360574,0,0,4263.717773,4164.487305,4283.717773,4311.153809,4255,4269.358887,4281.153809,4292.436035,4295.512695,4253.717773,4432.179688,4443.333496,4191.282227,4362.307617,5412,3,58,,,,0,4,4,4,4,4,4,4,4,4,4,4,4,4,4,100,,,,,,,,,,,,,,,,,0,0,0.679059,-0.244446,-0.65979,-0.20929,0.989379,-0.043462,0.008302,-9.01116,-7.519715,92.005722,,,,,,,,,,,,,,,,,,,,,,,,,,,,,,,,,,,,,,,,,,,,,,,,,,,,,,,,,,,,,,,,,,,,,,,,,,,,,,,,,,,,,,,,,,,,,,,,,,,,,,,,,,
1702360574,1702360574,1,0,4286.666504,4176.922852,4304.102539,4328.974121,4278.077148,4278.974121,4285.641113,4298.333496,4306.922852,4285.128418,4444.487305,4460.512695,4207.05127,4379.230957,5484,3,58,,,,0,4,4,4,4,4,4,4,4,4,4,4,4,4,4,100,,,,,,,,,,,,,,,,,,,,,,,,,,,,,,,,,,,,,,,,,,,,,,,,,,,,,,,,,,,,,,,,,,,,,,,,,,,,,,,,,,,,,,,,,,,,,,,,,,,,,,,,,,,,,,,,,,,,,,,,,,,,,,,,,,,,,,
1702360574,1702360574,2,0,4295.641113,4191.666504,4308.077148,4333.205078,4274.743652,4282.436035,4285.512695,4292.307617,4302.05127,4280.256348,4447.307617,4465.512695,4210.512695,4384.358887,5362,3,58,,,,0,4,4,4,4,4,4,4,4,4,4,4,4,4,4,100,,,,,,,,,,,,,,,,,,,,,,,,,,,,,,,,,,,,,,,,,,,,,,,,,,,,,,,,,,,,,,,,,,,,,,,,,,,,,,,,,,,,,,,,,,,,,,,,,,,,,,,,,,,,,,,,,,,,,,,,,,,,,,,,,,,,,,
1702360574,1702360574,3,0,4280.769043,4187.692383,4292.307617,4326.538574,4260.641113,4277.820313,4281.025879,4287.94873,4292.820313,4257.692383,4438.205078,4455.384766,4202.820313,4373.077148,5362,3,58,,,,0,4,4,4,4,4,4,4,4,4,4,4,4,4,4,100,,,,,,,,,,,,,,,,,,,,,,,,,,,,,,,,,,,,,,,,,,,,,,,,,,,,,,,,,,,,,,,,,,,,,,,,,,,,,,,,,,,,,,,,,,,,,,,,,,,,,,,,,,,,,,,,,,,,,,,,,,,,,,,,,,,,,,
1702360574,1702360574,4,0,4281.153809,4188.717773,4298.717773,4335.256348,4261.025879,4281.153809,4289.358887,4294.743652,4303.205078,4269.871582,4449.358887,4459.358887,4212.94873,4375.128418,5335,3,58,,,,0,4,4,4,4,4,4,4,4,4,4,4,4,4,4,100,,,,,,,,,,,,,,,,,1,0,0.677437,-0.246582,-0.661316,-0.207214,0.966915,-0.063484,0.00293,-8.826711,-7.53441,92.038483,,,,,,,,,,,,,,,,,,,,,,,,,,,,,,,,,,,,,,,,,,,,,,,,,,,,,,,,,,,,,,,,,,,,,,,,,,,,,,,,,,,,,,,,,,,,,,,,,,,,,,,,,,
1702360574,1702360574,5,0,4300.128418,4202.179688,4314.871582,4348.333496,4267.05127,4284.871582,4296.538574,4304.487305,4320.641113,4297.563965,4465.641113,4472.307617,4231.410156,4390.256348,5202,3,58,,,,0,4,4,4,4,4,4,4,4,4,4,4,4,4,4,100,,,,,,,,,,,,,,,,,,,,,,,,,,,,,,,,,,,,,,,,,,,,,,,,,,,,,,,,,,,,,,,,,,,,,,,,,,,,,,,,,,,,,,,,,,,,,,,,,,,,,,,,,,,,,,,,,,,,,,,,,,,,,,,,,,,,,,
1702360574,1702360574,6,0,4297.436035,4205.641113,4306.153809,4344.358887,4268.589844,4273.589844,4285.256348,4303.461426,4321.794922,4298.589844,4453.974121,4466.922852,4237.05127,4385.897461,5088,3,58,,,,0,4,4,4,4,4,4,4,4,4,4,4,4,4,4,100,,,,,,,,,,,,,,,,,,,,,,,,,,,,,,,,,,,,,,,,,,,,,,,,,,,,,,,,,,,,,,,,,,,,,,,,,,,,,,,,,,,,,,,,,,,,,,,,,,,,,,,,,,,,,,,,,,,,,,,,,,,,,,,,,,,,,,
1702360574,1702360574,7,0,4277.692383,4198.333496,4290.769043,4330.641113,4253.974121,4261.025879,4273.589844,4286.410156,4300.641113,4273.461426,4433.205078,4447.820313,4228.333496,4366.922852,5133,3,58,,,,0,4,4,4,4,4,4,4,4,4,4,4,4,4,4,100,,,,,,,,,,,,,,,,,,,,,,,,,,,,,,,,,,,,,,,,,,,,,,,,,,,,,,,,,,,,,,,,,,,,,,,,,,,,,,,,,,,,,,,,,,,,,,,,,,,,,,,,,,,,,,,,,,,,,,,,,,,,,,,,,,,,,,
1702360574,1702360574,8,0,4274.743652,4198.077148,4290.897461,4327.563965,4241.410156,4262.05127,4272.820313,4275.256348,4280.897461,4254.871582,4430.641113,4440.641113,4218.846191,4363.461426,5283,3,58,,,,0,4,4,4,4,4,4,4,4,4,4,4,4,4,4,100,,,,,,,,,,,,,,,,,2,0,0.675694,-0.246826,-0.663025,-0.207153,0.990844,-0.047369,-0.022952,-8.89404,-7.747636,92.084641,,,,,,,,,,,,,,,,,,,,,,,,,,,,,,,,,,,,,,,,,,,,,,,,,,,,,,,,,,,,,,,,,,,,,,,,,,,,,,,,,,,,,,,,,,,,,,,,,,,,,,,,,,
1702360574,1702360574,9,0,4283.461426,4202.436035,4296.538574,4338.589844,4258.333496,4271.282227,4275.641113,4280.128418,4285.384766,4265.897461,4442.179688,4451.794922,4228.717773,4375.641113,5354,3,58,,,,0,4,4,4,4,4,4,4,4,4,4,4,4,4,4,100,,,,,,,,,,,,,,,,,,,,,,,,,,,,,,,,,,,,,,,,,,,,,,,,,,,,,,,,,,,,,,,,,,,,,,,,,,,,,,,,,,,,,,,,,,,,,,,,,,,,,,,,,,,,,,,,,,,,,,,,,,,,,,,,,,,,,,
1702360574,1702360574,10,0,4284.743652,4201.794922,4296.922852,4344.743652,4265.641113,4276.025879,4277.94873,4284.358887,4301.153809,4274.230957,4450.128418,4463.077148,4249.615234,4379.743652,5881,3,58,,,,0,4,4,4,4,4,4,4,4,4,4,4,4,4,4,100,,,,,,,,,,,,,,,,,,,,,,,,,,,,,,,,,,,,,,,,,,,,,,,,,,,,,,,,,,,,,,,,,,,,,,,,,,,,,,,,,,,,,,,,,,,,,,,,,,,,,,,,,,,,,,,,,,,,,,,,,,,,,,,,,,,,,,
1702360574,1702360574,11,0,4280,4199.487305,4293.974121,4337.05127,4243.333496,4274.487305,4278.077148,4281.282227,4296.153809,4263.846191,4446.794922,4456.794922,4255.769043,4371.538574,6240,3,58,,,,0,4,4,4,4,4,4,4,4,4,4,4,4,4,4,100,,,,,,,,,,,,,,,,,,,,,,,,,,,,,,,,,,,,,,,,,,,,,,,,,,,,,,,,,,,,,,,,,,,,,,,,,,,,,,,,,,,,,,,,,,,,,,,,,,,,,,,,,,,,,,,,,,,,,,,,,,,,,,,,,,,,,,
1702360574,1702360574,12,0,4280.897461,4201.666504,4293.461426,4329.487305,4240.641113,4273.077148,4275.641113,4279.487305,4281.153809,4263.333496,4443.461426,4448.717773,4258.589844,4369.871582,6761,3,58,,,,0,4,4,4,4,4,4,4,4,4,4,4,4,4,4,100,,,,,,,,,,,,,,,,,3,0,0.674135,-0.246338,-0.664429,-0.208313,0.968868,-0.059089,-0.023929,-8.937969,-7.822872,92.226173,,,,,,,,,,,,,,,,,,,,,,,,,,,,,,,,,,,,,,,,,,,,,,,,,,,,,,,,,,,,,,,,,,,,,,,,,,,,,,,,,,,,,,,,,,,,,,,,,,,,,,,,,,
