Timestamp,OriginalTimestamp,EEG.Counter,EEG.Interpolated,EEG.AF3,EEG.F7,EEG.F3,EEG.FC5,EEG.T7,EEG.P7,EEG.O1,EEG.O2,EEG.P8,EEG.T8,EEG.FC6,EEG.F4,EEG.F8,EEG.AF4,EEG.RawCq,EEG.Battery,EEG.BatteryPercent,MarkerIndex,MarkerType,MarkerValueInt,EEG.MarkerHardware,CQ.AF3,CQ.F7,CQ.F3,CQ.FC5,CQ.T7,CQ.P7,CQ.O1,CQ.O2,CQ.P8,CQ.T8,CQ.FC6,CQ.F4,CQ.F8,CQ.AF4,CQ.Overall,EQ.SampleRateQuality,EQ.OVERALL,EQ.AF3,EQ.F7,EQ.F3,EQ.FC5,EQ.T7,EQ.P7,EQ.O1,EQ.O2,EQ.P8,EQ.T8,EQ.FC6,EQ.F4,EQ.F8,EQ.AF4,MOT.CounterMems,MOT.InterpolatedMems,MOT.Q0,MOT.Q1,MOT.Q2,MOT.Q3,MOT.AccX,MOT.AccY,MOT.AccZ,MOT.MagX,MOT.MagY,MOT.MagZ,PM.Attention.IsActive,PM.Attention.Scaled,PM.Attention.Raw,PM.Attention.Min,PM.Attention.Max,PM.Engagement.IsActive,PM.Engagement.Scaled,PM.Engagement.Raw,PM.Engagement.Min,PM.Engagement.Max,PM.Excitement.IsActive,PM.Excitement.Scaled,PM.Excitement.Raw,PM.Excitement.Min,PM.Excitement.Max,PM.LongTermExcitement,PM.Stress.IsActive,PM.Stress.Scaled,PM.Stress.Raw,PM.Stress.Min,PM.Stress.Max,PM.Relaxation.IsActive,PM.Relaxation.Scaled,PM.Relaxation.Raw,PM.Relaxation.Min,PM.Relaxation.Max,PM.Interest.IsActive,PM.Interest.Scaled,PM.Interest.Raw,PM.Interest.Min,PM.Interest.Max,PM.Focus.IsActive,PM.Focus.Scaled,PM.Focus.Raw,PM.Focus.Min,PM.Focus.Max,POW.AF3.Theta,POW.AF3.Alpha,POW.AF3.BetaL,POW.AF3.BetaH,POW.AF3.Gamma,POW.F7.Theta,POW.F7.Alpha,POW.F7.BetaL,POW.F7.BetaH,POW.F7.Gamma,POW.F3.Theta,POW.F3.Alpha,POW.F3.BetaL,POW.F3.BetaH,POW.F3.Gamma,POW.FC5.Theta,POW.FC5.Alpha,POW.FC5.BetaL,POW.FC5.BetaH,POW.FC5.Gamma,POW.T7.Theta,POW.T7.Alpha,POW.T7.BetaL,POW.T7.BetaH,POW.T7.Gamma,POW.P7.Theta,POW.P7.Alpha,POW.P7.BetaL,POW.P7.BetaH,POW.P7.Gamma,POW.O1.Theta,POW.O1.Alpha,POW.O1.BetaL,POW.O1.BetaH,POW.O1.Gamma,POW.O2.Theta,POW.O2.Alpha,POW.O2.BetaL,POW.O2.BetaH,POW.O2.Gamma,POW.P8.Theta,POW.P8.Alpha,POW.P8.BetaL,POW.P8.BetaH,POW.P8.Gamma,POW.T8.Theta,POW.T8.Alpha,POW.T8.BetaL,POW.T8.BetaH,POW.T8.Gamma,POW.FC6.Theta,POW.FC6.Alpha,POW.FC6.BetaL,POW.FC6.BetaH,POW.FC6.Gamma,POW.F4.Theta,POW.F4.Alpha,POW.F4.BetaL,POW.F4.BetaH,POW.F4.Gamma,POW.F8.Theta,POW.F8.Alpha,POW.F8.BetaL,POW.F8.BetaH,POW.F8.Gamma,POW.AF4.Theta,POW.AF4.Alpha,POW.AF4.BetaL,POW.AF4.BetaH,POW.AF4.Gamma
,,,,,,,,,,,,,,,,,,,,,,,,,,,,,,,,,,,,,,,,,,,,,,,,,,,,,,,,,,,,,,,,,,,,,,,,,,,,,,,,,,,,,,,,,,,,,,,,,,,,,,,,,,,,,,,,,,,,,,,,,,,,,,,,,,,,,,,,,,,,,,,,,,,,,,,,,,,,,,,,,,,,,,,,,,,,,
1702631018,1702631018,4,0,4181.153809,4339.615234,4443.333496,4210.512695,4257.563965,4246.922852,4264.487305,4284.230957,4241.922852,4275.512695,4463.717773,4366.025879,4244.487305,4457.94873,5439,4,81,,,,0,4,4,4,4,4,4,4,4,4,4,4,4,4,4,100,,,,,,,,,,,,,,,,,1,0,0.342016,-0.620972,-0.131714,-0.692871,0.968868,-0.20608,0.153827,-5.621009,-6.813699,92.884857,,,,,,,,,,,,,,,,,,,,,,,,,,,,,,,,,,,,,,,,,,,,,,,,,,,,,,,,,,,,,,,,,,,,,,,,,,,,,,,,,,,,,,,,,,,,,,,,,,,,,,,,,,
1702631018,1702631018,5,0,4194.871582,4305,4442.820313,4250.897461,4268.717773,4248.846191,4265,4291.538574,4250.256348,4268.846191,4469.743652,4370.641113,4261.922852,4458.077148,5293,4,81,,,,0,4,4,4,4,4,4,4,4,4,4,4,4,4,4,100,,,,,,,,,,,,,,,,,,,,,,,,,,,,,,,,,,,,,,,,,,,,,,,,,,,,,,,,,,,,,,,,,21.456209,4.634132,0.834036,1.13651,2.551452,82.694855,5.728832,3.015122,3.057993,10.317677,51.101269,2.691045,0.981129,0.622114,1.124858,45.060787,3.603351,1.799972,3.439884,7.206735,32.074142,2.669002,0.860178,1.356047,2.572263,34.581818,3.62562,2.292778,4.572155,7.044134,12.98879,1.861036,0.969441,1.806805,3.446277,24.624645,3.094767,1.655947,1.307744,3.561553,29.565058,5.74541,2.265216,2.683045,7.462933,73.775764,8.526782,1.644704,1.689619,5.140059,37.855934,9.537165,1.841136,1.791943,5.03042,25.177847,4.202495,0.821994,0.918571,2.163032,66.055656,6.784906,4.347827,1.187027,3.595323,53.475945,7.773125,0.726641,1.642627,3.851108
1702631018,1702631018,6,0,4198.077148,4296.153809,4432.94873,4247.563965,4238.077148,4233.077148,4251.025879,4280.384766,4237.94873,4242.692383,4454.871582,4361.794922,4262.692383,4444.487305,3877,4,81,,,,0,4,4,4,4,4,4,4,4,4,4,4,4,4,4,100,,,,,,,,,,,,,,,,,,,,,,,,,,,,,,,,,,,,,,,,,,,,,,,,,,,,,,,,,,,,,,,,,,,,,,,,,,,,,,,,,,,,,,,,,,,,,,,,,,,,,,,,,,,,,,,,,,,,,,,,,,,,,,,,,,,,,,
1702631018,1702631018,7,0,4199.743652,4294.358887,4430.256348,4243.077148,4224.102539,4227.94873,4254.102539,4272.05127,4222.05127,4233.974121,4455.897461,4357.563965,4272.436035,4438.717773,4933,4,81,,,,0,4,4,4,4,4,4,4,4,4,4,4,4,4,4,100,,,,,,,,,,,,,,,,,,,,,,,,,,,,,,,,,,,,,,,,,,,,,,,,,,,,,,,,,,,,,,,,,,,,,,,,,,,,,,,,,,,,,,,,,,,,,,,,,,,,,,,,,,,,,,,,,,,,,,,,,,,,,,,,,,,,,,
1702631018,1702631018,8,0,4214.615234,4277.179688,4435.897461,4275.769043,4247.563965,4237.179688,4264.487305,4286.153809,4243.205078,4246.794922,4478.205078,4365.897461,4294.487305,4447.179688,5444,4,81,,,,0,4,4,4,4,4,4,4,4,4,4,4,4,4,4,100,,,,,,,,,,,,,,,,,2,0,0.341993,-0.620972,-0.131775,-0.692871,0.9508,-0.20901,0.145526,-5.558908,-6.898996,92.829704,,,,,,,,,,,,,,,,,,,,,,,,,,,,,,,,,,,,,,,,,,,,,,,,,,,,,,,,,,,,,,,,,,,,,,,,,,,,,,,,,,,,,,,,,,,,,,,,,,,,,,,,,,
1702631018,1702631018,9,0,4219.102539,4262.05127,4433.589844,4288.077148,4255.769043,4236.153809,4259.230957,4288.846191,4253.974121,4239.102539,4478.461426,4366.025879,4297.179688,4442.436035,5457,4,81,,,,0,4,4,4,4,4,4,4,4,4,4,4,4,4,4,100,,,,,,,,,,,,,,,,,,,,,,,,,,,,,,,,,,,,,,,,,,,,,,,,,,,,,,,,,,,,,,,,,,,,,,,,,,,,,,,,,,,,,,,,,,,,,,,,,,,,,,,,,,,,,,,,,,,,,,,,,,,,,,,,,,,,,,
1702631018,1702631018,10,0,4196.666504,4268.461426,4419.615234,4253.333496,4235.897461,4219.487305,4242.563965,4260.512695,4214.230957,4212.820313,4441.794922,4346.410156,4276.538574,4413.333496,6063,4,81,,,,0,4,4,4,4,4,4,4,4,4,4,4,4,4,4,100,,,,,,,,,,,,,,,,,,,,,,,,,,,,,,,,,,,,,,,,,,,,,,,,,,,,,,,,,,,,,,,,,,,,,,,,,,,,,,,,,,,,,,,,,,,,,,,,,,,,,,,,,,,,,,,,,,,,,,,,,,,,,,,,,,,,,,
1702631018,1702631018,11,0,4177.436035,4282.307617,4414.230957,4222.563965,4216.922852,4207.820313,4233.333496,4240.897461,4183.974121,4194.871582,4413.717773,4330.384766,4261.153809,4391.666504,6255,4,81,,,,0,4,4,4,4,4,4,4,4,4,4,4,4,4,4,100,,,,,,,,,,,,,,,,,,,,,,,,,,,,,,,,,,,,,,,,,,,,,,,,,,,,,,,,,,,,,,,,,,,,,,,,,,,,,,,,,,,,,,,,,,,,,,,,,,,,,,,,,,,,,,,,,,,,,,,,,,,,,,,,,,,,,,
1702631018,1702631018,12,0,4181.538574,4258.205078,4422.307617,4241.794922,4218.461426,4213.205078,4240.769043,4252.307617,4201.794922,4192.692383,4423.974121,4339.102539,4262.692383,4394.230957,6806,4,81,,,,0,4,4,4,4,4,4,4,4,4,4,4,4,4,4,100,,,,,,,,,,,,,,,,,3,0,0.342004,-0.620911,-0.131714,-0.692932,0.958125,-0.212428,0.153827,-5.486351,-6.925763,92.846741,,,,,,,,,,,,,,,,,,,,,,,,,,,,,,,,,,,,,,,,,,,,,,,,,,,,,,,,,,,,,,,,,,,,,,,,,,,,,,,,,,,,,,,,,,,,,,,,,,,,,,,,,,
1702631018,1702631018,13,0,4191.666504,4226.153809,4425.897461,4278.846191,4235.128418,4221.410156,4250.384766,4271.025879,4224.230957,4209.102539,4438.461426,4351.282227,4273.974121,4403.717773,4338,4,81,,,,0,4,4,4,4,4,4,4,4,4,4,4,4,4,4,100,,,,,,,,,,,,,,,,,,,,,,,,,,,,,,,,,,,,,,,,,,,,,,,,,,,,,,,,,,,,,,,,,,,,,,,,,,,,,,,,,,,,,,,,,,,,,,,,,,,,,,,,,,,,,,,,,,,,,,,,,,,,,,,,,,,,,,
1702631018,1702631018,14,0,4180.769043,4246.922852,4417.307617,4264.871582,4226.666504,4209.358887,4239.615234,4263.333496,4208.589844,4210.384766,4415.769043,4338.333496,4263.717773,4390.384766,6063,4,81,,,,0,4,4,4,4,4,4,4,4,4,4,4,4,4,4,100,,,,,,,,,,,,,,,,,,,,,,,,,,,,,,,,,,,,,,,,,,,,,,,,,,,,,,,,,,,,,,,,,,,,,,,,,,,,,,,,,,,,,,,,,,,,,,,,,,,,,,,,,,,,,,,,,,,,,,,,,,,,,,,,,,,,,,
1702631018,1702631018,15,0,4160.256348,4258.589844,4408.077148,4239.358887,4204.871582,4195.384766,4224.487305,4244.102539,4189.230957,4182.307617,4385.512695,4325.512695,4231.025879,4368.333496,6255,4,81,,,,0,4,4,4,4,4,4,4,4,4,4,4,4,4,4,100,,,,,,,,,,,,,,,,,,,,,,,,,,,,,,,,,,,,,,,,,,,,,,,,,,,,,,,,,,,,,,,,,,,,,,,,,,,,,,,,,,,,,,,,,,,,,,,,,,,,,,,,,,,,,,,,,,,,,,,,,,,,,,,,,,,,,,
1702631018,1702631018,16,0,4170.512695,4212.307617,4404.871582,4270.512695,4224.102539,4205.897461,4234.871582,4246.666504,4196.538574,4184.358887,4394.871582,4338.205078,4227.307617,4374.743652,0,4,81,,,,0,4,4,4,4,4,4,4,4,4,4,4,4,4,4,100,,,,,,,,,,,,,,,,,4,0,0.341863,-0.620972,-0.13147,-0.692993,0.955195,-0.207057,0.145526,-5.337716,-6.949853,92.978729,,,,,,,,,,,,,,,,,,,,,,,,,,,,,,,,,,,,,,,,,,,,,,,,,,,,,,,,,,,,,,,,,,,,,,,,,,,,,,,,,,,,,,,,,,,,,,,,,,,,,,,,,,
1702631018,1702631018,17,0,4186.794922,4184.230957,4403.461426,4300.256348,4237.94873,4211.922852,4241.538574,4252.692383,4197.692383,4208.717773,4409.358887,4347.05127,4239.102539,4387.05127,0,4,81,,,,0,4,4,4,4,4,4,4,4,4,4,4,4,4,4,100,,,,,,,,,,,,,,,,,,,,,,,,,,,,,,,,,,,,,,,,,,,,,,,,,,,,,,,,,,,,,,,,,,,,,,,,,,,,,,,,,,,,,,,,,,,,,,,,,,,,,,,,,,,,,,,,,,,,,,,,,,,,,,,,,,,,,,
1702631018,1702631018,18,0,4166.794922,4206.666504,4403.333496,4277.436035,4208.077148,4197.179688,4225.897461,4237.820313,4181.794922,4189.487305,4390.384766,4334.358887,4211.410156,4370.512695,0,4,81,,,,0,4,4,4,4,4,4,4,4,4,4,4,4,4,4,100,,,,,,,,,,,,,,,,,,,,,,,,,,,,,,,,,,,,,,,,,,,,,,,,,,,,,,,,,,,,,,,,,,,,,,,,,,,,,,,,,,,,,,,,,,,,,,,,,,,,,,,,,,,,,,,,,,,,,,,,,,,,,,,,,,,,,,
1702631018,1702631018,19,0,4154.358887,4222.307617,4409.102539,4262.94873,4201.666504,4194.102539,4225.384766,4229.102539,4176.410156,4170.256348,4377.692383,4329.871582,4184.102539,4357.436035,0,4,81,,,,0,4,4,4,4,4,4,4,4,4,4,4,4,4,4,100,,,,,,,,,,,,,,,,,,,,,,,,,,,,,,,,,,,,,,,,,,,,,,,,,,,,,,,,,,,,,,,,,,,,,,,,,,,,,,,,,,,,,,,,,,,,,,,,,,,,,,,,,,,,,,,,,,,,,,,,,,,,,,,,,,,,,,
1702631018,1702631018,20,0,4164.230957,4211.025879,4409.615234,4273.077148,4224.358887,4198.846191,4232.820313,4233.077148,4172.692383,4182.692383,4373.077148,4334.743652,4182.820313,4357.179688,0,4,81,,,,0,4,4,4,4,4,4,4,4,4,4,4,4,4,4,100,,,,,,,,,,,,,,,,,5,0,0.341782,-0.621094,-0.131104,-0.692993,0.957148,-0.212917,0.148456,-5.403944,-6.971535,93.130859,,,,,,,,,,,,,,,,,,,,,,,,,,,,,,,,,,,,,,,,,,,,,,,,,,,,,,,,,,,,,,,,,,,,,,,,,,,,,,,,,,,,,,,,,,,,,,,,,,,,,,,,,,
1702631018,1702631018,21,0,4152.692383,4215.384766,4405.512695,4267.94873,4218.077148,4188.205078,4222.563965,4224.487305,4156.410156,4176.922852,4347.820313,4325.769043,4167.820313,4343.077148,0,4,81,,,,0,4,4,4,4,4,4,4,4,4,4,4,4,4,4,100,1,0,1,1,0,0,1,1,1,1,1,1,1,1,0,1,,,,,,,,,,,,,,,,,,,,,,,,,,,,,,,,,,,,,,,,,,,,,,,,,18.994688,4.407064,0.913539,1.103418,2.335608,67.75502,4.678079,3.539382,3.122094,9.387103,46.99448,2.694767,1.281097,0.643166,0.937455,38.831715,3.197389,2.324744,3.515672,7.34374,27.21929,2.453668,0.917956,1.188734,2.229575,27.173248,2.953946,2.050353,3.361683,5.416523,10.831548,1.530209,1.046543,1.396067,2.751455,21.334702,2.793271,1.974857,1.138867,3.204295,25.909267,5.381657,2.64503,2.228336,6.485977,67.032028,7.736207,1.736195,1.500914,4.622632,34.383602,8.280255,2.254842,1.620725,4.547122,21.743032,3.233366,0.92164,0.858003,1.957014,57.157013,5.66582,4.481912,1.228598,3.488301,45.750591,6.987684,0.866404,1.498499,3.55865
1702631018,1702631018,22,0,4140.769043,4237.692383,4411.025879,4261.410156,4204.615234,4182.820313,4217.692383,4215.769043,4152.05127,4164.230957,4336.153809,4319.487305,4155.256348,4336.794922,0,4,81,,,,0,4,4,4,4,4,4,4,4,4,4,4,4,4,4,100,,,,,,,,,,,,,,,,,,,,,,,,,,,,,,,,,,,,,,,,,,,,,,,,,,,,,,,,,,,,,,,,,,,,,,,,,,,,,,,,,,,,,,,,,,,,,,,,,,,,,,,,,,,,,,,,,,,,,,,,,,,,,,,,,,,,,,
1702631018,1702631018,23,0,4156.153809,4231.153809,4419.871582,4281.538574,4219.102539,4193.717773,4227.692383,4220.641113,4154.487305,4171.666504,4352.05127,4332.05127,4170,4351.666504,0,4,81,,,,0,4,4,4,4,4,4,4,4,4,4,4,4,4,4,100,,,,,,,,,,,,,,,,,,,,,,,,,,,,,,,,,,,,,,,,,,,,,,,,,,,,,,,,,,,,,,,,,,,,,,,,,,,,,,,,,,,,,,,,,,,,,,,,,,,,,,,,,,,,,,,,,,,,,,,,,,,,,,,,,,,,,,
1702631018,1702631018,24,0,4175.641113,4203.846191,4424.102539,4312.94873,4241.794922,4208.461426,4239.358887,4239.230957,4171.794922,4195.897461,4377.307617,4352.436035,4189.487305,4373.717773,0,4,81,,,,0,4,4,4,4,4,4,4,4,4,4,4,4,4,4,100,,,,,,,,,,,,,,,,,6,0,0.341705,-0.621094,-0.130981,-0.693054,0.954218,-0.207545,0.151874,-5.280216,-6.924381,93.217773,,,,,,,,,,,,,,,,,,,,,,,,,,,,,,,,,,,,,,,,,,,,,,,,,,,,,,,,,,,,,,,,,,,,,,,,,,,,,,,,,,,,,,,,,,,,,,,,,,,,,,,,,,
1702631018,1702631018,25,0,4180.128418,4191.153809,4427.307617,4323.333496,4251.410156,4215,4246.410156,4262.692383,4205.128418,4213.461426,4394.230957,4362.692383,4193.077148,4387.563965,0,4,81,,,,0,4,4,4,4,4,4,4,4,4,4,4,4,4,4,100,,,,,,,,,,,,,,,,,,,,,,,,,,,,,,,,,,,,,,,,,,,,,,,,,,,,,,,,,,,,,,,,,,,,,,,,,,,,,,,,,,,,,,,,,,,,,,,,,,,,,,,,,,,,,,,,,,,,,,,,,,,,,,,,,,,,,,
1702631018,1702631018,26,0,4168.077148,4177.94873,4426.538574,4304.230957,4240.512695,4208.717773,4237.179688,4257.179688,4196.922852,4198.333496,4375.256348,4353.589844,4172.307617,4370.256348,0,4,81,,,,0,4,4,4,4,4,4,4,4,4,4,4,4,4,4,100,,,,,,,,,,,,,,,,,,,,,,,,,,,,,,,,,,,,,,,,,,,,,,,,,,,,,,,,,,,,,,,,,,,,,,,,,,,,,,,,,,,,,,,,,,,,,,,,,,,,,,,,,,,,,,,,,,,,,,,,,,,,,,,,,,,,,,
1702631018,1702631018,27,0,4151.410156,4176.794922,4423.461426,4275.256348,4218.589844,4191.922852,4216.666504,4228.717773,4157.820313,4172.820313,4338.717773,4339.230957,4135.641113,4341.922852,0,4,81,,,,0,4,4,4,4,4,4,4,4,4,4,4,4,4,4,100,,,,,,,,,,,,,,,,,,,,,,,,,,,,,,,,,,,,,,,,,,,,,,,,,,,,,,,,,,,,,,,,,,,,,,,,,,,,,,,,,,,,,,,,,,,,,,,,,,,,,,,,,,,,,,,,,,,,,,,,,,,,,,,,,,,,,,
1702631018,1702631018,28,0,4150.128418,4201.282227,4432.94873,4268.077148,4213.077148,4185,4214.487305,4225.512695,4153.077148,4164.871582,4336.922852,4335.384766,4144.102539,4341.410156,0,4,81,,,,0,4,4,4,4,4,4,4,4,4,4,4,4,4,4,100,,,,,,,,,,,,,,,,,7,0,0.34147,-0.621155,-0.130981,-0.693115,0.964962,-0.202173,0.143084,-5.352195,-6.94861,93.145996,,,,,,,,,,,,,,,,,,,,,,,,,,,,,,,,,,,,,,,,,,,,,,,,,,,,,,,,,,,,,,,,,,,,,,,,,,,,,,,,,,,,,,,,,,,,,,,,,,,,,,,,,,
1702631018,1702631018,29,0,4154.871582,4192.307617,4445.512695,4283.333496,4217.05127,4196.538574,4223.205078,4234.358887,4161.666504,4151.410156,4349.743652,4333.333496,4186.666504,4346.666504,0,4,81,,,,0,4,4,4,4,4,4,4,4,4,4,4,4,4,4,100,,,,,,,,,,,,,,,,,,,,,,,,,,,,,,,,,,,,,,,,,,,,,,,,,,,,,,,,,,,,,,,,,,,,,,,,,,,,,,,,,,,,,,,,,,,,,,,,,,,,,,,,,,,,,,,,,,,,,,,,,,,,,,,,,,,,,,
1702631018,1702631018,30,0,4148.846191,4163.846191,4440.384766,4286.025879,4212.563965,4192.94873,4214.487305,4220,4148.333496,4171.666504,4338.589844,4337.307617,4142.563965,4343.846191,0,4,81,,,,0,4,4,4,4,4,4,4,4,4,4,4,4,4,4,100,,,,,,,,,,,,,,,,,,,,,,,,,,,,,,,,,,,,,,,,,,,,,,,,,,,,,,,,,,,,,,,,,,,,,,,,,,,,,,,,,,,,,,,,,,,,,,,,,,,,,,,,,,,,,,,,,,,,,,,,,,,,,,,,,,,,,,
1702631018,1702631018,31,0,4155.256348,4178.205078,4445.256348,4296.922852,4218.589844,4185.512695,4214.102539,4220.256348,4158.077148,4174.487305,4341.282227,4339.487305,4139.230957,4348.077148,0,4,81,,,,0,4,4,4,4,4,4,4,4,4,4,4,4,4,4,100,,,,,,,,,,,,,,,,,,,,,,,,,,,,,,,,,,,,,,,,,,,,,,,,,,,,,,,,,,,,,,,,,,,,,,,,,,,,,,,,,,,,,,,,,,,,,,,,,,,,,,,,,,,,,,,,,,,,,,,,,,,,,,,,,,,,,,
1702631018,1702631018,32,0,4152.820313,4184.615234,4454.743652,4308.589844,4217.820313,4191.410156,4221.282227,4232.179688,4170.384766,4121.666504,4333.974121,4334.487305,4162.94873,4340.256348,0,4,81,,,,0,4,4,4,4,4,4,4,4,4,4,4,4,4,4,100,,,,,,,,,,,,,,,,,8,0,0.341088,-0.621216,-0.131042,-0.693237,0.957636,-0.195336,0.146014,-5.316975,-6.903749,92.981392,,,,,,,,,,,,,,,,,,,,,,,,,,,,,,,,,,,,,,,,,,,,,,,,,,,,,,,,,,,,,,,,,,,,,,,,,,,,,,,,,,,,,,,,,,,,,,,,,,,,,,,,,,
1702631018,1702631018,33,0,4132.94873,4153.333496,4445.256348,4298.205078,4207.563965,4193.461426,4217.307617,4220.512695,4162.05127,4335.256348,4311.922852,4422.307617,3745.897461,4400.897461,0,4,81,,,,0,4,4,4,4,4,4,4,4,4,4,4,4,4,4,100,,,,,,,,,,,,,,,,,,,,,,,,,,,,,,,,,,,,,,,,,,,,,,,,,,,,,,,,,,,,,,,,,,,,,,,,,,,,,,,,,,,,,,,,,,,,,,,,,,,,,,,,,,,,,,,,,,,,,,,,,,,,,,,,,,,,,,
1702631018,1702631018,34,0,4145.769043,4143.333496,4444.102539,4308.205078,4222.563965,4190.641113,4219.743652,4218.717773,4189.358887,4817.94873,4345.641113,4590.256348,3002.94873,4564.743652,0,4,81,,,,0,4,4,4,4,4,4,4,4,4,4,4,4,4,4,100,,,,,,,,,,,,,,,,,,,,,,,,,,,,,,,,,,,,,,,,,,,,,,,,,,,,,,,,,,,,,,,,,,,,,,,,,,,,,,,,,,,,,,,,,,,,,,,,,,,,,,,,,,,,,,,,,,,,,,,,,,,,,,,,,,,,,,
1702631018,1702631018,35,0,4170.256348,4154.615234,4458.077148,4337.179688,4238.974121,4199.230957,4230.128418,4238.077148,4231.025879,5056.922852,4402.94873,4664.743652,2618.333252,4662.05127,0,4,81,,,,0,4,4,4,4,4,4,4,4,4,4,4,4,4,4,100,,,,,,,,,,,,,,,,,,,,,,,,,,,,,,,,,,,,,,,,,,,,,,,,,,,,,,,,,,,,,,,,,,,,,,,,,,,,,,,,,,,,,,,,,,,,,,,,,,,,,,,,,,,,,,,,,,,,,,,,,,,,,,,,,,,,,,
1702631018,1702631018,36,0,4166.922852,4129.743652,4452.563965,4348.589844,4234.871582,4207.820313,4236.794922,4254.487305,4255.769043,5011.922852,4416.538574,4647.179688,2608.974365,4647.563965,0,4,81,,,,0,4,4,4,4,4,4,4,4,4,4,4,4,4,4,100,,,,,,,,,,,,,,,,,9,0,0.340863,-0.621216,-0.130981,-0.693359,0.955683,-0.204615,0.146991,-5.301944,-6.713374,92.933258,,,,,,,,,,,,,,,,,,,,,,,,,,,,,,,,,,,,,,,,,,,,,,,,,,,,,,,,,,,,,,,,,,,,,,,,,,,,,,,,,,,,,,,,,,,,,,,,,,,,,,,,,,
1702631018,1702631018,37,0,4153.589844,4116.153809,4428.077148,4320.641113,4226.282227,4195.897461,4225,4248.846191,4260.641113,5016.922852,4400.897461,4644.487305,2550,4638.717773,0,4,81,,,,0,4,4,4,4,4,4,4,4,4,4,4,4,4,4,100,,,,,,,,,,,,,,,,,,,,,,,,,,,,,,,,,,,,,,,,,,,,,,,,,,,,,,,,,,,,,,,,,15.998413,3.870549,1.060996,1.084313,2.122699,48.399097,3.642467,3.880273,3.113408,8.425034,42.558876,2.749588,1.566384,0.66942,0.757383,32.183826,2.94259,3.087265,3.626992,7.48394,21.288086,2.138532,0.921117,1.012454,1.899043,19.412077,2.35985,1.852745,2.313196,3.831064,8.252651,1.182929,1.119874,1.030228,2.074865,17.35788,2.336989,2.217788,0.983384,2.818911,21.850731,4.608665,3.034107,1.752272,5.373867,55.845795,6.283352,1.826335,1.337489,4.091053,30.200956,6.580568,2.749128,1.472643,4.123207,16.983934,2.231608,1.013099,0.797342,1.752853,46.000809,4.980693,4.597724,1.35915,3.406744,36.659397,5.835704,1.065677,1.374542,3.251853
1702631018,1702631018,38,0,4148.717773,4145.384766,4426.794922,4281.794922,4218.974121,4191.794922,4215.128418,4235.641113,4246.153809,5042.820313,4400.641113,4644.230957,2480.256348,4647.820313,0,4,81,,,,0,4,4,4,4,4,4,4,4,4,4,4,4,4,4,100,,,,,,,,,,,,,,,,,,,,,,,,,,,,,,,,,,,,,,,,,,,,,,,,,,,,,,,,,,,,,,,,,,,,,,,,,,,,,,,,,,,,,,,,,,,,,,,,,,,,,,,,,,,,,,,,,,,,,,,,,,,,,,,,,,,,,,
1702631018,1702631018,39,0,4147.307617,4158.077148,4443.205078,4271.922852,4211.794922,4200,4222.307617,4238.846191,4240.128418,4989.487305,4407.307617,4627.692383,2512.307617,4636.794922,0,4,81,,,,0,4,4,4,4,4,4,4,4,4,4,4,4,4,4,100,,,,,,,,,,,,,,,,,,,,,,,,,,,,,,,,,,,,,,,,,,,,,,,,,,,,,,,,,,,,,,,,,,,,,,,,,,,,,,,,,,,,,,,,,,,,,,,,,,,,,,,,,,,,,,,,,,,,,,,,,,,,,,,,,,,,,,
1702631018,1702631018,40,0,4150.641113,4130.512695,4445.641113,4294.230957,4216.538574,4199.102539,4226.410156,4251.794922,4259.102539,4957.820313,4411.794922,4624.615234,2529.487061,4629.871582,0,4,81,,,,0,4,4,4,4,4,4,4,4,4,4,4,4,4,4,100,,,,,,,,,,,,,,,,,10,0,0.341034,-0.621216,-0.130859,-0.693298,0.955683,-0.195825,0.166524,-5.288416,-6.92537,92.939926,,,,,,,,,,,,,,,,,,,,,,,,,,,,,,,,,,,,,,,,,,,,,,,,,,,,,,,,,,,,,,,,,,,,,,,,,,,,,,,,,,,,,,,,,,,,,,,,,,,,,,,,,,
1702631018,1702631018,41,0,4151.410156,4104.358887,4438.717773,4310.256348,4237.94873,4194.102539,4219.230957,4251.666504,4264.871582,4939.487305,4413.974121,4617.692383,2542.307617,4625.769043,0,4,81,,,,0,4,4,4,4,4,4,4,4,4,4,4,4,4,4,100,,,,,,,,,,,,,,,,,,,,,,,,,,,,,,,,,,,,,,,,,,,,,,,,,,,,,,,,,,,,,,,,,,,,,,,,,,,,,,,,,,,,,,,,,,,,,,,,,,,,,,,,,,,,,,,,,,,,,,,,,,,,,,,,,,,,,,
1702631018,1702631018,42,0,4153.333496,4113.717773,4441.922852,4312.05127,4254.102539,4206.153809,4225,4251.538574,4260.384766,4910.128418,4418.333496,4612.820313,2571.025635,4628.077148,0,4,81,,,,0,4,4,4,4,4,4,4,4,4,4,4,4,4,4,100,,,,,,,,,,,,,,,,,,,,,,,,,,,,,,,,,,,,,,,,,,,,,,,,,,,,,,,,,,,,,,,,,,,,,,,,,,,,,,,,,,,,,,,,,,,,,,,,,,,,,,,,,,,,,,,,,,,,,,,,,,,,,,,,,,,,,,
1702631018,1702631018,43,0,4171.282227,4122.563965,4448.717773,4342.436035,4254.230957,4229.615234,4247.94873,4271.282227,4279.615234,4894.743652,4440.897461,4618.589844,2591.410156,4643.717773,0,4,81,,,,0,4,4,4,4,4,4,4,4,4,4,4,4,4,4,100,,,,,,,,,,,,,,,,,,,,,,,,,,,,,,,,,,,,,,,,,,,,,,,,,,,,,,,,,,,,,,,,,,,,,,,,,,,,,,,,,,,,,,,,,,,,,,,,,,,,,,,,,,,,,,,,,,,,,,,,,,,,,,,,,,,,,,
1702631018,1702631018,44,0,4173.974121,4126.666504,4437.94873,4352.179688,4248.846191,4226.153809,4246.025879,4273.589844,4282.179688,4864.230957,4445.641113,4604.871582,2613.076904,4634.743652,0,4,81,,,,0,4,4,4,4,4,4,4,4,4,4,4,4,4,4,100,,,,,,,,,,,,,,,,,11,0,0.341228,-0.621216,-0.130676,-0.693237,0.952265,-0.204615,0.157734,-5.242908,-6.899499,92.979271,,,,,,,,,,,,,,,,,,,,,,,,,,,,,,,,,,,,,,,,,,,,,,,,,,,,,,,,,,,,,,,,,,,,,,,,,,,,,,,,,,,,,,,,,,,,,,,,,,,,,,,,,,
1702631018,1702631018,45,0,4164.102539,4157.436035,4435.641113,4325,4261.025879,4207.307617,4226.794922,4260.641113,4275.641113,4803.333496,4433.589844,4584.102539,2644.743652,4614.487305,0,4,81,,,,0,4,4,4,4,4,4,4,4,4,4,4,4,4,4,100,,,,,,,,,,,,,,,,,,,,,,,,,,,,,,,,,,,,,,,,,,,,,,,,,,,,,,,,,,,,,,,,,,,,,,,,,,,,,,,,,,,,,,,,,,,,,,,,,,,,,,,,,,,,,,,,,,,,,,,,,,,,,,,,,,,,,,
1702631018,1702631018,46,0,4178.846191,4182.05127,4452.307617,4337.563965,4273.461426,4230.769043,4240.128418,4273.461426,4290.897461,4748.205078,4448.846191,4579.230957,2697.820557,4615,0,4,81,,,,0,4,4,4,4,4,4,4,4,4,4,4,4,4,4,100,,,,,,,,,,,,,,,,,,,,,,,,,,,,,,,,,,,,,,,,,,,,,,,,,,,,,,,,,,,,,,,,,,,,,,,,,,,,,,,,,,,,,,,,,,,,,,,,,,,,,,,,,,,,,,,,,,,,,,,,,,,,,,,,,,,,,,
1702631018,1702631018,47,0,4190.641113,4152.307617,4455.256348,4382.94873,4268.077148,4268.205078,4266.538574,4287.436035,4289.615234,4709.871582,4470,4567.692383,2777.05127,4607.94873,0,4,81,,,,0,4,4,4,4,4,4,4,4,4,4,4,4,4,4,100,,,,,,,,,,,,,,,,,,,,,,,,,,,,,,,,,,,,,,,,,,,,,,,,,,,,,,,,,,,,,,,,,,,,,,,,,,,,,,,,,,,,,,,,,,,,,,,,,,,,,,,,,,,,,,,,,,,,,,,,,,,,,,,,,,,,,,
1702631018,1702631018,48,0,4170.897461,4126.025879,4442.563965,4376.538574,4256.025879,4240.384766,4251.538574,4270.512695,4262.692383,4646.794922,4447.179688,4533.205078,2864.615479,4570.641113,0,4,81,,,,0,4,4,4,4,4,4,4,4,4,4,4,4,4,4,100,,,,,,,,,,,,,,,,,12,0,0.34142,-0.621094,-0.130432,-0.693298,0.953241,-0.22073,0.153339,-5.201951,-6.926216,92.848007,,,,,,,,,,,,,,,,,,,,,,,,,,,,,,,,,,,,,,,,,,,,,,,,,,,,,,,,,,,,,,,,,,,,,,,,,,,,,,,,,,,,,,,,,,,,,,,,,,,,,,,,,,
1702631019,1702631019,49,0,4155.512695,4149.358887,4442.307617,4350.641113,4255.641113,4207.436035,4231.153809,4260.769043,4255.897461,4586.794922,4424.743652,4514.871582,2920.641113,4543.333496,0,4,81,,,,0,4,4,4,4,4,4,4,4,4,4,4,4,4,4,100,,,,,,,,,,,,,,,,,,,,,,,,,,,,,,,,,,,,,,,,,,,,,,,,,,,,,,,,,,,,,,,,,,,,,,,,,,,,,,,,,,,,,,,,,,,,,,,,,,,,,,,,,,,,,,,,,,,,,,,,,,,,,,,,,,,,,,
1702631019,1702631019,50,0,4167.436035,4147.179688,4446.153809,4385,4275.769043,4234.230957,4254.358887,4282.436035,4277.563965,4574.230957,4445.512695,4522.820313,2937.94873,4548.717773,0,4,81,,,,0,4,4,4,4,4,4,4,4,4,4,4,4,4,4,100,,,,,,,,,,,,,,,,,,,,,,,,,,,,,,,,,,,,,,,,,,,,,,,,,,,,,,,,,,,,,,,,,,,,,,,,,,,,,,,,,,,,,,,,,,,,,,,,,,,,,,,,,,,,,,,,,,,,,,,,,,,,,,,,,,,,,,
1702631019,1702631019,51,0,4173.974121,4147.692383,4440,4396.666504,4291.538574,4250.128418,4266.410156,4287.563965,4281.794922,4565.128418,4448.846191,4522.563965,2949.487061,4550.512695,0,4,81,,,,0,4,4,4,4,4,4,4,4,4,4,4,4,4,4,100,,,,,,,,,,,,,,,,,,,,,,,,,,,,,,,,,,,,,,,,,,,,,,,,,,,,,,,,,,,,,,,,,,,,,,,,,,,,,,,,,,,,,,,,,,,,,,,,,,,,,,,,,,,,,,,,,,,,,,,,,,,,,,,,,,,,,,
1702631019,1702631019,52,0,4171.153809,4185.641113,4447.436035,4364.230957,4286.666504,4233.846191,4251.153809,4277.563965,4272.94873,4549.102539,4438.077148,4517.94873,2963.974365,4544.615234,0,4,81,,,,0,4,4,4,4,4,4,4,4,4,4,4,4,4,4,100,,,,,,,,,,,,,,,,,13,0,0.34143,-0.621033,-0.130371,-0.693359,0.956171,-0.207057,0.164571,-5.181756,-6.883595,92.963211,,,,,,,,,,,,,,,,,,,,,,,,,,,,,,,,,,,,,,,,,,,,,,,,,,,,,,,,,,,,,,,,,,,,,,,,,,,,,,,,,,,,,,,,,,,,,,,,,,,,,,,,,,
1702631019,1702631019,53,0,4172.307617,4194.230957,4460.384766,4376.538574,4286.282227,4239.230957,4251.666504,4283.717773,4276.794922,4548.077148,4450,4519.743652,2973.076904,4544.615234,0,4,81,,,,0,4,4,4,4,4,4,4,4,4,4,4,4,4,4,100,,,,,,,,,,,,,,,,,,,,,,,,,,,,,,,,,,,,,,,,,,,,,,,,,,,,,,,,,,,,,,,,,13.609488,3.186439,1.244247,1.087246,1.952118,30.90242,2.93101,3.999546,3.007997,7.554398,41.33559,2.821422,1.738973,0.69128,0.623201,26.248758,2.872651,3.862023,3.741134,7.456838,16.308218,1.811362,0.876261,0.887882,1.664422,13.490316,1.957433,1.715703,1.641231,2.662638,6.103043,0.900572,1.16458,0.784351,1.575732,14.031185,1.866266,2.347679,0.879287,2.478068,18.813541,3.731382,3.390214,1.386946,4.380247,43.57896,6.284125,2.515108,1.373965,3.716775,27.100103,5.021749,3.274848,1.387925,3.848534,11.850526,1.730139,1.166836,0.755692,1.594176,34.344212,5.929703,5.698541,1.964552,3.423416,29.019293,4.969557,1.38934,1.303265,3.000909
1702631019,1702631019,54,0,4181.410156,4172.436035,4458.205078,4413.333496,4301.282227,4259.871582,4267.436035,4295,4288.333496,4545,4466.282227,4522.436035,3004.871826,4552.436035,0,4,81,,,,0,4,4,4,4,4,4,4,4,4,4,4,4,4,4,100,,,,,,,,,,,,,,,,,,,,,,,,,,,,,,,,,,,,,,,,,,,,,,,,,,,,,,,,,,,,,,,,,,,,,,,,,,,,,,,,,,,,,,,,,,,,,,,,,,,,,,,,,,,,,,,,,,,,,,,,,,,,,,,,,,,,,,
1702631019,1702631019,55,0,4202.692383,4194.871582,4462.179688,4420.384766,4318.846191,4266.153809,4274.358887,4307.307617,4306.410156,4553.077148,4484.358887,4534.358887,3071.538574,4572.563965,0,4,81,,,,0,4,4,4,4,4,4,4,4,4,4,4,4,4,4,100,,,,,,,,,,,,,,,,,,,,,,,,,,,,,,,,,,,,,,,,,,,,,,,,,,,,,,,,,,,,,,,,,,,,,,,,,,,,,,,,,,,,,,,,,,,,,,,,,,,,,,,,,,,,,,,,,,,,,,,,,,,,,,,,,,,,,,
1702631019,1702631019,56,0,4218.333496,4206.922852,4475.641113,4433.846191,4328.205078,4272.436035,4277.436035,4322.179688,4321.410156,4570.641113,4506.153809,4546.538574,3121.666748,4587.563965,0,4,81,,,,0,4,4,4,4,4,4,4,4,4,4,4,4,4,4,100,,,,,,,,,,,,,,,,,14,0,0.34127,-0.620972,-0.130432,-0.693481,0.959101,-0.207057,0.147967,-5.146914,-6.945235,93.050224,,,,,,,,,,,,,,,,,,,,,,,,,,,,,,,,,,,,,,,,,,,,,,,,,,,,,,,,,,,,,,,,,,,,,,,,,,,,,,,,,,,,,,,,,,,,,,,,,,,,,,,,,,
1702631019,1702631019,57,0,4220.769043,4173.589844,4475.128418,4465,4340.897461,4285.384766,4284.102539,4331.666504,4327.563965,4566.538574,4515.641113,4544.743652,3143.461426,4591.153809,0,4,81,,,,0,4,4,4,4,4,4,4,4,4,4,4,4,4,4,100,,,,,,,,,,,,,,,,,,,,,,,,,,,,,,,,,,,,,,,,,,,,,,,,,,,,,,,,,,,,,,,,,,,,,,,,,,,,,,,,,,,,,,,,,,,,,,,,,,,,,,,,,,,,,,,,,,,,,,,,,,,,,,,,,,,,,,
1702631019,1702631019,58,0,4228.077148,4216.282227,4473.846191,4450.769043,4355,4292.436035,4287.563965,4332.692383,4329.871582,4552.307617,4515.384766,4542.179688,3182.564209,4597.179688,0,4,81,,,,0,4,4,4,4,4,4,4,4,4,4,4,4,4,4,100,,,,,,,,,,,,,,,,,,,,,,,,,,,,,,,,,,,,,,,,,,,,,,,,,,,,,,,,,,,,,,,,,,,,,,,,,,,,,,,,,,,,,,,,,,,,,,,,,,,,,,,,,,,,,,,,,,,,,,,,,,,,,,,,,,,,,,
1702631019,1702631019,59,0,4233.077148,4299.615234,4486.282227,4407.820313,4348.461426,4286.666504,4281.410156,4330.512695,4328.461426,4531.794922,4513.589844,4540.384766,3219.102539,4593.846191,0,4,81,,,,0,4,4,4,4,4,4,4,4,4,4,4,4,4,4,100,,,,,,,,,,,,,,,,,,,,,,,,,,,,,,,,,,,,,,,,,,,,,,,,,,,,,,,,,,,,,,,,,,,,,,,,,,,,,,,,,,,,,,,,,,,,,,,,,,,,,,,,,,,,,,,,,,,,,,,,,,,,,,,,,,,,,,
1702631019,1702631019,60,0,4228.974121,4318.846191,4493.846191,4391.153809,4335.128418,4283.589844,4277.05127,4332.820313,4323.974121,4512.436035,4512.05127,4535.512695,3239.487061,4584.743652,0,4,81,,,,0,4,4,4,4,4,4,4,4,4,4,4,4,4,4,100,,,,,,,,,,,,,,,,,15,0,0.341204,-0.62085,-0.130859,-0.693542,0.949335,-0.199243,0.142596,-4.998889,-7.067379,92.978531,,,,,,,,,,,,,,,,,,,,,,,,,,,,,,,,,,,,,,,,,,,,,,,,,,,,,,,,,,,,,,,,,,,,,,,,,,,,,,,,,,,,,,,,,,,,,,,,,,,,,,,,,,
1702631019,1702631019,61,0,4239.230957,4307.692383,4499.487305,4408.461426,4352.692383,4299.487305,4290.384766,4344.102539,4338.717773,4524.230957,4526.153809,4543.717773,3298.333252,4602.05127,0,4,81,,,,0,4,4,4,4,4,4,4,4,4,4,4,4,4,4,100,,,,,,,,,,,,,,,,,,,,,,,,,,,,,,,,,,,,,,,,,,,,,,,,,,,,,,,,,,,,,,,,,,,,,,,,,,,,,,,,,,,,,,,,,,,,,,,,,,,,,,,,,,,,,,,,,,,,,,,,,,,,,,,,,,,,,,
1702631019,1702631019,62,0,4258.461426,4301.153809,4512.820313,4438.846191,4380.256348,4318.205078,4306.153809,4359.871582,4366.410156,4531.922852,4546.025879,4555.641113,3360,4627.436035,0,4,81,,,,0,4,4,4,4,4,4,4,4,4,4,4,4,4,4,100,,,,,,,,,,,,,,,,,,,,,,,,,,,,,,,,,,,,,,,,,,,,,,,,,,,,,,,,,,,,,,,,,,,,,,,,,,,,,,,,,,,,,,,,,,,,,,,,,,,,,,,,,,,,,,,,,,,,,,,,,,,,,,,,,,,,,,
1702631019,1702631019,63,0,4271.922852,4300,4530.641113,4470.256348,4392.94873,4334.615234,4318.205078,4378.846191,4380.769043,4523.077148,4569.487305,4562.692383,3387.05127,4638.333496,0,4,81,,,,0,4,4,4,4,4,4,4,4,4,4,4,4,4,4,100,,,,,,,,,,,,,,,,,,,,,,,,,,,,,,,,,,,,,,,,,,,,,,,,,,,,,,,,,,,,,,,,,,,,,,,,,,,,,,,,,,,,,,,,,,,,,,,,,,,,,,,,,,,,,,,,,,,,,,,,,,,,,,,,,,,,,,
1702631019,1702631019,64,0,4301.794922,4307.94873,4552.307617,4505.897461,4418.205078,4358.974121,4339.743652,4403.589844,4401.794922,4558.589844,4615.512695,4583.077148,3454.743652,4668.974121,4702,4,81,,,,0,4,4,4,4,4,4,4,4,4,4,4,4,4,4,100,,,,,,,,,,,,,,,,,16,0,0.341241,-0.6203,-0.131104,-0.69397,0.970333,-0.206568,0.145526,-5.015666,-6.943974,92.814011,,,,,,,,,,,,,,,,,,,,,,,,,,,,,,,,,,,,,,,,,,,,,,,,,,,,,,,,,,,,,,,,,,,,,,,,,,,,,,,,,,,,,,,,,,,,,,,,,,,,,,,,,,
1702631019,1702631019,65,0,4316.282227,4306.153809,4555.512695,4513.205078,4438.333496,4367.692383,4343.333496,4406.025879,4414.615234,4590,4622.820313,4590.769043,3519.871826,4683.846191,5637,4,81,,,,0,4,4,4,4,4,4,4,4,4,4,4,4,4,4,100,,,,,,,,,,,,,,,,,,,,,,,,,,,,,,,,,,,,,,,,,,,,,,,,,,,,,,,,,,,,,,,,,,,,,,,,,,,,,,,,,,,,,,,,,,,,,,,,,,,,,,,,,,,,,,,,,,,,,,,,,,,,,,,,,,,,,,
1702631019,1702631019,66,0,4297.179688,4300.641113,4545.384766,4492.563965,4429.230957,4361.282227,4331.282227,4396.794922,4404.743652,4549.230957,4590,4572.436035,3505.641113,4657.94873,5452,4,81,,,,0,4,4,4,4,4,4,4,4,4,4,4,4,4,4,100,,,,,,,,,,,,,,,,,,,,,,,,,,,,,,,,,,,,,,,,,,,,,,,,,,,,,,,,,,,,,,,,,,,,,,,,,,,,,,,,,,,,,,,,,,,,,,,,,,,,,,,,,,,,,,,,,,,,,,,,,,,,,,,,,,,,,,
1702631019,1702631019,67,0,4296.282227,4330.384766,4548.461426,4483.846191,4422.563965,4363.077148,4334.743652,4403.846191,4406.666504,4521.282227,4599.102539,4564.102539,3519.358887,4655.769043,5464,4,81,,,,0,4,4,4,4,4,4,4,4,4,4,4,4,4,4,100,,,,,,,,,,,,,,,,,,,,,,,,,,,,,,,,,,,,,,,,,,,,,,,,,,,,,,,,,,,,,,,,,,,,,,,,,,,,,,,,,,,,,,,,,,,,,,,,,,,,,,,,,,,,,,,,,,,,,,,,,,,,,,,,,,,,,,
1702631019,1702631019,68,0,4302.436035,4336.794922,4542.563965,4474.615234,4416.282227,4360.256348,4335.641113,4398.461426,4406.153809,4538.077148,4605.769043,4560.641113,3575.512939,4667.820313,5387,4,81,,,,0,4,4,4,4,4,4,4,4,4,4,4,4,4,4,100,,,,,,,,,,,,,,,,,17,0,0.341242,-0.619812,-0.13147,-0.694336,0.9508,-0.185081,0.158222,-5.0141,-6.816243,92.849281,,,,,,,,,,,,,,,,,,,,,,,,,,,,,,,,,,,,,,,,,,,,,,,,,,,,,,,,,,,,,,,,,,,,,,,,,,,,,,,,,,,,,,,,,,,,,,,,,,,,,,,,,,
1702631019,1702631019,69,0,4294.358887,4315.641113,4532.05127,4463.461426,4411.282227,4354.615234,4326.922852,4385.384766,4392.692383,4538.589844,4583.205078,4548.717773,3587.820557,4660.641113,5222,4,81,,,,0,4,4,4,4,4,4,4,4,4,4,4,4,4,4,100,,,,,,,,,,,,,,,,,,,,,,,,,,,,,,,,,,,,,,,,,,,,,,,,,,,,,,,,,,,,,,,,,12.286939,2.494022,1.453787,1.110785,1.824921,18.948721,2.590054,3.94895,2.815664,6.84057,42.189316,2.802727,1.736374,0.695888,0.542833,21.325722,2.909774,4.546769,3.834334,7.172652,13.059427,1.510139,0.845677,0.85724,1.565397,10.459347,1.699776,1.60488,1.333253,2.007385,4.703006,0.697678,1.162445,0.662335,1.294035,11.856275,1.479183,2.382949,0.84017,2.203729,17.278488,3.005499,3.738301,1.208195,3.626205,48.834431,12.620598,6.497408,2.353882,3.779368,25.769733,3.931928,3.821491,1.409364,3.715902,9.29328,2.361908,1.835976,0.82413,1.51336,72.523849,21.036781,13.296364,4.971841,3.885003,26.039831,4.987136,2.266325,1.364127,2.839022
1702631019,1702631019,70,0,4310.897461,4325,4556.794922,4496.794922,4431.794922,4368.205078,4338.077148,4398.589844,4406.922852,4535.769043,4611.153809,4552.05127,3568.589844,4676.794922,3822,4,81,,,,0,4,4,4,4,4,4,4,4,4,4,4,4,4,4,100,,,,,,,,,,,,,,,,,,,,,,,,,,,,,,,,,,,,,,,,,,,,,,,,,,,,,,,,,,,,,,,,,,,,,,,,,,,,,,,,,,,,,,,,,,,,,,,,,,,,,,,,,,,,,,,,,,,,,,,,,,,,,,,,,,,,,,
1702631019,1702631019,71,0,4337.307617,4316.153809,4582.05127,4550.512695,4457.05127,4390.897461,4358.974121,4422.05127,4437.692383,4554.871582,4658.333496,4565.641113,3551.153809,4714.487305,4918,4,81,,,,0,4,4,4,4,4,4,4,4,4,4,4,4,4,4,100,,,,,,,,,,,,,,,,,,,,,,,,,,,,,,,,,,,,,,,,,,,,,,,,,,,,,,,,,,,,,,,,,,,,,,,,,,,,,,,,,,,,,,,,,,,,,,,,,,,,,,,,,,,,,,,,,,,,,,,,,,,,,,,,,,,,,,
1702631019,1702631019,72,0,4326.025879,4313.717773,4571.666504,4532.692383,4447.307617,4386.922852,4349.871582,4416.025879,4427.692383,4564.358887,4634.615234,4555.897461,3542.435791,4709.615234,5427,4,81,,,,0,4,4,4,4,4,4,4,4,4,4,4,4,4,4,100,,,,,,,,,,,,,,,,,18,0,0.34132,-0.619568,-0.131775,-0.694458,0.964962,-0.191918,0.153827,-4.979357,-6.867952,92.914352,,,,,,,,,,,,,,,,,,,,,,,,,,,,,,,,,,,,,,,,,,,,,,,,,,,,,,,,,,,,,,,,,,,,,,,,,,,,,,,,,,,,,,,,,,,,,,,,,,,,,,,,,,
1702631019,1702631019,73,0,4311.794922,4368.333496,4568.461426,4480.384766,4430,4371.282227,4333.333496,4401.025879,4404.871582,4552.563965,4602.820313,4539.230957,3568.974365,4685.512695,5439,4,81,,,,0,4,4,4,4,4,4,4,4,4,4,4,4,4,4,100,,,,,,,,,,,,,,,,,,,,,,,,,,,,,,,,,,,,,,,,,,,,,,,,,,,,,,,,,,,,,,,,,,,,,,,,,,,,,,,,,,,,,,,,,,,,,,,,,,,,,,,,,,,,,,,,,,,,,,,,,,,,,,,,,,,,,,
1702631019,1702631019,74,0,4327.307617,4373.461426,4572.94873,4504.871582,4445,4375.512695,4338.846191,4406.922852,4415.384766,4538.974121,4630.384766,4538.974121,3624.871826,4696.666504,6165,4,81,,,,0,4,4,4,4,4,4,4,4,4,4,4,4,4,4,100,,,,,,,,,,,,,,,,,,,,,,,,,,,,,,,,,,,,,,,,,,,,,,,,,,,,,,,,,,,,,,,,,,,,,,,,,,,,,,,,,,,,,,,,,,,,,,,,,,,,,,,,,,,,,,,,,,,,,,,,,,,,,,,,,,,,,,
1702631019,1702631019,75,0,4323.589844,4313.205078,4550.641113,4540.512695,4447.563965,4374.358887,4336.410156,4399.487305,4410,4501.794922,4637.307617,4526.282227,3644.743652,4689.615234,6244,4,81,,,,0,4,4,4,4,4,4,4,4,4,4,4,4,4,4,100,,,,,,,,,,,,,,,,,,,,,,,,,,,,,,,,,,,,,,,,,,,,,,,,,,,,,,,,,,,,,,,,,,,,,,,,,,,,,,,,,,,,,,,,,,,,,,,,,,,,,,,,,,,,,,,,,,,,,,,,,,,,,,,,,,,,,,
1702631019,1702631019,76,0,4306.922852,4306.666504,4534.615234,4507.94873,4426.794922,4365.641113,4329.487305,4386.282227,4389.871582,4462.307617,4618.461426,4506.025879,3658.076904,4658.717773,6815,4,81,,,,0,4,4,4,4,4,4,4,4,4,4,4,4,4,4,100,,,,,,,,,,,,,,,,,19,0,0.341462,-0.619141,-0.132446,-0.694641,0.969845,-0.186546,0.159687,-4.964754,-6.847824,92.839584,,,,,,,,,,,,,,,,,,,,,,,,,,,,,,,,,,,,,,,,,,,,,,,,,,,,,,,,,,,,,,,,,,,,,,,,,,,,,,,,,,,,,,,,,,,,,,,,,,,,,,,,,,
1702631019,1702631019,77,0,4315,4324.487305,4539.358887,4490.384766,4431.282227,4369.615234,4339.871582,4396.794922,4398.333496,4451.538574,4630.897461,4501.538574,3707.564209,4656.922852,4328,4,81,,,,0,4,4,4,4,4,4,4,4,4,4,4,4,4,4,100,,,,,,,,,,,,,,,,,,,,,,,,,,,,,,,,,,,,,,,,,,,,,,,,,,,,,,,,,,,,,,,,,,,,,,,,,,,,,,,,,,,,,,,,,,,,,,,,,,,,,,,,,,,,,,,,,,,,,,,,,,,,,,,,,,,,,,
1702631019,1702631019,78,0,4323.333496,4306.025879,4530.256348,4519.743652,4448.461426,4368.589844,4339.871582,4396.153809,4398.717773,4423.205078,4633.717773,4489.871582,3761.794922,4656.025879,6165,4,81,,,,0,4,4,4,4,4,4,4,4,4,4,4,4,4,4,100,,,,,,,,,,,,,,,,,,,,,,,,,,,,,,,,,,,,,,,,,,,,,,,,,,,,,,,,,,,,,,,,,,,,,,,,,,,,,,,,,,,,,,,,,,,,,,,,,,,,,,,,,,,,,,,,,,,,,,,,,,,,,,,,,,,,,,
1702631019,1702631019,79,0,4311.025879,4328.846191,4516.153809,4513.717773,4430.256348,4347.179688,4316.794922,4367.307617,4363.333496,4367.94873,4594.102539,4457.820313,3798.974365,4623.589844,6244,4,81,,,,0,4,4,4,4,4,4,4,4,4,4,4,4,4,4,100,,,,,,,,,,,,,,,,,,,,,,,,,,,,,,,,,,,,,,,,,,,,,,,,,,,,,,,,,,,,,,,,,,,,,,,,,,,,,,,,,,,,,,,,,,,,,,,,,,,,,,,,,,,,,,,,,,,,,,,,,,,,,,,,,,,,,,
1702631019,1702631019,80,0,4294.102539,4386.666504,4511.922852,4471.794922,4400.256348,4330.769043,4305.512695,4351.538574,4346.666504,4323.205078,4556.153809,4435.897461,3821.153809,4592.820313,6815,4,81,,,,0,4,4,4,4,4,4,4,4,4,4,4,4,4,4,100,,,,,,,,,,,,,,,,,20,0,0.341657,-0.618958,-0.133118,-0.69458,0.965938,-0.199243,0.159199,-5.068279,-6.879708,92.805626,,,,,,,,,,,,,,,,,,,,,,,,,,,,,,,,,,,,,,,,,,,,,,,,,,,,,,,,,,,,,,,,,,,,,,,,,,,,,,,,,,,,,,,,,,,,,,,,,,,,,,,,,,
1702631019,1702631019,81,0,4285.128418,4381.025879,4497.94873,4467.820313,4398.077148,4328.846191,4309.230957,4351.025879,4350.128418,4291.922852,4532.307617,4429.871582,3840.256348,4578.333496,4328,4,81,,,,0,4,4,4,4,4,4,4,4,4,4,4,4,4,4,100,,,,,,,,,,,,,,,,,,,,,,,,,,,,,,,,,,,,,,,,,,,,,,,,,,,,,,,,,,,,,,,,,,,,,,,,,,,,,,,,,,,,,,,,,,,,,,,,,,,,,,,,,,,,,,,,,,,,,,,,,,,,,,,,,,,,,,
1702631019,1702631019,82,0,4283.974121,4352.692383,4484.487305,4487.94873,4408.205078,4326.153809,4305.256348,4339.871582,4327.94873,4279.358887,4509.615234,4421.538574,3863.589844,4566.282227,6165,4,81,,,,0,4,4,4,4,4,4,4,4,4,4,4,4,4,4,100,,,,,,,,,,,,,,,,,,,,,,,,,,,,,,,,,,,,,,,,,,,,,,,,,,,,,,,,,,,,,,,,,,,,,,,,,,,,,,,,,,,,,,,,,,,,,,,,,,,,,,,,,,,,,,,,,,,,,,,,,,,,,,,,,,,,,,
1702631019,1702631019,83,0,4292.94873,4355.384766,4490.897461,4492.436035,4416.410156,4327.05127,4303.333496,4335.641113,4314.230957,4289.487305,4500.384766,4415.897461,3898.461426,4563.846191,6244,4,81,,,,0,4,4,4,4,4,4,4,4,4,4,4,4,4,4,100,,,,,,,,,,,,,,,,,,,,,,,,,,,,,,,,,,,,,,,,,,,,,,,,,,,,,,,,,,,,,,,,,,,,,,,,,,,,,,,,,,,,,,,,,,,,,,,,,,,,,,,,,,,,,,,,,,,,,,,,,,,,,,,,,,,,,,
1702631019,1702631019,84,0,4298.717773,4339.358887,4491.410156,4507.692383,4414.487305,4334.102539,4306.922852,4341.794922,4325.128418,4282.436035,4489.871582,4414.743652,3923.333252,4561.794922,6815,4,81,,,,0,4,4,4,4,4,4,4,4,4,4,4,4,4,4,100,,,,,,,,,,,,,,,,,21,0,0.342197,-0.618896,-0.133606,-0.694275,0.945428,-0.199731,0.157734,-5.211451,-6.691737,92.691727,,,,,,,,,,,,,,,,,,,,,,,,,,,,,,,,,,,,,,,,,,,,,,,,,,,,,,,,,,,,,,,,,,,,,,,,,,,,,,,,,,,,,,,,,,,,,,,,,,,,,,,,,,
1702631019,1702631019,85,0,4294.743652,4334.871582,4485.256348,4528.077148,4414.615234,4337.563965,4310.128418,4345.256348,4329.615234,4258.589844,4470.128418,4409.871582,3937.692383,4550.128418,4328,4,81,,,,0,4,4,4,4,4,4,4,4,4,4,4,4,4,4,100,1,0,1,1,1,0,1,1,1,1,1,0,1,1,0,1,,,,,,,,,,,,,,,,,,,,,,,,,,,,,,,,,,,,,,,,,,,,,,,,,11.657629,1.911673,1.697677,1.143509,1.708336,12.670001,2.487553,3.816262,2.631286,6.246996,42.932343,2.585163,1.557163,0.677671,0.498145,17.057877,2.971451,5.185228,3.936158,6.622735,11.344317,1.248382,0.912678,0.931288,1.574264,9.737351,1.473748,1.490942,1.220453,1.714495,3.977274,0.555503,1.118638,0.617953,1.16274,10.681973,1.22137,2.376052,0.855219,1.968554,17.214161,2.588965,4.135309,1.210339,3.078643,108.402321,31.522444,17.802637,5.397748,4.559474,26.032207,3.40704,4.387787,1.561123,3.628442,14.670046,4.759532,3.692254,1.140764,1.518153,243.446442,68.323242,36.370979,13.110093,5.328881,31.665075,6.549932,4.329694,1.666566,2.752602
1702631019,1702631019,86,0,4293.205078,4388.077148,4498.077148,4509.358887,4426.922852,4331.922852,4310.128418,4343.589844,4321.025879,4245.384766,4453.589844,4399.487305,3964.358887,4540.384766,6165,4,81,,,,0,4,4,4,4,4,4,4,4,4,4,4,4,4,4,100,,,,,,,,,,,,,,,,,,,,,,,,,,,,,,,,,,,,,,,,,,,,,,,,,,,,,,,,,,,,,,,,,,,,,,,,,,,,,,,,,,,,,,,,,,,,,,,,,,,,,,,,,,,,,,,,,,,,,,,,,,,,,,,,,,,,,,
1702631019,1702631019,87,0,4293.461426,4395.384766,4506.538574,4492.692383,4430.256348,4327.94873,4309.743652,4338.205078,4311.410156,4231.538574,4438.077148,4391.666504,3987.564209,4527.820313,6244,4,81,,,,0,4,4,4,4,4,4,4,4,4,4,4,4,4,4,100,,,,,,,,,,,,,,,,,,,,,,,,,,,,,,,,,,,,,,,,,,,,,,,,,,,,,,,,,,,,,,,,,,,,,,,,,,,,,,,,,,,,,,,,,,,,,,,,,,,,,,,,,,,,,,,,,,,,,,,,,,,,,,,,,,,,,,
1702631019,1702631019,88,0,4292.307617,4364.615234,4496.282227,4509.230957,4423.461426,4333.077148,4311.410156,4336.025879,4313.461426,4223.205078,4427.563965,4392.820313,4010.256348,4517.05127,6815,4,81,,,,0,4,4,4,4,4,4,4,4,4,4,4,4,4,4,100,,,,,,,,,,,,,,,,,22,0,0.342763,-0.618835,-0.134338,-0.693909,0.959101,-0.194848,0.152362,-5.240306,-6.672564,92.622559,,,,,,,,,,,,,,,,,,,,,,,,,,,,,,,,,,,,,,,,,,,,,,,,,,,,,,,,,,,,,,,,,,,,,,,,,,,,,,,,,,,,,,,,,,,,,,,,,,,,,,,,,,
1702631019,1702631019,89,0,4296.794922,4402.436035,4500.512695,4508.205078,4430.897461,4338.461426,4317.179688,4344.743652,4328.205078,4228.333496,4436.538574,4395.128418,4055,4522.307617,4328,4,81,,,,0,4,4,4,4,4,4,4,4,4,4,4,4,4,4,100,,,,,,,,,,,,,,,,,,,,,,,,,,,,,,,,,,,,,,,,,,,,,,,,,,,,,,,,,,,,,,,,,,,,,,,,,,,,,,,,,,,,,,,,,,,,,,,,,,,,,,,,,,,,,,,,,,,,,,,,,,,,,,,,,,,,,,
1702631019,1702631019,90,0,4302.307617,4416.794922,4511.922852,4494.230957,4444.615234,4340.128418,4321.410156,4355,4335.512695,4234.615234,4445.641113,4396.153809,4101.666504,4521.025879,6165,4,81,,,,0,4,4,4,4,4,4,4,4,4,4,4,4,4,4,100,,,,,,,,,,,,,,,,,,,,,,,,,,,,,,,,,,,,,,,,,,,,,,,,,,,,,,,,,,,,,,,,,,,,,,,,,,,,,,,,,,,,,,,,,,,,,,,,,,,,,,,,,,,,,,,,,,,,,,,,,,,,,,,,,,,,,,
1702631019,1702631019,91,0,4300.641113,4347.94873,4499.487305,4513.461426,4448.589844,4342.563965,4320.384766,4357.563965,4330.769043,4241.666504,4444.743652,4398.589844,4132.307617,4508.589844,6244,4,81,,,,0,4,4,4,4,4,4,4,4,4,4,4,4,4,4,100,,,,,,,,,,,,,,,,,,,,,,,,,,,,,,,,,,,,,,,,,,,,,,,,,,,,,,,,,,,,,,,,,,,,,,,,,,,,,,,,,,,,,,,,,,,,,,,,,,,,,,,,,,,,,,,,,,,,,,,,,,,,,,,,,,,,,,
1702631019,1702631019,92,0,4299.743652,4348.846191,4493.077148,4519.358887,4448.717773,4344.615234,4320.128418,4360.769043,4341.922852,4244.358887,4450,4401.025879,4160.641113,4507.436035,6815,4,81,,,,0,4,4,4,4,4,4,4,4,4,4,4,4,4,4,100,,,,,,,,,,,,,,,,,23,0,0.343673,-0.618591,-0.134399,-0.693665,0.967403,-0.207057,0.158711,-5.199609,-6.721974,92.52697,,,,,,,,,,,,,,,,,,,,,,,,,,,,,,,,,,,,,,,,,,,,,,,,,,,,,,,,,,,,,,,,,,,,,,,,,,,,,,,,,,,,,,,,,,,,,,,,,,,,,,,,,,
1702631019,1702631019,93,0,4295.384766,4403.717773,4499.487305,4479.102539,4435.256348,4336.794922,4317.05127,4357.563965,4344.615234,4225.128418,4444.743652,4392.820313,4179.487305,4497.307617,4328,4,81,,,,0,4,4,4,4,4,4,4,4,4,4,4,4,4,4,100,,,,,,,,,,,,,,,,,,,,,,,,,,,,,,,,,,,,,,,,,,,,,,,,,,,,,,,,,,,,,,,,,,,,,,,,,,,,,,,,,,,,,,,,,,,,,,,,,,,,,,,,,,,,,,,,,,,,,,,,,,,,,,,,,,,,,,
1702631019,1702631019,94,0,4282.94873,4371.153809,4486.153809,4448.205078,4420,4326.666504,4313.077148,4344.743652,4319.230957,4215.641113,4430.769043,4382.05127,4192.94873,4469.102539,6165,4,81,,,,0,4,4,4,4,4,4,4,4,4,4,4,4,4,4,100,,,,,,,,,,,,,,,,,,,,,,,,,,,,,,,,,,,,,,,,,,,,,,,,,,,,,,,,,,,,,,,,,,,,,,,,,,,,,,,,,,,,,,,,,,,,,,,,,,,,,,,,,,,,,,,,,,,,,,,,,,,,,,,,,,,,,,
1702631019,1702631019,95,0,4276.282227,4327.692383,4470.512695,4427.94873,4424.102539,4325.128418,4309.358887,4336.538574,4305,4244.871582,4420.769043,4382.436035,4234.358887,4454.487305,6244,4,81,,,,0,4,4,4,4,4,4,4,4,4,4,4,4,4,4,100,,,,,,,,,,,,,,,,,,,,,,,,,,,,,,,,,,,,,,,,,,,,,,,,,,,,,,,,,,,,,,,,,,,,,,,,,,,,,,,,,,,,,,,,,,,,,,,,,,,,,,,,,,,,,,,,,,,,,,,,,,,,,,,,,,,,,,
1702631019,1702631019,96,0,4278.717773,4348.589844,4477.563965,4407.179688,4429.358887,4327.179688,4309.871582,4342.179688,4317.692383,4276.282227,4418.461426,4391.282227,4295.897461,4459.743652,6815,4,81,,,,0,4,4,4,4,4,4,4,4,4,4,4,4,4,4,100,,,,,,,,,,,,,,,,,24,0,0.344684,-0.618408,-0.133911,-0.69342,0.945916,-0.209987,0.163106,-5.312981,-6.58311,92.674271,,,,,,,,,,,,,,,,,,,,,,,,,,,,,,,,,,,,,,,,,,,,,,,,,,,,,,,,,,,,,,,,,,,,,,,,,,,,,,,,,,,,,,,,,,,,,,,,,,,,,,,,,,
1702631019,1702631019,97,0,4271.410156,4368.205078,4474.743652,4386.922852,4411.922852,4316.922852,4308.846191,4342.436035,4318.205078,4274.102539,4416.282227,4390.512695,4328.461426,4451.025879,4328,4,81,,,,0,4,4,4,4,4,4,4,4,4,4,4,4,4,4,100,,,,,,,,,,,,,,,,,,,,,,,,,,,,,,,,,,,,,,,,,,,,,,,,,,,,,,,,,,,,,,,,,,,,,,,,,,,,,,,,,,,,,,,,,,,,,,,,,,,,,,,,,,,,,,,,,,,,,,,,,,,,,,,,,,,,,,
1702631019,1702631019,98,0,4252.436035,4352.436035,4458.974121,4359.230957,4398.205078,4304.615234,4297.820313,4325.897461,4293.333496,4261.666504,4401.410156,4374.230957,4336.282227,4423.077148,6165,4,81,,,,0,4,4,4,4,4,4,4,4,4,4,4,4,4,4,100,,,,,,,,,,,,,,,,,,,,,,,,,,,,,,,,,,,,,,,,,,,,,,,,,,,,,,,,,,,,,,,,,,,,,,,,,,,,,,,,,,,,,,,,,,,,,,,,,,,,,,,,,,,,,,,,,,,,,,,,,,,,,,,,,,,,,,
1702631019,1702631019,99,0,4251.794922,4299.615234,4461.538574,4368.717773,4408.461426,4313.974121,4299.358887,4324.743652,4297.179688,4273.974121,4399.871582,4374.743652,4372.307617,4415.769043,6244,4,81,,,,0,4,4,4,4,4,4,4,4,4,4,4,4,4,4,100,,,,,,,,,,,,,,,,,,,,,,,,,,,,,,,,,,,,,,,,,,,,,,,,,,,,,,,,,,,,,,,,,,,,,,,,,,,,,,,,,,,,,,,,,,,,,,,,,,,,,,,,,,,,,,,,,,,,,,,,,,,,,,,,,,,,,,
1702631019,1702631019,100,0,4250.769043,4282.307617,4459.871582,4375,4396.666504,4309.743652,4300,4326.794922,4309.102539,4263.717773,4400.641113,4378.333496,4406.025879,4411.794922,6815,4,81,,,,0,4,4,4,4,4,4,4,4,4,4,4,4,4,4,100,,,,,,,,,,,,,,,,,25,0,0.345403,-0.618347,-0.133606,-0.693176,0.961543,-0.20315,0.162618,-5.481683,-6.508132,92.573509,,,,,,,,,,,,,,,,,,,,,,,,,,,,,,,,,,,,,,,,,,,,,,,,,,,,,,,,,,,,,,,,,,,,,,,,,,,,,,,,,,,,,,,,,,,,,,,,,,,,,,,,,,
1702631019,1702631019,101,0,4241.538574,4332.563965,4448.974121,4341.666504,4377.692383,4288.589844,4289.230957,4314.743652,4286.025879,4231.410156,4392.179688,4366.922852,4414.871582,4395.641113,4328,4,81,,,,0,4,4,4,4,4,4,4,4,4,4,4,4,4,4,100,,,,,,,,,,,,,,,,,,,,,,,,,,,,,,,,,,,,,,,,,,,,,,,,,,,,,,,,,,,,,,,,,11.137023,1.496225,1.983646,1.173176,1.565002,10.45729,2.47746,3.69188,2.609065,5.686222,41.024548,2.172379,1.287437,0.644845,0.464809,13.06706,2.981039,5.92999,4.137718,5.880501,10.10886,1.033467,1.140825,1.093435,1.620585,9.822066,1.209346,1.407122,1.133436,1.55489,3.544702,0.453339,1.071143,0.604047,1.080866,9.90774,1.091756,2.391394,0.906426,1.733224,18.190504,2.501144,4.635033,1.336747,2.631423,251.07811,65.376472,38.669422,11.100678,6.122693,26.908241,3.243731,5.006736,1.845232,3.473574,31.127052,9.081793,7.122948,1.785686,1.58614,610.806641,156.714371,79.813499,27.73741,8.05154,48.024155,9.800233,7.940605,2.263295,2.697181
1702631019,1702631019,102,0,4254.615234,4338.333496,4454.358887,4345.897461,4392.820313,4297.820313,4290.512695,4313.077148,4280.641113,4238.717773,4397.94873,4367.94873,4439.487305,4401.153809,6165,4,81,,,,0,4,4,4,4,4,4,4,4,4,4,4,4,4,4,100,,,,,,,,,,,,,,,,,,,,,,,,,,,,,,,,,,,,,,,,,,,,,,,,,,,,,,,,,,,,,,,,,,,,,,,,,,,,,,,,,,,,,,,,,,,,,,,,,,,,,,,,,,,,,,,,,,,,,,,,,,,,,,,,,,,,,,
1702631019,1702631019,103,0,4268.717773,4295.641113,4460.641113,4382.692383,4400.769043,4312.307617,4299.487305,4318.077148,4300.256348,4242.05127,4403.717773,4375.256348,4467.94873,4409.487305,6244,4,81,,,,0,4,4,4,4,4,4,4,4,4,4,4,4,4,4,100,,,,,,,,,,,,,,,,,,,,,,,,,,,,,,,,,,,,,,,,,,,,,,,,,,,,,,,,,,,,,,,,,,,,,,,,,,,,,,,,,,,,,,,,,,,,,,,,,,,,,,,,,,,,,,,,,,,,,,,,,,,,,,,,,,,,,,
1702631019,1702631019,104,0,4252.692383,4305.256348,4445.512695,4356.538574,4371.282227,4287.563965,4283.589844,4299.615234,4276.922852,4199.102539,4376.410156,4360.897461,4469.102539,4382.436035,6815,4,81,,,,0,4,4,4,4,4,4,4,4,4,4,4,4,4,4,100,,,,,,,,,,,,,,,,,26,0,0.345914,-0.618469,-0.133301,-0.692871,0.957636,-0.204615,0.163106,-5.400181,-6.590652,92.549492,,,,,,,,,,,,,,,,,,,,,,,,,,,,,,,,,,,,,,,,,,,,,,,,,,,,,,,,,,,,,,,,,,,,,,,,,,,,,,,,,,,,,,,,,,,,,,,,,,,,,,,,,,
1702631019,1702631019,105,0,4242.692383,4329.743652,4434.871582,4313.461426,4361.922852,4268.205078,4266.666504,4282.05127,4239.615234,4181.153809,4357.179688,4348.717773,4484.743652,4362.692383,4328,4,81,,,,0,4,4,4,4,4,4,4,4,4,4,4,4,4,4,100,,,,,,,,,,,,,,,,,,,,,,,,,,,,,,,,,,,,,,,,,,,,,,,,,,,,,,,,,,,,,,,,,,,,,,,,,,,,,,,,,,,,,,,,,,,,,,,,,,,,,,,,,,,,,,,,,,,,,,,,,,,,,,,,,,,,,,
1702631019,1702631019,106,0,4266.666504,4296.025879,4447.692383,4350.769043,4399.230957,4292.820313,4289.615234,4304.487305,4261.153809,4208.974121,4384.743652,4369.487305,4535.384766,4389.102539,6165,4,81,,,,0,4,4,4,4,4,4,4,4,4,4,4,4,4,4,100,,,,,,,,,,,,,,,,,,,,,,,,,,,,,,,,,,,,,,,,,,,,,,,,,,,,,,,,,,,,,,,,,,,,,,,,,,,,,,,,,,,,,,,,,,,,,,,,,,,,,,,,,,,,,,,,,,,,,,,,,,,,,,,,,,,,,,
1702631019,1702631019,107,0,4265.256348,4262.692383,4449.871582,4367.05127,4402.307617,4300.641113,4301.666504,4314.487305,4276.025879,4201.538574,4384.487305,4371.666504,4553.589844,4391.025879,6244,4,81,,,,0,4,4,4,4,4,4,4,4,4,4,4,4,4,4,100,,,,,,,,,,,,,,,,,,,,,,,,,,,,,,,,,,,,,,,,,,,,,,,,,,,,,,,,,,,,,,,,,,,,,,,,,,,,,,,,,,,,,,,,,,,,,,,,,,,,,,,,,,,,,,,,,,,,,,,,,,,,,,,,,,,,,,
1702631019,1702631019,108,0,4230.256348,4290.897461,4440.256348,4294.615234,4371.538574,4271.794922,4276.282227,4287.307617,4243.974121,4162.307617,4347.563965,4345,4540.641113,4352.94873,6815,4,81,,,,0,4,4,4,4,4,4,4,4,4,4,4,4,4,4,100,,,,,,,,,,,,,,,,,27,0,0.346133,-0.618591,-0.133118,-0.692688,0.95373,-0.215358,0.168478,-5.210163,-6.51492,92.427879,,,,,,,,,,,,,,,,,,,,,,,,,,,,,,,,,,,,,,,,,,,,,,,,,,,,,,,,,,,,,,,,,,,,,,,,,,,,,,,,,,,,,,,,,,,,,,,,,,,,,,,,,,
1702631019,1702631019,109,0,4226.666504,4307.94873,4450.128418,4254.102539,4372.94873,4270.769043,4272.692383,4279.102539,4233.974121,4159.358887,4344.615234,4343.846191,4561.922852,4344.615234,4328,4,81,,,,0,4,4,4,4,4,4,4,4,4,4,4,4,4,4,100,,,,,,,,,,,,,,,,,,,,,,,,,,,,,,,,,,,,,,,,,,,,,,,,,,,,,,,,,,,,,,,,,,,,,,,,,,,,,,,,,,,,,,,,,,,,,,,,,,,,,,,,,,,,,,,,,,,,,,,,,,,,,,,,,,,,,,
1702631019,1702631019,110,0,4250.641113,4247.94873,4461.282227,4303.846191,4388.461426,4297.94873,4299.102539,4300.128418,4255.256348,4176.922852,4365.384766,4363.077148,4607.94873,4363.846191,6165,4,81,,,,0,4,4,4,4,4,4,4,4,4,4,4,4,4,4,100,,,,,,,,,,,,,,,,,,,,,,,,,,,,,,,,,,,,,,,,,,,,,,,,,,,,,,,,,,,,,,,,,,,,,,,,,,,,,,,,,,,,,,,,,,,,,,,,,,,,,,,,,,,,,,,,,,,,,,,,,,,,,,,,,,,,,,
1702631019,1702631019,111,0,4242.05127,4226.282227,4450.641113,4299.358887,4365.128418,4289.871582,4291.153809,4292.307617,4245.128418,4157.563965,4344.358887,4354.487305,4625.128418,4349.230957,6244,4,81,,,,0,4,4,4,4,4,4,4,4,4,4,4,4,4,4,100,,,,,,,,,,,,,,,,,,,,,,,,,,,,,,,,,,,,,,,,,,,,,,,,,,,,,,,,,,,,,,,,,,,,,,,,,,,,,,,,,,,,,,,,,,,,,,,,,,,,,,,,,,,,,,,,,,,,,,,,,,,,,,,,,,,,,,
1702631019,1702631019,112,0,4216.282227,4289.615234,4442.436035,4205.256348,4329.102539,4257.307617,4260.641113,4261.025879,4210.512695,4135.641113,4308.461426,4334.615234,4635.384766,4318.846191,6815,4,81,,,,0,4,4,4,4,4,4,4,4,4,4,4,4,4,4,100,,,,,,,,,,,,,,,,,28,0,0.346896,-0.618896,-0.132568,-0.692139,0.964962,-0.223172,0.171896,-5.289147,-6.413428,92.435089,,,,,,,,,,,,,,,,,,,,,,,,,,,,,,,,,,,,,,,,,,,,,,,,,,,,,,,,,,,,,,,,,,,,,,,,,,,,,,,,,,,,,,,,,,,,,,,,,,,,,,,,,,
1702631019,1702631019,113,0,4230.769043,4296.666504,4450.769043,4200.897461,4351.538574,4268.077148,4275.128418,4273.717773,4221.794922,4154.871582,4319.871582,4346.666504,4664.615234,4336.153809,4328,4,81,,,,0,4,4,4,4,4,4,4,4,4,4,4,4,4,4,100,,,,,,,,,,,,,,,,,,,,,,,,,,,,,,,,,,,,,,,,,,,,,,,,,,,,,,,,,,,,,,,,,,,,,,,,,,,,,,,,,,,,,,,,,,,,,,,,,,,,,,,,,,,,,,,,,,,,,,,,,,,,,,,,,,,,,,
1702631019,1702631019,114,0,4241.922852,4249.102539,4449.871582,4243.717773,4380.897461,4308.461426,4301.410156,4299.487305,4246.922852,4157.179688,4319.102539,4353.077148,4664.871582,4348.077148,6165,4,81,,,,0,4,4,4,4,4,4,4,4,4,4,4,4,4,4,100,,,,,,,,,,,,,,,,,,,,,,,,,,,,,,,,,,,,,,,,,,,,,,,,,,,,,,,,,,,,,,,,,,,,,,,,,,,,,,,,,,,,,,,,,,,,,,,,,,,,,,,,,,,,,,,,,,,,,,,,,,,,,,,,,,,,,,
1702631019,1702631019,115,0,4226.922852,4250.512695,4444.358887,4210.641113,4366.282227,4310.641113,4297.179688,4293.205078,4235.641113,4144.487305,4306.794922,4344.358887,4684.230957,4335.769043,6244,4,81,,,,0,4,4,4,4,4,4,4,4,4,4,4,4,4,4,100,,,,,,,,,,,,,,,,,,,,,,,,,,,,,,,,,,,,,,,,,,,,,,,,,,,,,,,,,,,,,,,,,,,,,,,,,,,,,,,,,,,,,,,,,,,,,,,,,,,,,,,,,,,,,,,,,,,,,,,,,,,,,,,,,,,,,,
1702631019,1702631019,116,0,4236.410156,4241.666504,4445.769043,4191.025879,4352.820313,4281.153809,4286.282227,4288.717773,4240.769043,4167.179688,4346.410156,4354.743652,4764.615234,4358.846191,6815,4,81,,,,0,4,4,4,4,4,4,4,4,4,4,4,4,4,4,100,,,,,,,,,,,,,,,,,29,0,0.347787,-0.619141,-0.131958,-0.691589,0.958613,-0.218777,0.168478,-5.410232,-6.238752,92.408249,,,,,,,,,,,,,,,,,,,,,,,,,,,,,,,,,,,,,,,,,,,,,,,,,,,,,,,,,,,,,,,,,,,,,,,,,,,,,,,,,,,,,,,,,,,,,,,,,,,,,,,,,,
1702631019,1702631019,117,0,4250.769043,4202.05127,4441.794922,4205.769043,4355.256348,4270,4283.333496,4297.94873,4264.230957,4188.717773,4385.384766,4366.282227,4804.871582,4386.025879,4328,4,81,,,,0,4,4,4,4,4,4,4,4,4,4,4,4,4,4,100,,,,,,,,,,,,,,,,,,,,,,,,,,,,,,,,,,,,,,,,,,,,,,,,,,,,,,,,,,,,,,,,,10.119695,1.262062,2.286926,1.20009,1.386872,9.802178,2.468777,3.63693,2.870884,5.124564,34.948994,1.65824,1.050549,0.618838,0.433251,8.939345,2.942542,6.876452,4.508392,5.081492,8.636814,0.880485,1.525533,1.309952,1.637771,9.469425,0.954022,1.414801,1.027377,1.402489,3.085405,0.393899,1.060202,0.609396,0.994409,9.007491,1.043821,2.448787,0.980771,1.489237,19.39732,2.608403,5.198151,1.522797,2.224802,471.672272,109.497948,67.04734,18.854666,8.206182,27.069811,3.270087,5.652536,2.241358,3.205823,57.586025,14.606652,11.777781,2.697498,1.677612,1142.691406,275.361847,139.369919,47.108871,11.757597,72.227318,14.153432,12.72924,3.09275,2.634261
1702631019,1702631019,118,0,4252.179688,4208.461426,4440.641113,4183.846191,4355.384766,4292.05127,4293.461426,4300.897461,4258.077148,4191.282227,4396.794922,4366.794922,4815.641113,4391.025879,6165,4,81,,,,0,4,4,4,4,4,4,4,4,4,4,4,4,4,4,100,,,,,,,,,,,,,,,,,,,,,,,,,,,,,,,,,,,,,,,,,,,,,,,,,,,,,,,,,,,,,,,,,,,,,,,,,,,,,,,,,,,,,,,,,,,,,,,,,,,,,,,,,,,,,,,,,,,,,,,,,,,,,,,,,,,,,,
1702631019,1702631019,119,0,4263.846191,4227.563965,4444.743652,4152.436035,4349.743652,4289.102539,4294.871582,4295,4246.538574,4208.589844,4421.410156,4370.256348,4877.563965,4405.384766,6244,4,81,,,,0,4,4,4,4,4,4,4,4,4,4,4,4,4,4,100,,,,,,,,,,,,,,,,,,,,,,,,,,,,,,,,,,,,,,,,,,,,,,,,,,,,,,,,,,,,,,,,,,,,,,,,,,,,,,,,,,,,,,,,,,,,,,,,,,,,,,,,,,,,,,,,,,,,,,,,,,,,,,,,,,,,,,
1702631019,1702631019,120,0,4277.692383,4216.794922,4447.692383,4143.974121,4352.692383,4276.410156,4282.692383,4297.436035,4265.128418,4229.615234,4449.230957,4379.230957,4922.94873,4427.179688,6815,4,81,,,,0,4,4,4,4,4,4,4,4,4,4,4,4,4,4,100,,,,,,,,,,,,,,,,,30,0,0.348157,-0.619446,-0.13147,-0.691223,0.945428,-0.222683,0.161641,-5.352542,-6.114877,92.300758,,,,,,,,,,,,,,,,,,,,,,,,,,,,,,,,,,,,,,,,,,,,,,,,,,,,,,,,,,,,,,,,,,,,,,,,,,,,,,,,,,,,,,,,,,,,,,,,,,,,,,,,,,
1702631019,1702631019,121,0,4285.128418,4202.179688,4458.205078,4139.871582,4349.358887,4317.179688,4299.230957,4315.769043,4288.461426,4237.692383,4478.974121,4392.307617,4925.256348,4444.230957,4328,4,81,,,,0,4,4,4,4,4,4,4,4,4,4,4,4,4,4,100,,,,,,,,,,,,,,,,,,,,,,,,,,,,,,,,,,,,,,,,,,,,,,,,,,,,,,,,,,,,,,,,,,,,,,,,,,,,,,,,,,,,,,,,,,,,,,,,,,,,,,,,,,,,,,,,,,,,,,,,,,,,,,,,,,,,,,
1702631019,1702631019,122,0,4296.794922,4185,4471.538574,4138.974121,4347.94873,4326.922852,4317.307617,4331.538574,4299.615234,4255.897461,4520.641113,4408.077148,4967.307617,4467.94873,6165,4,81,,,,0,4,4,4,4,4,4,4,4,4,4,4,4,4,4,100,,,,,,,,,,,,,,,,,,,,,,,,,,,,,,,,,,,,,,,,,,,,,,,,,,,,,,,,,,,,,,,,,,,,,,,,,,,,,,,,,,,,,,,,,,,,,,,,,,,,,,,,,,,,,,,,,,,,,,,,,,,,,,,,,,,,,,
1702631019,1702631019,123,0,4303.846191,4176.410156,4478.461426,4128.077148,4372.94873,4268.974121,4293.205078,4327.692383,4299.358887,4296.025879,4535.897461,4412.692383,5030.384766,4482.563965,6244,4,81,,,,0,4,4,4,4,4,4,4,4,4,4,4,4,4,4,100,,,,,,,,,,,,,,,,,,,,,,,,,,,,,,,,,,,,,,,,,,,,,,,,,,,,,,,,,,,,,,,,,,,,,,,,,,,,,,,,,,,,,,,,,,,,,,,,,,,,,,,,,,,,,,,,,,,,,,,,,,,,,,,,,,,,,,
1702631019,1702631019,124,0,4326.538574,4184.358887,4500.641113,4148.333496,4409.230957,4278.205078,4296.282227,4343.205078,4316.025879,4360.769043,4567.94873,4433.077148,5084.102539,4508.333496,6815,4,81,,,,0,4,4,4,4,4,4,4,4,4,4,4,4,4,4,100,,,,,,,,,,,,,,,,,31,0,0.348466,-0.61969,-0.131104,-0.690918,0.952753,-0.230009,0.166036,-5.283955,-6.236722,92.387344,,,,,,,,,,,,,,,,,,,,,,,,,,,,,,,,,,,,,,,,,,,,,,,,,,,,,,,,,,,,,,,,,,,,,,,,,,,,,,,,,,,,,,,,,,,,,,,,,,,,,,,,,,
1702631019,1702631019,125,0,4356.153809,4201.666504,4523.333496,4193.077148,4421.538574,4347.436035,4340.128418,4380,4357.436035,4395.384766,4626.282227,4463.846191,5116.666504,4546.538574,4328,4,81,,,,0,4,4,4,4,4,4,4,4,4,4,4,4,4,4,100,,,,,,,,,,,,,,,,,,,,,,,,,,,,,,,,,,,,,,,,,,,,,,,,,,,,,,,,,,,,,,,,,,,,,,,,,,,,,,,,,,,,,,,,,,,,,,,,,,,,,,,,,,,,,,,,,,,,,,,,,,,,,,,,,,,,,,
1702631019,1702631019,126,0,4338.974121,4224.102539,4515.641113,4164.102539,4398.717773,4332.179688,4331.666504,4373.846191,4357.820313,4361.922852,4614.230957,4448.333496,5090,4530.897461,6165,4,81,,,,0,4,4,4,4,4,4,4,4,4,4,4,4,4,4,100,,,,,,,,,,,,,,,,,,,,,,,,,,,,,,,,,,,,,,,,,,,,,,,,,,,,,,,,,,,,,,,,,,,,,,,,,,,,,,,,,,,,,,,,,,,,,,,,,,,,,,,,,,,,,,,,,,,,,,,,,,,,,,,,,,,,,,
1702631019,1702631019,127,0,4314.871582,4249.487305,4513.205078,4111.666504,4383.461426,4287.436035,4299.102539,4344.102539,4322.436035,4335.769043,4573.333496,4421.153809,5072.05127,4496.794922,81,4,81,,,,0,4,4,4,4,4,4,4,4,4,4,4,4,4,4,100,,,,,,,,,,,,,,,,,,,,,,,,,,,,,,,,,,,,,,,,,,,,,,,,,,,,,,,,,,,,,,,,,,,,,,,,,,,,,,,,,,,,,,,,,,,,,,,,,,,,,,,,,,,,,,,,,,,,,,,,,,,,,,,,,,,,,,
1702631019,1702631019,0,0,4339.102539,4262.05127,4534.230957,4136.282227,4394.230957,4313.846191,4314.487305,4357.179688,4332.179688,4352.179688,4594.102539,4435.512695,5118.461426,4517.563965,4726,4,81,,,,0,4,4,4,4,4,4,4,4,4,4,4,4,4,4,100,,,,,,,,,,,,,,,,,0,0,0.348613,-0.619995,-0.130554,-0.690674,0.949335,-0.229032,0.144549,-5.255559,-5.979717,92.431946,,,,,,,,,,,,,,,,,,,,,,,,,,,,,,,,,,,,,,,,,,,,,,,,,,,,,,,,,,,,,,,,,,,,,,,,,,,,,,,,,,,,,,,,,,,,,,,,,,,,,,,,,,
1702631019,1702631019,1,0,4370.512695,4275.256348,4551.153809,4177.94873,4420,4345.384766,4341.922852,4394.615234,4377.307617,4376.282227,4638.333496,4462.692383,5159.358887,4559.358887,5683,4,81,,,,0,4,4,4,4,4,4,4,4,4,4,4,4,4,4,100,,,,,,,,,,,,,,,,,,,,,,,,,,,,,,,,,,,,,,,,,,,,,,,,,,,,,,,,,,,,,,,,,,,,,,,,,,,,,,,,,,,,,,,,,,,,,,,,,,,,,,,,,,,,,,,,,,,,,,,,,,,,,,,,,,,,,,
1702631019,1702631019,2,0,4385.128418,4288.717773,4561.794922,4200.256348,4454.487305,4361.538574,4357.94873,4417.307617,4402.563965,4399.487305,4670.128418,4476.025879,5170.256348,4581.666504,5480,4,81,,,,0,4,4,4,4,4,4,4,4,4,4,4,4,4,4,100,,,,,,,,,,,,,,,,,,,,,,,,,,,,,,,,,,,,,,,,,,,,,,,,,,,,,,,,,,,,,,,,,,,,,,,,,,,,,,,,,,,,,,,,,,,,,,,,,,,,,,,,,,,,,,,,,,,,,,,,,,,,,,,,,,,,,,
1702631019,1702631019,3,0,4396.153809,4289.102539,4572.820313,4230.641113,4476.666504,4373.461426,4365.769043,4426.153809,4405.897461,4409.102539,4693.333496,4478.846191,5181.410156,4589.743652,5460,4,81,,,,0,4,4,4,4,4,4,4,4,4,4,4,4,4,4,100,,,,,,,,,,,,,,,,,,,,,,,,,,,,,,,,,,,,,,,,,,,,,,,,,,,,,,,,,,,,,,,,,,,,,,,,,,,,,,,,,,,,,,,,,,,,,,,,,,,,,,,,,,,,,,,,,,,,,,,,,,,,,,,,,,,,,,
1702631019,1702631019,4,0,4393.077148,4314.871582,4575.128418,4220.128418,4461.538574,4371.153809,4361.922852,4421.538574,4395.769043,4391.282227,4682.05127,4469.358887,5186.282227,4580.512695,5457,4,81,,,,0,4,4,4,4,4,4,4,4,4,4,4,4,4,4,100,,,,,,,,,,,,,,,,,1,0,0.348929,-0.620239,-0.129517,-0.690491,0.957636,-0.230009,0.157246,-5.09667,-6.031745,92.53875,,,,,,,,,,,,,,,,,,,,,,,,,,,,,,,,,,,,,,,,,,,,,,,,,,,,,,,,,,,,,,,,,,,,,,,,,,,,,,,,,,,,,,,,,,,,,,,,,,,,,,,,,,
1702631019,1702631019,5,0,4387.436035,4325.897461,4580,4205,4446.282227,4374.230957,4368.205078,4424.871582,4398.333496,4393.205078,4671.538574,4466.794922,5175.641113,4575,5292,4,81,,,,0,4,4,4,4,4,4,4,4,4,4,4,4,4,4,100,,,,,,,,,,,,,,,,,,,,,,,,,,,,,,,,,,,,,,,,,,,,,,,,,,,,,,,,,,,,,,,,,8.815147,1.214952,2.542821,1.225851,1.196391,10.367486,2.517234,3.642295,3.453493,4.624165,26.905041,1.256695,0.933294,0.617034,0.410535,5.749575,2.886811,7.930113,5.023769,4.364305,7.442686,0.833053,1.995241,1.533234,1.585778,8.783129,0.783407,1.529936,0.933215,1.25911,2.807993,0.384922,1.092948,0.637757,0.907675,8.468688,1.062837,2.509369,1.063598,1.260544,21.343376,2.785447,5.671588,1.710803,1.876821,728.610901,152.372711,96.213928,26.792976,10.240184,27.53216,3.525925,6.191157,2.690243,2.855077,88.923729,19.815107,16.541651,3.660545,1.745247,1729.500732,394.376617,200.463501,66.40049,15.511979,99.625305,18.304045,17.570513,3.969368,2.542205
1702631019,1702631019,6,0,4403.461426,4303.717773,4594.230957,4246.922852,4470.769043,4383.974121,4379.487305,4443.077148,4425,4413.589844,4703.589844,4482.563965,5168.205078,4590.512695,3866,4,81,,,,0,4,4,4,4,4,4,4,4,4,4,4,4,4,4,100,,,,,,,,,,,,,,,,,,,,,,,,,,,,,,,,,,,,,,,,,,,,,,,,,,,,,,,,,,,,,,,,,,,,,,,,,,,,,,,,,,,,,,,,,,,,,,,,,,,,,,,,,,,,,,,,,,,,,,,,,,,,,,,,,,,,,,
1702631019,1702631019,7,0,4411.025879,4356.666504,4597.563965,4249.615234,4485,4376.025879,4370.256348,4440.128418,4425.128418,4400.641113,4710,4478.333496,5172.307617,4593.077148,4936,4,81,,,,0,4,4,4,4,4,4,4,4,4,4,4,4,4,4,100,,,,,,,,,,,,,,,,,,,,,,,,,,,,,,,,,,,,,,,,,,,,,,,,,,,,,,,,,,,,,,,,,,,,,,,,,,,,,,,,,,,,,,,,,,,,,,,,,,,,,,,,,,,,,,,,,,,,,,,,,,,,,,,,,,,,,,
1702631019,1702631019,8,0,4402.820313,4425.384766,4593.974121,4206.922852,4464.102539,4376.153809,4364.615234,4426.538574,4405.256348,4390.769043,4683.205078,4466.282227,5186.282227,4583.589844,5449,4,81,,,,0,4,4,4,4,4,4,4,4,4,4,4,4,4,4,100,,,,,,,,,,,,,,,,,2,0,0.348906,-0.620667,-0.128174,-0.690369,0.945428,-0.228055,0.151874,-4.987003,-6.011904,92.668205,,,,,,,,,,,,,,,,,,,,,,,,,,,,,,,,,,,,,,,,,,,,,,,,,,,,,,,,,,,,,,,,,,,,,,,,,,,,,,,,,,,,,,,,,,,,,,,,,,,,,,,,,,
1702631019,1702631019,9,0,4423.717773,4406.025879,4613.461426,4241.153809,4467.94873,4406.282227,4386.153809,4449.358887,4434.871582,4420.512695,4706.666504,4488.974121,5213.589844,4610.128418,5495,4,81,,,,0,4,4,4,4,4,4,4,4,4,4,4,4,4,4,100,,,,,,,,,,,,,,,,,,,,,,,,,,,,,,,,,,,,,,,,,,,,,,,,,,,,,,,,,,,,,,,,,,,,,,,,,,,,,,,,,,,,,,,,,,,,,,,,,,,,,,,,,,,,,,,,,,,,,,,,,,,,,,,,,,,,,,
1702631019,1702631019,10,0,4453.077148,4391.282227,4637.820313,4302.820313,4498.589844,4418.589844,4398.333496,4479.743652,4477.436035,4436.025879,4753.461426,4512.307617,5233.077148,4640.384766,6025,4,81,,,,0,4,4,4,4,4,4,4,4,4,4,4,4,4,4,100,,,,,,,,,,,,,,,,,,,,,,,,,,,,,,,,,,,,,,,,,,,,,,,,,,,,,,,,,,,,,,,,,,,,,,,,,,,,,,,,,,,,,,,,,,,,,,,,,,,,,,,,,,,,,,,,,,,,,,,,,,,,,,,,,,,,,,
1702631019,1702631019,11,0,4455.512695,4405.641113,4633.461426,4320.512695,4509.615234,4413.974121,4395.897461,4473.846191,4463.077148,4427.179688,4764.487305,4510.256348,5237.820313,4641.666504,6280,4,81,,,,0,4,4,4,4,4,4,4,4,4,4,4,4,4,4,100,,,,,,,,,,,,,,,,,,,,,,,,,,,,,,,,,,,,,,,,,,,,,,,,,,,,,,,,,,,,,,,,,,,,,,,,,,,,,,,,,,,,,,,,,,,,,,,,,,,,,,,,,,,,,,,,,,,,,,,,,,,,,,,,,,,,,,
1702631019,1702631019,12,0,4454.358887,4384.230957,4626.666504,4335.897461,4507.307617,4416.794922,4396.282227,4462.179688,4438.461426,4426.666504,4762.692383,4507.820313,5233.077148,4642.05127,6820,4,81,,,,0,4,4,4,4,4,4,4,4,4,4,4,4,4,4,100,,,,,,,,,,,,,,,,,3,0,0.348765,-0.621033,-0.127441,-0.690247,0.959101,-0.22073,0.156269,-5.00497,-5.994047,92.784721,,,,,,,,,,,,,,,,,,,,,,,,,,,,,,,,,,,,,,,,,,,,,,,,,,,,,,,,,,,,,,,,,,,,,,,,,,,,,,,,,,,,,,,,,,,,,,,,,,,,,,,,,,
1702631019,1702631019,13,0,4459.743652,4396.922852,4636.025879,4334.487305,4497.94873,4413.205078,4391.922852,4465.512695,4447.692383,4425.897461,4771.282227,4509.615234,5220.641113,4644.487305,4367,4,81,,,,0,4,4,4,4,4,4,4,4,4,4,4,4,4,4,100,,,,,,,,,,,,,,,,,,,,,,,,,,,,,,,,,,,,,,,,,,,,,,,,,,,,,,,,,,,,,,,,,,,,,,,,,,,,,,,,,,,,,,,,,,,,,,,,,,,,,,,,,,,,,,,,,,,,,,,,,,,,,,,,,,,,,,
1702631019,1702631019,14,0,4466.922852,4424.871582,4643.077148,4333.717773,4493.846191,4412.179688,4390.128418,4477.820313,4466.410156,4436.922852,4788.077148,4514.871582,5231.410156,4652.563965,6025,4,81,,,,0,4,4,4,4,4,4,4,4,4,4,4,4,4,4,100,,,,,,,,,,,,,,,,,,,,,,,,,,,,,,,,,,,,,,,,,,,,,,,,,,,,,,,,,,,,,,,,,,,,,,,,,,,,,,,,,,,,,,,,,,,,,,,,,,,,,,,,,,,,,,,,,,,,,,,,,,,,,,,,,,,,,,
1702631019,1702631019,15,0,4476.410156,4414.358887,4648.589844,4362.563965,4503.589844,4424.487305,4399.230957,4488.333496,4472.05127,4459.615234,4796.922852,4526.153809,5265.128418,4669.871582,6280,4,81,,,,0,4,4,4,4,4,4,4,4,4,4,4,4,4,4,100,,,,,,,,,,,,,,,,,,,,,,,,,,,,,,,,,,,,,,,,,,,,,,,,,,,,,,,,,,,,,,,,,,,,,,,,,,,,,,,,,,,,,,,,,,,,,,,,,,,,,,,,,,,,,,,,,,,,,,,,,,,,,,,,,,,,,,
1702631019,1702631019,16,0,4486.794922,4431.410156,4660.769043,4376.410156,4510.769043,4440.128418,4412.563965,4493.589844,4475.384766,4467.94873,4792.692383,4532.179688,5277.820313,4681.025879,0,4,81,,,,0,4,4,4,4,4,4,4,4,4,4,4,4,4,4,100,,,,,,,,,,,,,,,,,4,0,0.348516,-0.621643,-0.126465,-0.690002,0.939568,-0.236845,0.158711,-5.087806,-6.077976,92.739586,,,,,,,,,,,,,,,,,,,,,,,,,,,,,,,,,,,,,,,,,,,,,,,,,,,,,,,,,,,,,,,,,,,,,,,,,,,,,,,,,,,,,,,,,,,,,,,,,,,,,,,,,,
1702631019,1702631019,17,0,4490.256348,4447.05127,4658.846191,4372.436035,4512.436035,4438.589844,4412.563965,4492.94873,4476.025879,4454.871582,4796.282227,4524.743652,5268.974121,4677.179688,0,4,81,,,,0,4,4,4,4,4,4,4,4,4,4,4,4,4,4,100,,,,,,,,,,,,,,,,,,,,,,,,,,,,,,,,,,,,,,,,,,,,,,,,,,,,,,,,,,,,,,,,,,,,,,,,,,,,,,,,,,,,,,,,,,,,,,,,,,,,,,,,,,,,,,,,,,,,,,,,,,,,,,,,,,,,,,
1702631019,1702631019,18,0,4485,4432.692383,4648.717773,4380.256348,4511.410156,4428.205078,4400,4487.05127,4465.641113,4444.743652,4810.512695,4517.436035,5276.153809,4672.05127,0,4,81,,,,0,4,4,4,4,4,4,4,4,4,4,4,4,4,4,100,,,,,,,,,,,,,,,,,,,,,,,,,,,,,,,,,,,,,,,,,,,,,,,,,,,,,,,,,,,,,,,,,,,,,,,,,,,,,,,,,,,,,,,,,,,,,,,,,,,,,,,,,,,,,,,,,,,,,,,,,,,,,,,,,,,,,,
1702631019,1702631019,19,0,4495.641113,4457.436035,4661.922852,4402.820313,4513.205078,4439.871582,4407.179688,4497.94873,4480.256348,4473.974121,4829.615234,4531.025879,5302.563965,4691.794922,0,4,81,,,,0,4,4,4,4,4,4,4,4,4,4,4,4,4,4,100,,,,,,,,,,,,,,,,,,,,,,,,,,,,,,,,,,,,,,,,,,,,,,,,,,,,,,,,,,,,,,,,,,,,,,,,,,,,,,,,,,,,,,,,,,,,,,,,,,,,,,,,,,,,,,,,,,,,,,,,,,,,,,,,,,,,,,
1702631019,1702631019,20,0,4508.205078,4489.871582,4672.179688,4417.179688,4523.846191,4457.436035,4423.077148,4511.922852,4506.025879,4496.410156,4842.436035,4545.769043,5310.641113,4711.794922,0,4,81,,,,0,4,4,4,4,4,4,4,4,4,4,4,4,4,4,100,,,,,,,,,,,,,,,,,5,0,0.348052,-0.622192,-0.126038,-0.689819,0.954218,-0.22366,0.145526,-5.229025,-6.186845,92.56562,,,,,,,,,,,,,,,,,,,,,,,,,,,,,,,,,,,,,,,,,,,,,,,,,,,,,,,,,,,,,,,,,,,,,,,,,,,,,,,,,,,,,,,,,,,,,,,,,,,,,,,,,,
1702631019,1702631019,21,0,4502.436035,4458.077148,4657.563965,4422.436035,4532.436035,4463.333496,4426.025879,4510.384766,4502.05127,4479.358887,4832.820313,4539.102539,5297.05127,4706.282227,0,4,81,,,,0,4,4,4,4,4,4,4,4,4,4,4,4,4,4,100,1,0,1,1,1,0,1,1,1,1,1,0,0,1,0,1,,,,,,,,,,,,,,,,,,,,,,,,,,,,,,,,,,,,,,,,,,,,,,,,,8.347404,1.31354,2.670904,1.236431,1.023543,11.262737,2.636539,3.681589,4.252153,4.282701,20.49614,1.028958,0.944157,0.636698,0.404126,5.008691,2.973912,8.802592,5.537279,3.849142,7.111107,0.902495,2.433878,1.710049,1.465432,8.412794,0.701763,1.698367,0.883308,1.159786,2.97309,0.413359,1.133384,0.680104,0.838749,8.989627,1.091791,2.497045,1.129427,1.069821,24.870914,2.877163,5.837913,1.83685,1.608254,953.4375,179.889969,117.168472,32.454227,11.518844,31.259583,4.026731,6.444898,3.085967,2.476204,117.432343,22.933659,19.930033,4.36636,1.737978,2181.677246,476.031311,243.799103,79.489693,18.097198,125.239998,20.7752,20.9897,4.625644,2.400666
1702631019,1702631019,22,0,4498.205078,4425.256348,4648.846191,4427.820313,4517.692383,4466.794922,4426.025879,4508.333496,4489.615234,4470.512695,4827.820313,4534.358887,5292.820313,4700.384766,0,4,81,,,,0,4,4,4,4,4,4,4,4,4,4,4,4,4,4,100,,,,,,,,,,,,,,,,,,,,,,,,,,,,,,,,,,,,,,,,,,,,,,,,,,,,,,,,,,,,,,,,,,,,,,,,,,,,,,,,,,,,,,,,,,,,,,,,,,,,,,,,,,,,,,,,,,,,,,,,,,,,,,,,,,,,,,
1702631019,1702631019,23,0,4496.410156,4451.794922,4653.589844,4410.256348,4507.820313,4454.871582,4417.179688,4503.205078,4484.358887,4470,4831.410156,4532.820313,5282.563965,4696.538574,0,4,81,,,,0,4,4,4,4,4,4,4,4,4,4,4,4,4,4,100,,,,,,,,,,,,,,,,,,,,,,,,,,,,,,,,,,,,,,,,,,,,,,,,,,,,,,,,,,,,,,,,,,,,,,,,,,,,,,,,,,,,,,,,,,,,,,,,,,,,,,,,,,,,,,,,,,,,,,,,,,,,,,,,,,,,,,
1702631019,1702631019,24,0,4479.230957,4477.05127,4647.179688,4375.769043,4510,4429.743652,4401.025879,4485.128418,4470.512695,4449.230957,4805,4520.384766,5247.692383,4673.461426,0,4,81,,,,0,4,4,4,4,4,4,4,4,4,4,4,4,4,4,100,,,,,,,,,,,,,,,,,6,0,0.347484,-0.622498,-0.126099,-0.689819,0.955683,-0.227567,0.145526,-5.356122,-6.151494,92.359062,,,,,,,,,,,,,,,,,,,,,,,,,,,,,,,,,,,,,,,,,,,,,,,,,,,,,,,,,,,,,,,,,,,,,,,,,,,,,,,,,,,,,,,,,,,,,,,,,,,,,,,,,,
1702631019,1702631019,25,0,4465,4439.230957,4633.589844,4380.769043,4492.94873,4425.512695,4400,4474.102539,4452.179688,4436.025879,4776.153809,4511.538574,5234.743652,4656.538574,0,4,81,,,,0,4,4,4,4,4,4,4,4,4,4,4,4,4,4,100,,,,,,,,,,,,,,,,,,,,,,,,,,,,,,,,,,,,,,,,,,,,,,,,,,,,,,,,,,,,,,,,,,,,,,,,,,,,,,,,,,,,,,,,,,,,,,,,,,,,,,,,,,,,,,,,,,,,,,,,,,,,,,,,,,,,,,
1702631019,1702631019,26,0,4462.563965,4391.153809,4621.922852,4403.461426,4467.05127,4433.846191,4401.538574,4472.94873,4445.769043,4439.358887,4774.487305,4508.589844,5248.205078,4660.897461,0,4,81,,,,0,4,4,4,4,4,4,4,4,4,4,4,4,4,4,100,,,,,,,,,,,,,,,,,,,,,,,,,,,,,,,,,,,,,,,,,,,,,,,,,,,,,,,,,,,,,,,,,,,,,,,,,,,,,,,,,,,,,,,,,,,,,,,,,,,,,,,,,,,,,,,,,,,,,,,,,,,,,,,,,,,,,,
1702631019,1702631019,27,0,4459.615234,4414.487305,4620,4392.563965,4459.743652,4428.333496,4395.641113,4464.358887,4446.538574,4426.794922,4774.230957,4502.820313,5225.769043,4656.794922,0,4,81,,,,0,4,4,4,4,4,4,4,4,4,4,4,4,4,4,100,,,,,,,,,,,,,,,,,,,,,,,,,,,,,,,,,,,,,,,,,,,,,,,,,,,,,,,,,,,,,,,,,,,,,,,,,,,,,,,,,,,,,,,,,,,,,,,,,,,,,,,,,,,,,,,,,,,,,,,,,,,,,,,,,,,,,,
1702631019,1702631019,28,0,4460.384766,4431.025879,4625,4390.512695,4468.205078,4413.717773,4393.333496,4458.461426,4439.102539,4410.512695,4763.461426,4500.256348,5188.846191,4644.102539,0,4,81,,,,0,4,4,4,4,4,4,4,4,4,4,4,4,4,4,100,,,,,,,,,,,,,,,,,7,0,0.346717,-0.622986,-0.126465,-0.689697,0.962031,-0.228055,0.148456,-5.370511,-6.069677,92.406487,,,,,,,,,,,,,,,,,,,,,,,,,,,,,,,,,,,,,,,,,,,,,,,,,,,,,,,,,,,,,,,,,,,,,,,,,,,,,,,,,,,,,,,,,,,,,,,,,,,,,,,,,,
1702631019,1702631019,29,0,4451.153809,4372.05127,4614.743652,4405.769043,4462.307617,4401.153809,4388.461426,4455.897461,4421.153809,4401.282227,4748.717773,4493.205078,5189.743652,4634.871582,0,4,81,,,,0,4,4,4,4,4,4,4,4,4,4,4,4,4,4,100,,,,,,,,,,,,,,,,,,,,,,,,,,,,,,,,,,,,,,,,,,,,,,,,,,,,,,,,,,,,,,,,,,,,,,,,,,,,,,,,,,,,,,,,,,,,,,,,,,,,,,,,,,,,,,,,,,,,,,,,,,,,,,,,,,,,,,
1702631019,1702631019,30,0,4440,4349.487305,4606.025879,4406.922852,4439.487305,4407.436035,4388.974121,4456.025879,4420.128418,4406.538574,4749.743652,4487.05127,5203.077148,4633.974121,0,4,81,,,,0,4,4,4,4,4,4,4,4,4,4,4,4,4,4,100,,,,,,,,,,,,,,,,,,,,,,,,,,,,,,,,,,,,,,,,,,,,,,,,,,,,,,,,,,,,,,,,,,,,,,,,,,,,,,,,,,,,,,,,,,,,,,,,,,,,,,,,,,,,,,,,,,,,,,,,,,,,,,,,,,,,,,
1702631019,1702631019,31,0,4448.077148,4391.794922,4613.205078,4411.025879,4428.333496,4418.461426,4398.077148,4463.461426,4438.077148,4426.282227,4767.820313,4495.128418,5198.717773,4645,0,4,81,,,,0,4,4,4,4,4,4,4,4,4,4,4,4,4,4,100,,,,,,,,,,,,,,,,,,,,,,,,,,,,,,,,,,,,,,,,,,,,,,,,,,,,,,,,,,,,,,,,,,,,,,,,,,,,,,,,,,,,,,,,,,,,,,,,,,,,,,,,,,,,,,,,,,,,,,,,,,,,,,,,,,,,,,
1702631019,1702631019,32,0,4433.077148,4391.922852,4598.974121,4400.897461,4429.743652,4388.974121,4377.563965,4447.179688,4418.717773,4400.897461,4756.666504,4482.563965,5169.358887,4625.769043,0,4,81,,,,0,4,4,4,4,4,4,4,4,4,4,4,4,4,4,100,,,,,,,,,,,,,,,,,8,0,0.345969,-0.623352,-0.126709,-0.689697,0.949823,-0.221218,0.147967,-5.38346,-6.229376,92.449173,,,,,,,,,,,,,,,,,,,,,,,,,,,,,,,,,,,,,,,,,,,,,,,,,,,,,,,,,,,,,,,,,,,,,,,,,,,,,,,,,,,,,,,,,,,,,,,,,,,,,,,,,,
1702631019,1702631019,33,0,4408.461426,4348.077148,4579.102539,4389.615234,4420.897461,4366.282227,4359.487305,4423.205078,4388.333496,4361.025879,4728.077148,4459.230957,5150.897461,4592.307617,0,4,81,,,,0,4,4,4,4,4,4,4,4,4,4,4,4,4,4,100,,,,,,,,,,,,,,,,,,,,,,,,,,,,,,,,,,,,,,,,,,,,,,,,,,,,,,,,,,,,,,,,,,,,,,,,,,,,,,,,,,,,,,,,,,,,,,,,,,,,,,,,,,,,,,,,,,,,,,,,,,,,,,,,,,,,,,
1702631019,1702631019,34,0,4423.461426,4328.077148,4591.666504,4415.128418,4420.384766,4396.025879,4388.589844,4444.743652,4410.128418,4375.128418,4741.666504,4474.615234,5176.025879,4605,0,4,81,,,,0,4,4,4,4,4,4,4,4,4,4,4,4,4,4,100,,,,,,,,,,,,,,,,,,,,,,,,,,,,,,,,,,,,,,,,,,,,,,,,,,,,,,,,,,,,,,,,,,,,,,,,,,,,,,,,,,,,,,,,,,,,,,,,,,,,,,,,,,,,,,,,,,,,,,,,,,,,,,,,,,,,,,
1702631019,1702631019,35,0,4437.820313,4351.410156,4597.563965,4419.358887,4435.769043,4406.666504,4400,4463.846191,4436.153809,4385.641113,4761.153809,4486.538574,5194.487305,4623.205078,0,4,81,,,,0,4,4,4,4,4,4,4,4,4,4,4,4,4,4,100,,,,,,,,,,,,,,,,,,,,,,,,,,,,,,,,,,,,,,,,,,,,,,,,,,,,,,,,,,,,,,,,,,,,,,,,,,,,,,,,,,,,,,,,,,,,,,,,,,,,,,,,,,,,,,,,,,,,,,,,,,,,,,,,,,,,,,
1702631019,1702631019,36,0,4414.487305,4381.153809,4576.153809,4371.153809,4418.077148,4366.794922,4363.077148,4430.897461,4412.05127,4355.256348,4746.410156,4458.077148,5180.256348,4599.871582,0,4,81,,,,0,4,4,4,4,4,4,4,4,4,4,4,4,4,4,100,,,,,,,,,,,,,,,,,9,0,0.344941,-0.623657,-0.127014,-0.68988,0.952265,-0.217312,0.150409,-5.328447,-6.356439,92.454254,,,,,,,,,,,,,,,,,,,,,,,,,,,,,,,,,,,,,,,,,,,,,,,,,,,,,,,,,,,,,,,,,,,,,,,,,,,,,,,,,,,,,,,,,,,,,,,,,,,,,,,,,,
1702631019,1702631019,37,0,4400,4380.641113,4571.025879,4348.461426,4389.743652,4349.102539,4350.641113,4413.077148,4391.666504,4355.897461,4747.820313,4448.589844,5185.128418,4588.205078,0,4,81,,,,0,4,4,4,4,4,4,4,4,4,4,4,4,4,4,100,,,,,,,,,,,,,,,,,,,,,,,,,,,,,,,,,,,,,,,,,,,,,,,,,,,,,,,,,,,,,,,,,8.126425,1.484863,2.613646,1.229945,0.899581,11.839919,2.854251,3.751477,5.084481,4.181671,16.701197,1.019197,1.020046,0.662647,0.415215,6.192507,3.311949,9.166431,5.887155,3.630972,7.25069,1.047996,2.738764,1.837041,1.328326,8.217258,0.70432,1.826199,0.901025,1.154581,3.411257,0.461023,1.131805,0.723908,0.810486,10.095886,1.104098,2.358817,1.168226,0.938508,28.588827,2.815541,5.536412,1.872264,1.441829,1074.815796,182.547272,122.656364,33.976322,11.542098,38.090885,4.810873,6.266149,3.358271,2.141946,133.241241,22.825672,20.761957,4.576621,1.63219,2338.278076,492.198456,254.145172,81.834213,18.553846,139.565445,20.671488,21.803682,4.865393,2.209901
1702631019,1702631019,38,0,4413.077148,4353.205078,4577.05127,4378.589844,4398.589844,4371.794922,4376.410156,4434.230957,4409.102539,4388.205078,4768.717773,4470.897461,5203.333496,4607.94873,0,4,81,,,,0,4,4,4,4,4,4,4,4,4,4,4,4,4,4,100,,,,,,,,,,,,,,,,,,,,,,,,,,,,,,,,,,,,,,,,,,,,,,,,,,,,,,,,,,,,,,,,,,,,,,,,,,,,,,,,,,,,,,,,,,,,,,,,,,,,,,,,,,,,,,,,,,,,,,,,,,,,,,,,,,,,,,
1702631019,1702631019,39,0,4415.512695,4340.641113,4570.769043,4399.230957,4412.436035,4378.717773,4381.410156,4438.333496,4417.94873,4378.974121,4769.230957,4470.384766,5190.512695,4608.974121,0,4,81,,,,0,4,4,4,4,4,4,4,4,4,4,4,4,4,4,100,,,,,,,,,,,,,,,,,,,,,,,,,,,,,,,,,,,,,,,,,,,,,,,,,,,,,,,,,,,,,,,,,,,,,,,,,,,,,,,,,,,,,,,,,,,,,,,,,,,,,,,,,,,,,,,,,,,,,,,,,,,,,,,,,,,,,,
1702631019,1702631019,40,0,4412.563965,4346.666504,4569.743652,4396.666504,4407.820313,4367.436035,4368.846191,4434.871582,4417.179688,4371.410156,4773.461426,4461.666504,5181.025879,4602.307617,0,4,81,,,,0,4,4,4,4,4,4,4,4,4,4,4,4,4,4,100,,,,,,,,,,,,,,,,,10,0,0.344064,-0.623901,-0.127197,-0.690063,0.97131,-0.216335,0.130387,-5.462269,-6.337461,92.525497,,,,,,,,,,,,,,,,,,,,,,,,,,,,,,,,,,,,,,,,,,,,,,,,,,,,,,,,,,,,,,,,,,,,,,,,,,,,,,,,,,,,,,,,,,,,,,,,,,,,,,,,,,
1702631019,1702631019,41,0,4417.05127,4317.692383,4567.820313,4400.897461,4410.256348,4366.922852,4373.461426,4442.692383,4423.461426,4390.384766,4787.692383,4467.05127,5185.256348,4609.230957,0,4,81,,,,0,4,4,4,4,4,4,4,4,4,4,4,4,4,4,100,,,,,,,,,,,,,,,,,,,,,,,,,,,,,,,,,,,,,,,,,,,,,,,,,,,,,,,,,,,,,,,,,,,,,,,,,,,,,,,,,,,,,,,,,,,,,,,,,,,,,,,,,,,,,,,,,,,,,,,,,,,,,,,,,,,,,,
1702631019,1702631019,42,0,4406.025879,4288.589844,4547.436035,4403.461426,4410.641113,4368.205078,4376.666504,4437.05127,4417.436035,4373.589844,4772.05127,4458.974121,5165,4597.307617,0,4,81,,,,0,4,4,4,4,4,4,4,4,4,4,4,4,4,4,100,,,,,,,,,,,,,,,,,,,,,,,,,,,,,,,,,,,,,,,,,,,,,,,,,,,,,,,,,,,,,,,,,,,,,,,,,,,,,,,,,,,,,,,,,,,,,,,,,,,,,,,,,,,,,,,,,,,,,,,,,,,,,,,,,,,,,,
1702631019,1702631019,43,0,4385.128418,4324.487305,4538.717773,4374.230957,4392.563965,4355.384766,4362.692383,4421.794922,4401.282227,4341.922852,4742.820313,4441.794922,5132.820313,4570.897461,0,4,81,,,,0,4,4,4,4,4,4,4,4,4,4,4,4,4,4,100,,,,,,,,,,,,,,,,,,,,,,,,,,,,,,,,,,,,,,,,,,,,,,,,,,,,,,,,,,,,,,,,,,,,,,,,,,,,,,,,,,,,,,,,,,,,,,,,,,,,,,,,,,,,,,,,,,,,,,,,,,,,,,,,,,,,,,
1702631019,1702631019,44,0,4373.589844,4371.794922,4552.307617,4327.05127,4379.102539,4337.436035,4347.692383,4408.846191,4383.333496,4332.436035,4730.769043,4429.871582,5108.205078,4554.871582,0,4,81,,,,0,4,4,4,4,4,4,4,4,4,4,4,4,4,4,100,,,,,,,,,,,,,,,,,11,0,0.343598,-0.624023,-0.127197,-0.690186,0.956171,-0.209987,0.145037,-5.516042,-6.537049,92.572945,,,,,,,,,,,,,,,,,,,,,,,,,,,,,,,,,,,,,,,,,,,,,,,,,,,,,,,,,,,,,,,,,,,,,,,,,,,,,,,,,,,,,,,,,,,,,,,,,,,,,,,,,,
1702631019,1702631019,45,0,4375.512695,4335.641113,4558.333496,4336.538574,4379.743652,4344.615234,4353.589844,4407.563965,4378.077148,4341.922852,4736.153809,4429.230957,5101.282227,4555.769043,0,4,81,,,,0,4,4,4,4,4,4,4,4,4,4,4,4,4,4,100,,,,,,,,,,,,,,,,,,,,,,,,,,,,,,,,,,,,,,,,,,,,,,,,,,,,,,,,,,,,,,,,,,,,,,,,,,,,,,,,,,,,,,,,,,,,,,,,,,,,,,,,,,,,,,,,,,,,,,,,,,,,,,,,,,,,,,
1702631019,1702631019,46,0,4375.641113,4313.205078,4551.794922,4352.820313,4372.820313,4354.871582,4360.512695,4412.563965,4385.769043,4355.769043,4737.820313,4432.692383,5109.358887,4557.05127,0,4,81,,,,0,4,4,4,4,4,4,4,4,4,4,4,4,4,4,100,,,,,,,,,,,,,,,,,,,,,,,,,,,,,,,,,,,,,,,,,,,,,,,,,,,,,,,,,,,,,,,,,,,,,,,,,,,,,,,,,,,,,,,,,,,,,,,,,,,,,,,,,,,,,,,,,,,,,,,,,,,,,,,,,,,,,,
1702631019,1702631019,47,0,4364.487305,4373.077148,4548.077148,4305.256348,4362.692383,4336.538574,4345.512695,4399.358887,4378.205078,4352.563965,4715.512695,4422.94873,5103.589844,4547.563965,0,4,81,,,,0,4,4,4,4,4,4,4,4,4,4,4,4,4,4,100,,,,,,,,,,,,,,,,,,,,,,,,,,,,,,,,,,,,,,,,,,,,,,,,,,,,,,,,,,,,,,,,,,,,,,,,,,,,,,,,,,,,,,,,,,,,,,,,,,,,,,,,,,,,,,,,,,,,,,,,,,,,,,,,,,,,,,
1702631019,1702631019,48,0,4355.384766,4350.897461,4537.179688,4289.615234,4373.333496,4328.461426,4343.333496,4388.077148,4364.358887,4339.487305,4702.563965,4413.333496,5086.538574,4539.487305,0,4,81,,,,0,4,4,4,4,4,4,4,4,4,4,4,4,4,4,100,,,,,,,,,,,,,,,,,12,0,0.342863,-0.624268,-0.127319,-0.690308,0.957148,-0.210963,0.141619,-5.514438,-6.533344,92.598984,,,,,,,,,,,,,,,,,,,,,,,,,,,,,,,,,,,,,,,,,,,,,,,,,,,,,,,,,,,,,,,,,,,,,,,,,,,,,,,,,,,,,,,,,,,,,,,,,,,,,,,,,,
1702631020,1702631020,49,0,4347.94873,4274.230957,4517.179688,4312.436035,4378.589844,4345.769043,4357.692383,4398.333496,4366.794922,4337.179688,4713.974121,4412.820313,5080.897461,4533.077148,0,4,81,,,,0,4,4,4,4,4,4,4,4,4,4,4,4,4,4,100,,,,,,,,,,,,,,,,,,,,,,,,,,,,,,,,,,,,,,,,,,,,,,,,,,,,,,,,,,,,,,,,,,,,,,,,,,,,,,,,,,,,,,,,,,,,,,,,,,,,,,,,,,,,,,,,,,,,,,,,,,,,,,,,,,,,,,
1702631020,1702631020,50,0,4335.128418,4302.179688,4511.922852,4294.102539,4351.922852,4336.410156,4350.769043,4397.563965,4364.230957,4338.461426,4708.461426,4404.358887,5076.025879,4523.717773,0,4,81,,,,0,4,4,4,4,4,4,4,4,4,4,4,4,4,4,100,,,,,,,,,,,,,,,,,,,,,,,,,,,,,,,,,,,,,,,,,,,,,,,,,,,,,,,,,,,,,,,,,,,,,,,,,,,,,,,,,,,,,,,,,,,,,,,,,,,,,,,,,,,,,,,,,,,,,,,,,,,,,,,,,,,,,,
1702631020,1702631020,51,0,4322.563965,4341.666504,4513.077148,4270.897461,4331.025879,4306.153809,4332.307617,4384.358887,4353.589844,4321.282227,4687.436035,4388.205078,5053.333496,4514.615234,0,4,81,,,,0,4,4,4,4,4,4,4,4,4,4,4,4,4,4,100,,,,,,,,,,,,,,,,,,,,,,,,,,,,,,,,,,,,,,,,,,,,,,,,,,,,,,,,,,,,,,,,,,,,,,,,,,,,,,,,,,,,,,,,,,,,,,,,,,,,,,,,,,,,,,,,,,,,,,,,,,,,,,,,,,,,,,
1702631020,1702631020,52,0,4319.871582,4279.743652,4509.102539,4290.128418,4337.307617,4313.077148,4336.153809,4388.974121,4357.692383,4306.666504,4689.743652,4381.666504,5033.589844,4507.820313,0,4,81,,,,0,4,4,4,4,4,4,4,4,4,4,4,4,4,4,100,,,,,,,,,,,,,,,,,13,0,0.342117,-0.624512,-0.127136,-0.690491,0.952753,-0.2178,0.141619,-5.546327,-6.446676,92.539085,,,,,,,,,,,,,,,,,,,,,,,,,,,,,,,,,,,,,,,,,,,,,,,,,,,,,,,,,,,,,,,,,,,,,,,,,,,,,,,,,,,,,,,,,,,,,,,,,,,,,,,,,,
1702631020,1702631020,53,0,4324.615234,4250.256348,4516.538574,4297.436035,4351.282227,4331.922852,4348.077148,4401.282227,4363.077148,4316.922852,4698.589844,4383.974121,5045.512695,4510.897461,0,4,81,,,,0,4,4,4,4,4,4,4,4,4,4,4,4,4,4,100,,,,,,,,,,,,,,,,,,,,,,,,,,,,,,,,,,,,,,,,,,,,,,,,,,,,,,,,,,,,,,,,,7.931054,1.643531,2.378386,1.207984,0.842145,12.252531,3.096195,3.880718,5.733699,4.320463,13.772708,1.157095,1.072541,0.674506,0.438897,9.135842,3.842304,8.897791,5.951961,3.727925,7.451514,1.202677,2.876354,1.942417,1.240701,7.936325,0.751589,1.843109,0.984085,1.276052,3.807608,0.502667,1.064374,0.756574,0.837251,11.03422,1.082206,2.10315,1.180969,0.882364,30.572521,2.603301,4.779858,1.825884,1.403675,1049.874878,159.228012,110.689583,30.903061,10.259944,45.858265,5.79405,5.683405,3.475332,1.916783,131.031479,19.502356,18.736145,4.226723,1.446986,2161.807373,436.572693,227.622559,72.657478,16.649221,136.718231,17.995407,19.725807,4.631461,1.994062
1702631020,1702631020,54,0,4318.589844,4289.358887,4520.256348,4267.179688,4342.436035,4315.128418,4337.436035,4392.820313,4351.922852,4330.512695,4677.820313,4377.307617,5064.102539,4512.820313,0,4,81,,,,0,4,4,4,4,4,4,4,4,4,4,4,4,4,4,100,,,,,,,,,,,,,,,,,,,,,,,,,,,,,,,,,,,,,,,,,,,,,,,,,,,,,,,,,,,,,,,,,,,,,,,,,,,,,,,,,,,,,,,,,,,,,,,,,,,,,,,,,,,,,,,,,,,,,,,,,,,,,,,,,,,,,,
1702631020,1702631020,55,0,4309.487305,4291.282227,4507.179688,4248.333496,4326.410156,4298.077148,4326.282227,4377.307617,4340.256348,4330.128418,4663.717773,4365.128418,5061.282227,4506.025879,0,4,81,,,,0,4,4,4,4,4,4,4,4,4,4,4,4,4,4,100,,,,,,,,,,,,,,,,,,,,,,,,,,,,,,,,,,,,,,,,,,,,,,,,,,,,,,,,,,,,,,,,,,,,,,,,,,,,,,,,,,,,,,,,,,,,,,,,,,,,,,,,,,,,,,,,,,,,,,,,,,,,,,,,,,,,,,
1702631020,1702631020,56,0,4314.743652,4275.128418,4504.102539,4262.94873,4342.436035,4304.102539,4333.333496,4379.358887,4340.641113,4321.666504,4683.589844,4364.358887,5053.461426,4509.102539,0,4,81,,,,0,4,4,4,4,4,4,4,4,4,4,4,4,4,4,100,,,,,,,,,,,,,,,,,14,0,0.341808,-0.624878,-0.126831,-0.690369,0.928336,-0.204615,0.134294,-5.541695,-6.452009,92.518509,,,,,,,,,,,,,,,,,,,,,,,,,,,,,,,,,,,,,,,,,,,,,,,,,,,,,,,,,,,,,,,,,,,,,,,,,,,,,,,,,,,,,,,,,,,,,,,,,,,,,,,,,,
1702631020,1702631020,57,0,4319.743652,4265.384766,4509.358887,4280.897461,4351.153809,4311.922852,4339.487305,4385.128418,4346.794922,4320,4695.512695,4369.871582,5053.333496,4519.871582,0,4,81,,,,0,4,4,4,4,4,4,4,4,4,4,4,4,4,4,100,,,,,,,,,,,,,,,,,,,,,,,,,,,,,,,,,,,,,,,,,,,,,,,,,,,,,,,,,,,,,,,,,,,,,,,,,,,,,,,,,,,,,,,,,,,,,,,,,,,,,,,,,,,,,,,,,,,,,,,,,,,,,,,,,,,,,,
1702631020,1702631020,58,0,4308.205078,4264.102539,4502.307617,4265.256348,4316.922852,4306.410156,4329.487305,4370.897461,4338.077148,4312.179688,4671.410156,4357.436035,5037.307617,4509.615234,0,4,81,,,,0,4,4,4,4,4,4,4,4,4,4,4,4,4,4,100,,,,,,,,,,,,,,,,,,,,,,,,,,,,,,,,,,,,,,,,,,,,,,,,,,,,,,,,,,,,,,,,,,,,,,,,,,,,,,,,,,,,,,,,,,,,,,,,,,,,,,,,,,,,,,,,,,,,,,,,,,,,,,,,,,,,,,
1702631020,1702631020,59,0,4302.692383,4266.153809,4498.589844,4258.846191,4306.282227,4308.077148,4323.974121,4357.05127,4322.820313,4306.025879,4654.615234,4344.487305,5016.538574,4500.512695,0,4,81,,,,0,4,4,4,4,4,4,4,4,4,4,4,4,4,4,100,,,,,,,,,,,,,,,,,,,,,,,,,,,,,,,,,,,,,,,,,,,,,,,,,,,,,,,,,,,,,,,,,,,,,,,,,,,,,,,,,,,,,,,,,,,,,,,,,,,,,,,,,,,,,,,,,,,,,,,,,,,,,,,,,,,,,,
1702631020,1702631020,60,0,4311.282227,4252.692383,4503.974121,4269.615234,4340.512695,4310.512695,4330,4366.538574,4327.307617,4319.230957,4668.717773,4356.538574,5015.897461,4516.922852,0,4,81,,,,0,4,4,4,4,4,4,4,4,4,4,4,4,4,4,100,,,,,,,,,,,,,,,,,15,0,0.34163,-0.625,-0.126709,-0.690369,0.965938,-0.20315,0.1382,-5.537525,-6.340141,92.549995,,,,,,,,,,,,,,,,,,,,,,,,,,,,,,,,,,,,,,,,,,,,,,,,,,,,,,,,,,,,,,,,,,,,,,,,,,,,,,,,,,,,,,,,,,,,,,,,,,,,,,,,,,
1702631020,1702631020,61,0,4313.333496,4245.897461,4504.487305,4259.743652,4339.743652,4300.256348,4330,4377.692383,4342.563965,4332.436035,4678.589844,4369.487305,5010,4527.692383,0,4,81,,,,0,4,4,4,4,4,4,4,4,4,4,4,4,4,4,100,,,,,,,,,,,,,,,,,,,,,,,,,,,,,,,,,,,,,,,,,,,,,,,,,,,,,,,,,,,,,,,,,,,,,,,,,,,,,,,,,,,,,,,,,,,,,,,,,,,,,,,,,,,,,,,,,,,,,,,,,,,,,,,,,,,,,,
1702631020,1702631020,62,0,4310,4240.641113,4497.94873,4257.436035,4317.436035,4296.153809,4328.077148,4372.563965,4344.230957,4327.307617,4670.384766,4360.897461,4982.820313,4516.410156,0,4,81,,,,0,4,4,4,4,4,4,4,4,4,4,4,4,4,4,100,,,,,,,,,,,,,,,,,,,,,,,,,,,,,,,,,,,,,,,,,,,,,,,,,,,,,,,,,,,,,,,,,,,,,,,,,,,,,,,,,,,,,,,,,,,,,,,,,,,,,,,,,,,,,,,,,,,,,,,,,,,,,,,,,,,,,,
1702631020,1702631020,63,0,4295.256348,4230.128418,4480.128418,4238.974121,4311.794922,4291.666504,4320.769043,4354.102539,4320.256348,4302.820313,4650,4342.692383,4952.820313,4492.94873,0,4,81,,,,0,4,4,4,4,4,4,4,4,4,4,4,4,4,4,100,,,,,,,,,,,,,,,,,,,,,,,,,,,,,,,,,,,,,,,,,,,,,,,,,,,,,,,,,,,,,,,,,,,,,,,,,,,,,,,,,,,,,,,,,,,,,,,,,,,,,,,,,,,,,,,,,,,,,,,,,,,,,,,,,,,,,,
1702631020,1702631020,64,0,4275.128418,4246.666504,4468.333496,4189.358887,4300,4278.077148,4308.589844,4339.615234,4295.641113,4279.743652,4632.436035,4332.820313,4939.615234,4473.974121,4742,4,81,,,,0,4,4,4,4,4,4,4,4,4,4,4,4,4,4,100,,,,,,,,,,,,,,,,,16,0,0.341785,-0.624695,-0.126465,-0.690613,0.96545,-0.234404,0.1382,-5.467106,-6.422793,92.678329,,,,,,,,,,,,,,,,,,,,,,,,,,,,,,,,,,,,,,,,,,,,,,,,,,,,,,,,,,,,,,,,,,,,,,,,,,,,,,,,,,,,,,,,,,,,,,,,,,,,,,,,,,
1702631020,1702631020,65,0,4274.615234,4277.692383,4475,4171.538574,4294.743652,4277.05127,4309.743652,4337.436035,4292.692383,4277.692383,4628.974121,4334.743652,4937.692383,4473.205078,5701,4,81,,,,0,4,4,4,4,4,4,4,4,4,4,4,4,4,4,100,,,,,,,,,,,,,,,,,,,,,,,,,,,,,,,,,,,,,,,,,,,,,,,,,,,,,,,,,,,,,,,,,,,,,,,,,,,,,,,,,,,,,,,,,,,,,,,,,,,,,,,,,,,,,,,,,,,,,,,,,,,,,,,,,,,,,,
1702631020,1702631020,66,0,4280.384766,4248.846191,4476.666504,4188.205078,4297.692383,4286.153809,4314.743652,4335.769043,4297.820313,4285.384766,4638.461426,4335.897461,4927.436035,4477.05127,5499,4,81,,,,0,4,4,4,4,4,4,4,4,4,4,4,4,4,4,100,,,,,,,,,,,,,,,,,,,,,,,,,,,,,,,,,,,,,,,,,,,,,,,,,,,,,,,,,,,,,,,,,,,,,,,,,,,,,,,,,,,,,,,,,,,,,,,,,,,,,,,,,,,,,,,,,,,,,,,,,,,,,,,,,,,,,,
1702631020,1702631020,67,0,4277.05127,4208.461426,4471.025879,4181.025879,4292.820313,4269.358887,4303.077148,4332.94873,4293.461426,4283.077148,4647.94873,4332.692383,4913.461426,4474.358887,5470,4,81,,,,0,4,4,4,4,4,4,4,4,4,4,4,4,4,4,100,,,,,,,,,,,,,,,,,,,,,,,,,,,,,,,,,,,,,,,,,,,,,,,,,,,,,,,,,,,,,,,,,,,,,,,,,,,,,,,,,,,,,,,,,,,,,,,,,,,,,,,,,,,,,,,,,,,,,,,,,,,,,,,,,,,,,,
1702631020,1702631020,68,0,4275.897461,4221.410156,4472.307617,4162.692383,4293.717773,4253.077148,4293.333496,4333.205078,4291.794922,4280.128418,4641.794922,4336.282227,4920,4472.692383,5479,4,81,,,,0,4,4,4,4,4,4,4,4,4,4,4,4,4,4,100,,,,,,,,,,,,,,,,,17,0,0.342152,-0.624329,-0.126282,-0.690796,0.953241,-0.219265,0.142596,-5.503729,-6.513847,92.610497,,,,,,,,,,,,,,,,,,,,,,,,,,,,,,,,,,,,,,,,,,,,,,,,,,,,,,,,,,,,,,,,,,,,,,,,,,,,,,,,,,,,,,,,,,,,,,,,,,,,,,,,,,
1702631020,1702631020,69,0,4278.589844,4233.077148,4476.025879,4165.128418,4294.230957,4266.922852,4303.333496,4335,4301.922852,4283.461426,4632.05127,4345.384766,4936.794922,4480.256348,5273,4,81,,,,0,4,4,4,4,4,4,4,4,4,4,4,4,4,4,100,,,,,,,,,,,,,,,,,,,,,,,,,,,,,,,,,,,,,,,,,,,,,,,,,,,,,,,,,,,,,,,,,7.925441,1.730572,2.036669,1.16885,0.848106,12.679299,3.258617,4.033854,6.03822,4.621067,12.599998,1.289139,1.035834,0.657398,0.468236,12.295276,4.419099,8.132173,5.702408,4.061705,7.829809,1.281422,2.862243,2.055902,1.237158,7.685678,0.797002,1.73772,1.107446,1.51971,4.109455,0.515438,0.941346,0.770603,0.918919,11.700704,1.015123,1.790223,1.175178,0.905152,30.641699,2.288459,3.743149,1.731443,1.497248,893.898743,118.143654,85.556717,24.386995,8.087046,54.391987,6.735227,4.874786,3.428226,1.827217,112.779427,14.126913,14.573028,3.446395,1.234506,1700.797729,329.110291,173.642578,55.341396,13.018367,119.351219,13.669016,15.51004,4.017902,1.789635
1702631020,1702631020,70,0,4273.846191,4224.871582,4472.436035,4163.333496,4289.487305,4278.846191,4308.846191,4333.333496,4299.230957,4273.077148,4628.077148,4343.333496,4912.563965,4478.717773,3874,4,81,,,,0,4,4,4,4,4,4,4,4,4,4,4,4,4,4,100,,,,,,,,,,,,,,,,,,,,,,,,,,,,,,,,,,,,,,,,,,,,,,,,,,,,,,,,,,,,,,,,,,,,,,,,,,,,,,,,,,,,,,,,,,,,,,,,,,,,,,,,,,,,,,,,,,,,,,,,,,,,,,,,,,,,,,
1702631020,1702631020,71,0,4265.897461,4227.692383,4465,4145.128418,4292.307617,4263.974121,4298.461426,4328.717773,4285.256348,4267.820313,4623.205078,4333.461426,4874.743652,4464.487305,4951,4,81,,,,0,4,4,4,4,4,4,4,4,4,4,4,4,4,4,100,,,,,,,,,,,,,,,,,,,,,,,,,,,,,,,,,,,,,,,,,,,,,,,,,,,,,,,,,,,,,,,,,,,,,,,,,,,,,,,,,,,,,,,,,,,,,,,,,,,,,,,,,,,,,,,,,,,,,,,,,,,,,,,,,,,,,,
1702631020,1702631020,72,0,4256.282227,4241.410156,4457.820313,4114.743652,4286.538574,4240.769043,4284.487305,4315.512695,4271.538574,4264.487305,4607.820313,4325.897461,4866.282227,4450.512695,5455,4,81,,,,0,4,4,4,4,4,4,4,4,4,4,4,4,4,4,100,,,,,,,,,,,,,,,,,18,0,0.34226,-0.624023,-0.12616,-0.69104,0.928336,-0.22073,0.153339,-5.386689,-6.495796,92.649445,,,,,,,,,,,,,,,,,,,,,,,,,,,,,,,,,,,,,,,,,,,,,,,,,,,,,,,,,,,,,,,,,,,,,,,,,,,,,,,,,,,,,,,,,,,,,,,,,,,,,,,,,,
1702631020,1702631020,73,0,4259.102539,4226.666504,4462.307617,4130.897461,4282.94873,4260.384766,4297.94873,4319.487305,4279.102539,4251.153809,4614.358887,4337.307617,4862.820313,4456.922852,5505,4,81,,,,0,4,4,4,4,4,4,4,4,4,4,4,4,4,4,100,,,,,,,,,,,,,,,,,,,,,,,,,,,,,,,,,,,,,,,,,,,,,,,,,,,,,,,,,,,,,,,,,,,,,,,,,,,,,,,,,,,,,,,,,,,,,,,,,,,,,,,,,,,,,,,,,,,,,,,,,,,,,,,,,,,,,,
1702631020,1702631020,74,0,4280.128418,4192.307617,4472.179688,4190.897461,4307.820313,4292.05127,4324.102539,4345.769043,4303.589844,4259.487305,4644.743652,4359.230957,4869.615234,4477.94873,6040,4,81,,,,0,4,4,4,4,4,4,4,4,4,4,4,4,4,4,100,,,,,,,,,,,,,,,,,,,,,,,,,,,,,,,,,,,,,,,,,,,,,,,,,,,,,,,,,,,,,,,,,,,,,,,,,,,,,,,,,,,,,,,,,,,,,,,,,,,,,,,,,,,,,,,,,,,,,,,,,,,,,,,,,,,,,,
1702631020,1702631020,75,0,4274.102539,4221.666504,4466.282227,4170.128418,4304.102539,4275.512695,4312.179688,4340.512695,4300.256348,4286.153809,4634.871582,4350.769043,4889.871582,4469.102539,6305,4,81,,,,0,4,4,4,4,4,4,4,4,4,4,4,4,4,4,100,,,,,,,,,,,,,,,,,,,,,,,,,,,,,,,,,,,,,,,,,,,,,,,,,,,,,,,,,,,,,,,,,,,,,,,,,,,,,,,,,,,,,,,,,,,,,,,,,,,,,,,,,,,,,,,,,,,,,,,,,,,,,,,,,,,,,,
1702631020,1702631020,76,0,4245,4277.692383,4456.025879,4100.128418,4274.487305,4250.128418,4285.769043,4316.794922,4283.077148,4280.128418,4610,4328.205078,4862.692383,4438.589844,6843,4,81,,,,0,4,4,4,4,4,4,4,4,4,4,4,4,4,4,100,,,,,,,,,,,,,,,,,19,0,0.342218,-0.623413,-0.126282,-0.691589,0.966915,-0.210963,0.151874,-5.481354,-6.612883,92.667831,,,,,,,,,,,,,,,,,,,,,,,,,,,,,,,,,,,,,,,,,,,,,,,,,,,,,,,,,,,,,,,,,,,,,,,,,,,,,,,,,,,,,,,,,,,,,,,,,,,,,,,,,,
1702631020,1702631020,77,0,4250.128418,4266.538574,4454.230957,4114.487305,4282.94873,4263.205078,4294.871582,4323.589844,4283.461426,4257.307617,4622.563965,4335.128418,4820,4436.410156,4392,4,81,,,,0,4,4,4,4,4,4,4,4,4,4,4,4,4,4,100,,,,,,,,,,,,,,,,,,,,,,,,,,,,,,,,,,,,,,,,,,,,,,,,,,,,,,,,,,,,,,,,,,,,,,,,,,,,,,,,,,,,,,,,,,,,,,,,,,,,,,,,,,,,,,,,,,,,,,,,,,,,,,,,,,,,,,
1702631020,1702631020,78,0,4267.436035,4231.666504,4452.563965,4157.563965,4305.641113,4269.615234,4306.153809,4334.487305,4286.282227,4258.589844,4630,4347.692383,4836.282227,4448.974121,6040,4,81,,,,0,4,4,4,4,4,4,4,4,4,4,4,4,4,4,100,,,,,,,,,,,,,,,,,,,,,,,,,,,,,,,,,,,,,,,,,,,,,,,,,,,,,,,,,,,,,,,,,,,,,,,,,,,,,,,,,,,,,,,,,,,,,,,,,,,,,,,,,,,,,,,,,,,,,,,,,,,,,,,,,,,,,,
1702631020,1702631020,79,0,4257.820313,4250.641113,4453.333496,4142.563965,4305,4255.641113,4293.461426,4322.436035,4278.205078,4267.820313,4618.205078,4343.461426,4856.538574,4446.794922,6305,4,81,,,,0,4,4,4,4,4,4,4,4,4,4,4,4,4,4,100,,,,,,,,,,,,,,,,,,,,,,,,,,,,,,,,,,,,,,,,,,,,,,,,,,,,,,,,,,,,,,,,,,,,,,,,,,,,,,,,,,,,,,,,,,,,,,,,,,,,,,,,,,,,,,,,,,,,,,,,,,,,,,,,,,,,,,
1702631020,1702631020,80,0,4261.025879,4264.102539,4464.230957,4148.846191,4310.897461,4261.153809,4298.205078,4330.384766,4288.589844,4276.282227,4638.717773,4355.128418,4836.922852,4453.077148,6843,4,81,,,,0,4,4,4,4,4,4,4,4,4,4,4,4,4,4,100,,,,,,,,,,,,,,,,,20,0,0.342065,-0.622986,-0.126465,-0.692017,0.98889,-0.217312,0.161641,-5.483218,-6.684928,92.801048,,,,,,,,,,,,,,,,,,,,,,,,,,,,,,,,,,,,,,,,,,,,,,,,,,,,,,,,,,,,,,,,,,,,,,,,,,,,,,,,,,,,,,,,,,,,,,,,,,,,,,,,,,
1702631020,1702631020,81,0,4276.410156,4233.077148,4467.692383,4183.589844,4319.230957,4283.205078,4320.897461,4357.179688,4311.025879,4286.538574,4654.487305,4372.94873,4827.692383,4466.666504,4392,4,81,,,,0,4,4,4,4,4,4,4,4,4,4,4,4,4,4,100,,,,,,,,,,,,,,,,,,,,,,,,,,,,,,,,,,,,,,,,,,,,,,,,,,,,,,,,,,,,,,,,,,,,,,,,,,,,,,,,,,,,,,,,,,,,,,,,,,,,,,,,,,,,,,,,,,,,,,,,,,,,,,,,,,,,,,
1702631020,1702631020,82,0,4268.846191,4235.384766,4452.307617,4168.461426,4307.307617,4285.256348,4315.769043,4347.820313,4301.922852,4282.307617,4631.410156,4363.461426,4846.282227,4461.282227,6040,4,81,,,,0,4,4,4,4,4,4,4,4,4,4,4,4,4,4,100,,,,,,,,,,,,,,,,,,,,,,,,,,,,,,,,,,,,,,,,,,,,,,,,,,,,,,,,,,,,,,,,,,,,,,,,,,,,,,,,,,,,,,,,,,,,,,,,,,,,,,,,,,,,,,,,,,,,,,,,,,,,,,,,,,,,,,
1702631020,1702631020,83,0,4267.94873,4277.436035,4448.461426,4144.358887,4296.282227,4268.846191,4296.282227,4323.717773,4282.179688,4282.820313,4637.179688,4355.256348,4861.794922,4464.743652,6305,4,81,,,,0,4,4,4,4,4,4,4,4,4,4,4,4,4,4,100,,,,,,,,,,,,,,,,,,,,,,,,,,,,,,,,,,,,,,,,,,,,,,,,,,,,,,,,,,,,,,,,,,,,,,,,,,,,,,,,,,,,,,,,,,,,,,,,,,,,,,,,,,,,,,,,,,,,,,,,,,,,,,,,,,,,,,
1702631020,1702631020,84,0,4288.077148,4280.641113,4462.820313,4152.94873,4290.897461,4280.641113,4303.077148,4328.077148,4285.512695,4298.846191,4670.512695,4369.487305,4864.358887,4485.256348,6843,4,81,,,,0,4,4,4,4,4,4,4,4,4,4,4,4,4,4,100,,,,,,,,,,,,,,,,,21,0,0.34156,-0.622498,-0.126892,-0.692627,0.987425,-0.219753,0.156269,-5.451563,-6.683102,92.770943,,,,,,,,,,,,,,,,,,,,,,,,,,,,,,,,,,,,,,,,,,,,,,,,,,,,,,,,,,,,,,,,,,,,,,,,,,,,,,,,,,,,,,,,,,,,,,,,,,,,,,,,,,
1702631020,1702631020,85,0,4296.282227,4246.666504,4467.563965,4162.820313,4292.307617,4287.820313,4311.538574,4342.563965,4306.410156,4300.897461,4676.282227,4382.307617,4863.077148,4492.692383,4392,4,81,,,,0,4,4,4,4,4,4,4,4,4,4,4,4,4,4,100,1,0,1,1,1,0,1,1,1,1,3,0,0,1,0,1,,,,,,,,,,,,,,,,,,,,,,,,,,,,,,,,,,,,,,,,,,,,,,,,,7.790229,1.71875,1.680925,1.113565,0.89258,13.151523,3.319181,4.159441,5.937601,4.984544,11.122622,1.307142,0.902527,0.613509,0.496583,14.786887,4.853214,7.166021,5.207308,4.47421,7.767479,1.244778,2.730255,2.180821,1.304579,7.048581,0.808918,1.554024,1.232478,1.838218,3.983946,0.494515,0.800558,0.764931,1.040123,11.251498,0.921958,1.504091,1.159432,0.991672,27.820189,1.967871,2.69215,1.632792,1.682464,657.049561,72.885002,55.728172,16.654945,5.708605,59.907738,7.331001,4.091658,3.237761,1.849263,83.940758,8.456667,9.660459,2.501966,1.053928,1132.453247,205.789032,110.30201,35.691326,8.850185,92.229424,9.109393,10.580618,3.236028,1.62778
1702631020,1702631020,86,0,4290.128418,4238.717773,4455.384766,4158.589844,4304.615234,4259.358887,4294.615234,4333.205078,4305.256348,4281.922852,4653.333496,4376.282227,4853.974121,4486.025879,6040,4,81,,,,0,4,4,4,4,4,4,4,4,4,4,4,4,4,4,100,,,,,,,,,,,,,,,,,,,,,,,,,,,,,,,,,,,,,,,,,,,,,,,,,,,,,,,,,,,,,,,,,,,,,,,,,,,,,,,,,,,,,,,,,,,,,,,,,,,,,,,,,,,,,,,,,,,,,,,,,,,,,,,,,,,,,,
1702631020,1702631020,87,0,4283.974121,4249.743652,4443.205078,4146.282227,4300.769043,4247.179688,4283.589844,4308.846191,4273.974121,4268.589844,4618.846191,4366.025879,4829.487305,4475.128418,6305,4,81,,,,0,4,4,4,4,4,4,4,4,4,4,4,4,4,4,100,,,,,,,,,,,,,,,,,,,,,,,,,,,,,,,,,,,,,,,,,,,,,,,,,,,,,,,,,,,,,,,,,,,,,,,,,,,,,,,,,,,,,,,,,,,,,,,,,,,,,,,,,,,,,,,,,,,,,,,,,,,,,,,,,,,,,,
1702631020,1702631020,88,0,4288.717773,4251.025879,4447.563965,4142.436035,4290,4263.461426,4296.025879,4308.461426,4265.128418,4279.358887,4609.743652,4372.820313,4810.512695,4473.077148,6843,4,81,,,,0,4,4,4,4,4,4,4,4,4,4,4,4,4,4,100,,,,,,,,,,,,,,,,,22,0,0.34075,-0.622681,-0.127502,-0.692749,0.981565,-0.217312,0.158222,-5.556406,-6.681458,92.710518,,,,,,,,,,,,,,,,,,,,,,,,,,,,,,,,,,,,,,,,,,,,,,,,,,,,,,,,,,,,,,,,,,,,,,,,,,,,,,,,,,,,,,,,,,,,,,,,,,,,,,,,,,
1702631020,1702631020,89,0,4301.153809,4240.256348,4457.94873,4158.461426,4301.922852,4267.179688,4302.692383,4323.589844,4284.615234,4299.871582,4633.461426,4384.487305,4810.897461,4484.615234,4392,4,81,,,,0,4,4,4,4,4,4,4,4,4,4,4,4,4,4,100,,,,,,,,,,,,,,,,,,,,,,,,,,,,,,,,,,,,,,,,,,,,,,,,,,,,,,,,,,,,,,,,,,,,,,,,,,,,,,,,,,,,,,,,,,,,,,,,,,,,,,,,,,,,,,,,,,,,,,,,,,,,,,,,,,,,,,
1702631020,1702631020,90,0,4300.897461,4246.282227,4456.282227,4150.897461,4301.153809,4263.333496,4295.512695,4317.563965,4284.615234,4302.307617,4636.538574,4380,4808.077148,4486.025879,6040,4,81,,,,0,4,4,4,4,4,4,4,4,4,4,4,4,4,4,100,,,,,,,,,,,,,,,,,,,,,,,,,,,,,,,,,,,,,,,,,,,,,,,,,,,,,,,,,,,,,,,,,,,,,,,,,,,,,,,,,,,,,,,,,,,,,,,,,,,,,,,,,,,,,,,,,,,,,,,,,,,,,,,,,,,,,,
1702631020,1702631020,91,0,4288.333496,4293.077148,4449.487305,4102.05127,4273.846191,4262.692383,4290.641113,4303.205078,4267.820313,4288.717773,4611.282227,4371.282227,4780.128418,4472.05127,6305,4,81,,,,0,4,4,4,4,4,4,4,4,4,4,4,4,4,4,100,,,,,,,,,,,,,,,,,,,,,,,,,,,,,,,,,,,,,,,,,,,,,,,,,,,,,,,,,,,,,,,,,,,,,,,,,,,,,,,,,,,,,,,,,,,,,,,,,,,,,,,,,,,,,,,,,,,,,,,,,,,,,,,,,,,,,,
1702631020,1702631020,92,0,4288.846191,4304.743652,4456.794922,4103.717773,4279.230957,4257.179688,4293.461426,4316.153809,4281.025879,4294.871582,4611.410156,4386.282227,4755.512695,4474.487305,6843,4,81,,,,0,4,4,4,4,4,4,4,4,4,4,4,4,4,4,100,,,,,,,,,,,,,,,,,23,0,0.339937,-0.622864,-0.128113,-0.692871,0.948358,-0.204615,0.144549,-5.600766,-6.596646,92.689468,,,,,,,,,,,,,,,,,,,,,,,,,,,,,,,,,,,,,,,,,,,,,,,,,,,,,,,,,,,,,,,,,,,,,,,,,,,,,,,,,,,,,,,,,,,,,,,,,,,,,,,,,,
1702631020,1702631020,93,0,4296.922852,4258.333496,4466.410156,4147.179688,4304.871582,4261.025879,4298.461426,4332.563965,4302.436035,4319.487305,4635.641113,4402.179688,4761.410156,4487.307617,4392,4,81,,,,0,4,4,4,4,4,4,4,4,4,4,4,4,4,4,100,,,,,,,,,,,,,,,,,,,,,,,,,,,,,,,,,,,,,,,,,,,,,,,,,,,,,,,,,,,,,,,,,,,,,,,,,,,,,,,,,,,,,,,,,,,,,,,,,,,,,,,,,,,,,,,,,,,,,,,,,,,,,,,,,,,,,,
1702631020,1702631020,94,0,4289.871582,4266.922852,4457.94873,4125.641113,4292.820313,4259.487305,4293.589844,4316.922852,4288.205078,4321.794922,4629.615234,4392.820313,4762.179688,4478.461426,6040,4,81,,,,0,4,4,4,4,4,4,4,4,4,4,4,4,4,4,100,,,,,,,,,,,,,,,,,,,,,,,,,,,,,,,,,,,,,,,,,,,,,,,,,,,,,,,,,,,,,,,,,,,,,,,,,,,,,,,,,,,,,,,,,,,,,,,,,,,,,,,,,,,,,,,,,,,,,,,,,,,,,,,,,,,,,,
1702631020,1702631020,95,0,4291.666504,4329.743652,4458.589844,4102.692383,4276.922852,4267.692383,4300.897461,4318.717773,4290.769043,4325.897461,4629.230957,4400.512695,4753.589844,4481.922852,6305,4,81,,,,0,4,4,4,4,4,4,4,4,4,4,4,4,4,4,100,,,,,,,,,,,,,,,,,,,,,,,,,,,,,,,,,,,,,,,,,,,,,,,,,,,,,,,,,,,,,,,,,,,,,,,,,,,,,,,,,,,,,,,,,,,,,,,,,,,,,,,,,,,,,,,,,,,,,,,,,,,,,,,,,,,,,,
1702631020,1702631020,96,0,4299.358887,4320.256348,4468.333496,4141.153809,4290,4278.205078,4312.692383,4345.769043,4317.563965,4342.05127,4656.025879,4421.538574,4743.846191,4499.102539,6843,4,81,,,,0,4,4,4,4,4,4,4,4,4,4,4,4,4,4,100,,,,,,,,,,,,,,,,,24,0,0.338868,-0.62323,-0.128174,-0.693054,0.951288,-0.220242,0.152362,-5.524023,-6.520315,92.670517,,,,,,,,,,,,,,,,,,,,,,,,,,,,,,,,,,,,,,,,,,,,,,,,,,,,,,,,,,,,,,,,,,,,,,,,,,,,,,,,,,,,,,,,,,,,,,,,,,,,,,,,,,
1702631020,1702631020,97,0,4281.410156,4276.794922,4458.846191,4143.589844,4291.410156,4260.256348,4298.589844,4337.436035,4305.897461,4335.384766,4646.282227,4410.897461,4720.897461,4480.769043,4392,4,81,,,,0,4,4,4,4,4,4,4,4,4,4,4,4,4,4,100,,,,,,,,,,,,,,,,,,,,,,,,,,,,,,,,,,,,,,,,,,,,,,,,,,,,,,,,,,,,,,,,,,,,,,,,,,,,,,,,,,,,,,,,,,,,,,,,,,,,,,,,,,,,,,,,,,,,,,,,,,,,,,,,,,,,,,
1702631020,1702631020,98,0,4263.974121,4297.307617,4441.666504,4092.435791,4266.922852,4247.179688,4285.128418,4309.487305,4275.128418,4324.102539,4614.358887,4393.589844,4701.025879,4454.230957,6040,4,81,,,,0,4,4,4,4,4,4,4,4,4,4,4,4,4,4,100,,,,,,,,,,,,,,,,,,,,,,,,,,,,,,,,,,,,,,,,,,,,,,,,,,,,,,,,,,,,,,,,,,,,,,,,,,,,,,,,,,,,,,,,,,,,,,,,,,,,,,,,,,,,,,,,,,,,,,,,,,,,,,,,,,,,,,
1702631020,1702631020,99,0,4274.743652,4332.179688,4444.358887,4085.769287,4258.077148,4260.384766,4291.922852,4312.436035,4279.871582,4326.666504,4614.615234,4403.717773,4687.436035,4461.153809,6305,4,81,,,,0,4,4,4,4,4,4,4,4,4,4,4,4,4,4,100,,,,,,,,,,,,,,,,,,,,,,,,,,,,,,,,,,,,,,,,,,,,,,,,,,,,,,,,,,,,,,,,,,,,,,,,,,,,,,,,,,,,,,,,,,,,,,,,,,,,,,,,,,,,,,,,,,,,,,,,,,,,,,,,,,,,,,
1702631020,1702631020,100,0,4292.05127,4311.922852,4458.717773,4134.230957,4281.410156,4272.94873,4301.153809,4333.589844,4302.94873,4343.077148,4638.717773,4421.794922,4671.025879,4483.077148,6843,4,81,,,,0,4,4,4,4,4,4,4,4,4,4,4,4,4,4,100,,,,,,,,,,,,,,,,,25,0,0.337993,-0.623657,-0.127747,-0.693176,0.951776,-0.200708,0.146502,-5.438287,-6.601616,92.753471,,,,,,,,,,,,,,,,,,,,,,,,,,,,,,,,,,,,,,,,,,,,,,,,,,,,,,,,,,,,,,,,,,,,,,,,,,,,,,,,,,,,,,,,,,,,,,,,,,,,,,,,,,
1702631020,1702631020,101,0,4282.820313,4290.384766,4452.692383,4134.230957,4288.205078,4267.692383,4295.128418,4327.692383,4300,4349.358887,4635.897461,4415.769043,4661.922852,4475.641113,4392,4,81,,,,0,4,4,4,4,4,4,4,4,4,4,4,4,4,4,100,,,,,,,,,,,,,,,,,,,,,,,,,,,,,,,,,,,,,,,,,,,,,,,,,,,,,,,,,,,,,,,,,7.398504,1.58941,1.384615,1.052713,0.939011,13.545707,3.33526,4.24954,5.476906,5.322553,9.519708,1.194542,0.717389,0.562636,0.518849,16.14957,4.975954,6.355635,4.613097,4.775295,7.261446,1.102816,2.518551,2.287437,1.391523,5.988623,0.772371,1.360396,1.320246,2.152257,3.488658,0.443484,0.686652,0.74277,1.172294,9.798081,0.812936,1.310929,1.138215,1.10521,22.927635,1.679236,1.872609,1.563251,1.880093,413.755219,35.856861,29.847614,9.951006,3.75449,60.850311,7.270632,3.55123,2.951387,1.919707,53.783607,3.994024,5.396584,1.669026,0.941477,615.622681,102.052078,56.017078,19.247948,5.325474,63.719391,5.481798,6.346025,2.513804,1.517096
1702631020,1702631020,102,0,4266.282227,4322.179688,4434.230957,4074.871826,4261.922852,4260,4284.871582,4305.512695,4279.615234,4337.436035,4607.820313,4403.717773,4664.102539,4452.563965,6040,4,81,,,,0,4,4,4,4,4,4,4,4,4,4,4,4,4,4,100,,,,,,,,,,,,,,,,,,,,,,,,,,,,,,,,,,,,,,,,,,,,,,,,,,,,,,,,,,,,,,,,,,,,,,,,,,,,,,,,,,,,,,,,,,,,,,,,,,,,,,,,,,,,,,,,,,,,,,,,,,,,,,,,,,,,,,
1702631020,1702631020,103,0,4264.487305,4328.077148,4423.333496,4049.743652,4254.102539,4254.230957,4282.307617,4298.333496,4269.102539,4333.205078,4587.307617,4406.922852,4637.436035,4447.820313,6305,4,81,,,,0,4,4,4,4,4,4,4,4,4,4,4,4,4,4,100,,,,,,,,,,,,,,,,,,,,,,,,,,,,,,,,,,,,,,,,,,,,,,,,,,,,,,,,,,,,,,,,,,,,,,,,,,,,,,,,,,,,,,,,,,,,,,,,,,,,,,,,,,,,,,,,,,,,,,,,,,,,,,,,,,,,,,
1702631020,1702631020,104,0,4257.307617,4305.641113,4420.256348,4052.94873,4260.641113,4244.743652,4276.153809,4292.05127,4260.256348,4328.589844,4577.436035,4404.743652,4580.128418,4443.077148,6843,4,81,,,,0,4,4,4,4,4,4,4,4,4,4,4,4,4,4,100,,,,,,,,,,,,,,,,,26,0,0.337402,-0.624207,-0.126953,-0.693115,0.96838,-0.204126,0.138689,-5.477792,-6.558122,92.828117,,,,,,,,,,,,,,,,,,,,,,,,,,,,,,,,,,,,,,,,,,,,,,,,,,,,,,,,,,,,,,,,,,,,,,,,,,,,,,,,,,,,,,,,,,,,,,,,,,,,,,,,,,
1702631020,1702631020,105,0,4253.974121,4298.461426,4424.743652,4064.871826,4253.974121,4244.743652,4277.692383,4293.077148,4265,4326.666504,4589.743652,4403.077148,4560.897461,4439.230957,4392,4,81,,,,0,4,4,4,4,4,4,4,4,4,4,4,4,4,4,100,,,,,,,,,,,,,,,,,,,,,,,,,,,,,,,,,,,,,,,,,,,,,,,,,,,,,,,,,,,,,,,,,,,,,,,,,,,,,,,,,,,,,,,,,,,,,,,,,,,,,,,,,,,,,,,,,,,,,,,,,,,,,,,,,,,,,,
1702631020,1702631020,106,0,4267.179688,4256.794922,4423.333496,4111.025879,4245.512695,4268.077148,4296.794922,4310.769043,4283.717773,4336.666504,4602.05127,4418.461426,4600.128418,4451.025879,6040,4,81,,,,0,4,4,4,4,4,4,4,4,4,4,4,4,4,4,100,,,,,,,,,,,,,,,,,,,,,,,,,,,,,,,,,,,,,,,,,,,,,,,,,,,,,,,,,,,,,,,,,,,,,,,,,,,,,,,,,,,,,,,,,,,,,,,,,,,,,,,,,,,,,,,,,,,,,,,,,,,,,,,,,,,,,,
1702631020,1702631020,107,0,4255.128418,4240.512695,4405.512695,4105.769043,4240.256348,4267.94873,4292.179688,4301.794922,4270.256348,4320.128418,4571.794922,4410.769043,4595.256348,4436.794922,6305,4,81,,,,0,4,4,4,4,4,4,4,4,4,4,4,4,4,4,100,,,,,,,,,,,,,,,,,,,,,,,,,,,,,,,,,,,,,,,,,,,,,,,,,,,,,,,,,,,,,,,,,,,,,,,,,,,,,,,,,,,,,,,,,,,,,,,,,,,,,,,,,,,,,,,,,,,,,,,,,,,,,,,,,,,,,,
1702631020,1702631020,108,0,4218.589844,4307.436035,4395.641113,4032.435791,4230.641113,4225,4258.589844,4262.820313,4230.512695,4278.205078,4530.512695,4377.563965,4518.974121,4394.743652,6843,4,81,,,,0,4,4,4,4,4,4,4,4,4,4,4,4,4,4,100,,,,,,,,,,,,,,,,,27,0,0.337159,-0.624573,-0.126465,-0.692993,0.949335,-0.199731,0.148944,-5.596679,-6.518976,92.745308,,,,,,,,,,,,,,,,,,,,,,,,,,,,,,,,,,,,,,,,,,,,,,,,,,,,,,,,,,,,,,,,,,,,,,,,,,,,,,,,,,,,,,,,,,,,,,,,,,,,,,,,,,
1702631020,1702631020,109,0,4216.153809,4329.358887,4398.846191,4030.128174,4226.410156,4210.897461,4252.179688,4254.615234,4222.179688,4276.025879,4527.179688,4377.179688,4507.94873,4387.563965,4392,4,81,,,,0,4,4,4,4,4,4,4,4,4,4,4,4,4,4,100,,,,,,,,,,,,,,,,,,,,,,,,,,,,,,,,,,,,,,,,,,,,,,,,,,,,,,,,,,,,,,,,,,,,,,,,,,,,,,,,,,,,,,,,,,,,,,,,,,,,,,,,,,,,,,,,,,,,,,,,,,,,,,,,,,,,,,
1702631020,1702631020,110,0,4234.102539,4259.871582,4387.692383,4095.769287,4233.205078,4238.974121,4272.436035,4275.512695,4241.538574,4297.179688,4529.358887,4398.077148,4560.641113,4403.846191,6040,4,81,,,,0,4,4,4,4,4,4,4,4,4,4,4,4,4,4,100,,,,,,,,,,,,,,,,,,,,,,,,,,,,,,,,,,,,,,,,,,,,,,,,,,,,,,,,,,,,,,,,,,,,,,,,,,,,,,,,,,,,,,,,,,,,,,,,,,,,,,,,,,,,,,,,,,,,,,,,,,,,,,,,,,,,,,
1702631020,1702631020,111,0,4232.692383,4229.743652,4378.461426,4119.358887,4242.94873,4250.384766,4279.871582,4276.922852,4244.743652,4292.05127,4517.563965,4398.589844,4558.589844,4401.282227,6305,4,81,,,,0,4,4,4,4,4,4,4,4,4,4,4,4,4,4,100,,,,,,,,,,,,,,,,,,,,,,,,,,,,,,,,,,,,,,,,,,,,,,,,,,,,,,,,,,,,,,,,,,,,,,,,,,,,,,,,,,,,,,,,,,,,,,,,,,,,,,,,,,,,,,,,,,,,,,,,,,,,,,,,,,,,,,
1702631020,1702631020,112,0,4227.436035,4255.897461,4389.743652,4117.436035,4248.461426,4238.333496,4275.897461,4268.333496,4237.179688,4287.692383,4526.025879,4394.487305,4516.666504,4399.487305,6843,4,81,,,,0,4,4,4,4,4,4,4,4,4,4,4,4,4,4,100,,,,,,,,,,,,,,,,,28,0,0.336953,-0.624573,-0.126343,-0.693115,0.95373,-0.194848,0.147967,-5.637012,-6.833745,92.687447,,,,,,,,,,,,,,,,,,,,,,,,,,,,,,,,,,,,,,,,,,,,,,,,,,,,,,,,,,,,,,,,,,,,,,,,,,,,,,,,,,,,,,,,,,,,,,,,,,,,,,,,,,
1702631020,1702631020,113,0,4218.589844,4244.358887,4386.153809,4129.487305,4237.307617,4228.589844,4265.641113,4262.436035,4229.358887,4277.436035,4514.358887,4391.025879,4488.461426,4392.436035,4392,4,81,,,,0,4,4,4,4,4,4,4,4,4,4,4,4,4,4,100,,,,,,,,,,,,,,,,,,,,,,,,,,,,,,,,,,,,,,,,,,,,,,,,,,,,,,,,,,,,,,,,,,,,,,,,,,,,,,,,,,,,,,,,,,,,,,,,,,,,,,,,,,,,,,,,,,,,,,,,,,,,,,,,,,,,,,
1702631020,1702631020,114,0,4210.897461,4214.615234,4371.666504,4148.077148,4223.974121,4228.077148,4258.589844,4258.333496,4226.153809,4268.461426,4482.692383,4388.974121,4493.846191,4383.333496,6040,4,81,,,,0,4,4,4,4,4,4,4,4,4,4,4,4,4,4,100,,,,,,,,,,,,,,,,,,,,,,,,,,,,,,,,,,,,,,,,,,,,,,,,,,,,,,,,,,,,,,,,,,,,,,,,,,,,,,,,,,,,,,,,,,,,,,,,,,,,,,,,,,,,,,,,,,,,,,,,,,,,,,,,,,,,,,
1702631020,1702631020,115,0,4222.94873,4216.153809,4380.641113,4171.538574,4229.358887,4238.589844,4269.230957,4265.769043,4237.05127,4290.769043,4492.820313,4398.589844,4523.846191,4399.102539,6305,4,81,,,,0,4,4,4,4,4,4,4,4,4,4,4,4,4,4,100,,,,,,,,,,,,,,,,,,,,,,,,,,,,,,,,,,,,,,,,,,,,,,,,,,,,,,,,,,,,,,,,,,,,,,,,,,,,,,,,,,,,,,,,,,,,,,,,,,,,,,,,,,,,,,,,,,,,,,,,,,,,,,,,,,,,,,
1702631020,1702631020,116,0,4228.077148,4242.820313,4394.102539,4183.461426,4234.230957,4232.179688,4265.769043,4261.794922,4234.615234,4293.846191,4502.94873,4397.820313,4519.743652,4402.94873,6843,4,81,,,,0,4,4,4,4,4,4,4,4,4,4,4,4,4,4,100,,,,,,,,,,,,,,,,,29,0,0.336724,-0.624512,-0.126587,-0.693237,0.947381,-0.195825,0.142596,-5.406643,-6.833704,92.818703,,,,,,,,,,,,,,,,,,,,,,,,,,,,,,,,,,,,,,,,,,,,,,,,,,,,,,,,,,,,,,,,,,,,,,,,,,,,,,,,,,,,,,,,,,,,,,,,,,,,,,,,,,
1702631020,1702631020,117,0,4217.94873,4245.256348,4395.769043,4185,4233.077148,4213.717773,4253.589844,4257.436035,4227.307617,4275.897461,4489.230957,4393.974121,4490.641113,4388.589844,4392,4,81,,,,0,4,4,4,4,4,4,4,4,4,4,4,4,4,4,100,,,,,,,,,,,,,,,,,,,,,,,,,,,,,,,,,,,,,,,,,,,,,,,,,,,,,,,,,,,,,,,,,6.839995,1.374534,1.179517,1.000437,0.955276,14.160625,3.393627,4.28966,4.815642,5.581174,7.264237,1.010438,0.54599,0.529077,0.531782,16.527246,4.749948,5.891706,4.093874,4.835122,6.429016,0.896024,2.249778,2.330134,1.443899,4.770608,0.702102,1.213472,1.346153,2.376877,2.7412,0.381024,0.624508,0.709562,1.281554,7.662789,0.712179,1.223654,1.11054,1.202809,17.199934,1.448864,1.404536,1.530979,2.004803,222.021317,13.354063,12.980164,5.556286,2.535094,56.379948,6.496532,3.322386,2.621023,1.970453,29.539455,1.426555,2.601194,1.114482,0.896842,268.893555,37.165459,21.469795,8.990792,3.095243,40.51627,3.323394,3.627493,1.990801,1.44011
1702631020,1702631020,118,0,4213.846191,4218.846191,4394.358887,4185,4233.333496,4225.384766,4268.717773,4272.307617,4242.692383,4281.666504,4489.358887,4404.358887,4484.358887,4390.641113,6040,4,81,,,,0,4,4,4,4,4,4,4,4,4,4,4,4,4,4,100,,,,,,,,,,,,,,,,,,,,,,,,,,,,,,,,,,,,,,,,,,,,,,,,,,,,,,,,,,,,,,,,,,,,,,,,,,,,,,,,,,,,,,,,,,,,,,,,,,,,,,,,,,,,,,,,,,,,,,,,,,,,,,,,,,,,,,
1702631020,1702631020,119,0,4215.769043,4212.05127,4396.282227,4198.205078,4233.846191,4242.307617,4280.128418,4275.769043,4251.666504,4286.794922,4486.666504,4409.743652,4486.025879,4399.358887,6305,4,81,,,,0,4,4,4,4,4,4,4,4,4,4,4,4,4,4,100,,,,,,,,,,,,,,,,,,,,,,,,,,,,,,,,,,,,,,,,,,,,,,,,,,,,,,,,,,,,,,,,,,,,,,,,,,,,,,,,,,,,,,,,,,,,,,,,,,,,,,,,,,,,,,,,,,,,,,,,,,,,,,,,,,,,,,
1702631020,1702631020,120,0,4220.384766,4228.333496,4401.282227,4233.974121,4234.358887,4231.666504,4265.641113,4262.94873,4238.461426,4280.256348,4465.512695,4403.974121,4487.436035,4399.487305,6843,4,81,,,,0,4,4,4,4,4,4,4,4,4,4,4,4,4,4,100,,,,,,,,,,,,,,,,,30,0,0.336699,-0.624451,-0.126953,-0.693237,0.949335,-0.198266,0.140642,-5.415979,-6.767,92.653496,,,,,,,,,,,,,,,,,,,,,,,,,,,,,,,,,,,,,,,,,,,,,,,,,,,,,,,,,,,,,,,,,,,,,,,,,,,,,,,,,,,,,,,,,,,,,,,,,,,,,,,,,,
1702631020,1702631020,121,0,4218.974121,4244.743652,4399.487305,4242.307617,4233.205078,4213.846191,4251.025879,4254.871582,4228.461426,4278.717773,4449.743652,4396.153809,4485,4393.974121,4392,4,81,,,,0,4,4,4,4,4,4,4,4,4,4,4,4,4,4,100,,,,,,,,,,,,,,,,,,,,,,,,,,,,,,,,,,,,,,,,,,,,,,,,,,,,,,,,,,,,,,,,,,,,,,,,,,,,,,,,,,,,,,,,,,,,,,,,,,,,,,,,,,,,,,,,,,,,,,,,,,,,,,,,,,,,,,
1702631020,1702631020,122,0,4216.025879,4246.666504,4391.538574,4228.974121,4237.05127,4215.641113,4251.282227,4250.769043,4230.384766,4271.410156,4445.769043,4394.102539,4464.743652,4390.384766,6040,4,81,,,,0,4,4,4,4,4,4,4,4,4,4,4,4,4,4,100,,,,,,,,,,,,,,,,,,,,,,,,,,,,,,,,,,,,,,,,,,,,,,,,,,,,,,,,,,,,,,,,,,,,,,,,,,,,,,,,,,,,,,,,,,,,,,,,,,,,,,,,,,,,,,,,,,,,,,,,,,,,,,,,,,,,,,
1702631020,1702631020,123,0,4230.128418,4233.974121,4395.641113,4262.436035,4251.794922,4230,4260.384766,4251.282227,4234.487305,4262.563965,4446.922852,4402.307617,4456.025879,4400.641113,6305,4,81,,,,0,4,4,4,4,4,4,4,4,4,4,4,4,4,4,100,,,,,,,,,,,,,,,,,,,,,,,,,,,,,,,,,,,,,,,,,,,,,,,,,,,,,,,,,,,,,,,,,,,,,,,,,,,,,,,,,,,,,,,,,,,,,,,,,,,,,,,,,,,,,,,,,,,,,,,,,,,,,,,,,,,,,,
1702631020,1702631020,124,0,4232.820313,4226.538574,4396.153809,4282.436035,4250.384766,4230,4260.512695,4251.538574,4228.589844,4253.974121,4432.563965,4401.153809,4451.025879,4398.077148,6843,4,81,,,,0,4,4,4,4,4,4,4,4,4,4,4,4,4,4,100,,,,,,,,,,,,,,,,,31,0,0.337013,-0.624207,-0.127319,-0.693237,0.953241,-0.202173,0.153339,-5.524381,-6.8403,92.638145,,,,,,,,,,,,,,,,,,,,,,,,,,,,,,,,,,,,,,,,,,,,,,,,,,,,,,,,,,,,,,,,,,,,,,,,,,,,,,,,,,,,,,,,,,,,,,,,,,,,,,,,,,
1702631020,1702631020,125,0,4215,4240,4382.820313,4245.641113,4233.077148,4221.538574,4250.769043,4244.743652,4222.692383,4248.077148,4408.077148,4390.256348,4432.307617,4376.410156,4392,4,81,,,,0,4,4,4,4,4,4,4,4,4,4,4,4,4,4,100,,,,,,,,,,,,,,,,,,,,,,,,,,,,,,,,,,,,,,,,,,,,,,,,,,,,,,,,,,,,,,,,,,,,,,,,,,,,,,,,,,,,,,,,,,,,,,,,,,,,,,,,,,,,,,,,,,,,,,,,,,,,,,,,,,,,,,
1702631020,1702631020,126,0,4217.94873,4251.153809,4381.410156,4245.897461,4242.05127,4225,4251.282227,4249.871582,4235.641113,4256.025879,4423.461426,4396.666504,4432.94873,4381.153809,6040,4,81,,,,0,4,4,4,4,4,4,4,4,4,4,4,4,4,4,100,,,,,,,,,,,,,,,,,,,,,,,,,,,,,,,,,,,,,,,,,,,,,,,,,,,,,,,,,,,,,,,,,,,,,,,,,,,,,,,,,,,,,,,,,,,,,,,,,,,,,,,,,,,,,,,,,,,,,,,,,,,,,,,,,,,,,,
1702631020,1702631020,127,0,4235.769043,4242.05127,4389.871582,4287.692383,4268.205078,4239.871582,4267.307617,4266.025879,4256.025879,4270.128418,4452.820313,4412.436035,4443.589844,4402.05127,81,4,81,,,,0,4,4,4,4,4,4,4,4,4,4,4,4,4,4,100,,,,,,,,,,,,,,,,,,,,,,,,,,,,,,,,,,,,,,,,,,,,,,,,,,,,,,,,,,,,,,,,,,,,,,,,,,,,,,,,,,,,,,,,,,,,,,,,,,,,,,,,,,,,,,,,,,,,,,,,,,,,,,,,,,,,,,
1702631020,1702631020,0,0,4238.077148,4256.410156,4394.230957,4284.743652,4267.94873,4245.769043,4269.871582,4264.871582,4255,4280,4433.846191,4414.615234,4442.692383,4398.461426,4729,4,81,,,,0,4,4,4,4,4,4,4,4,4,4,4,4,4,4,100,,,,,,,,,,,,,,,,,0,0,0.337647,-0.623962,-0.127502,-0.693115,0.948358,-0.205591,0.146502,-5.521943,-6.689603,92.807663,,,,,,,,,,,,,,,,,,,,,,,,,,,,,,,,,,,,,,,,,,,,,,,,,,,,,,,,,,,,,,,,,,,,,,,,,,,,,,,,,,,,,,,,,,,,,,,,,,,,,,,,,,
1702631020,1702631020,1,0,4240.128418,4286.153809,4398.589844,4269.102539,4262.179688,4246.410156,4264.102539,4264.487305,4250.256348,4284.743652,4414.615234,4415.512695,4442.563965,4391.025879,5667,4,81,,,,0,4,4,4,4,4,4,4,4,4,4,4,4,4,4,100,,,,,,,,,,,,,,,,,,,,,,,,,,,,,,,,,,,,,,,,,,,,,,,,,,,,,,,,,,,,,,,,,,,,,,,,,,,,,,,,,,,,,,,,,,,,,,,,,,,,,,,,,,,,,,,,,,,,,,,,,,,,,,,,,,,,,,
1702631020,1702631020,2,0,4251.153809,4259.102539,4399.230957,4308.974121,4275.128418,4254.358887,4273.461426,4282.179688,4267.307617,4283.846191,4444.615234,4426.153809,4436.794922,4396.025879,5465,4,81,,,,0,4,4,4,4,4,4,4,4,4,4,4,4,4,4,100,,,,,,,,,,,,,,,,,,,,,,,,,,,,,,,,,,,,,,,,,,,,,,,,,,,,,,,,,,,,,,,,,,,,,,,,,,,,,,,,,,,,,,,,,,,,,,,,,,,,,,,,,,,,,,,,,,,,,,,,,,,,,,,,,,,,,,
1702631020,1702631020,3,0,4245,4222.820313,4390.897461,4328.589844,4271.153809,4248.717773,4272.563965,4279.615234,4267.436035,4273.846191,4455.641113,4423.846191,4425,4385.897461,5435,4,81,,,,0,4,4,4,4,4,4,4,4,4,4,4,4,4,4,100,,,,,,,,,,,,,,,,,,,,,,,,,,,,,,,,,,,,,,,,,,,,,,,,,,,,,,,,,,,,,,,,,,,,,,,,,,,,,,,,,,,,,,,,,,,,,,,,,,,,,,,,,,,,,,,,,,,,,,,,,,,,,,,,,,,,,,
1702631020,1702631020,4,0,4233.846191,4251.922852,4389.230957,4296.153809,4252.436035,4235.641113,4257.436035,4259.230957,4244.230957,4264.871582,4423.974121,4411.025879,4426.282227,4370.512695,5414,4,81,,,,0,4,4,4,4,4,4,4,4,4,4,4,4,4,4,100,,,,,,,,,,,,,,,,,1,0,0.338012,-0.623962,-0.127197,-0.692993,0.948846,-0.200708,0.148456,-5.519749,-6.78731,92.760231,,,,,,,,,,,,,,,,,,,,,,,,,,,,,,,,,,,,,,,,,,,,,,,,,,,,,,,,,,,,,,,,,,,,,,,,,,,,,,,,,,,,,,,,,,,,,,,,,,,,,,,,,,
1702631020,1702631020,5,0,4240.256348,4272.179688,4399.102539,4301.410156,4264.871582,4238.589844,4261.922852,4263.589844,4245.512695,4261.922852,4421.538574,4415.641113,4431.025879,4375.641113,5288,4,81,,,,0,4,4,4,4,4,4,4,4,4,4,4,4,4,4,100,,,,,,,,,,,,,,,,,,,,,,,,,,,,,,,,,,,,,,,,,,,,,,,,,,,,,,,,,,,,,,,,,6.148449,1.131394,1.046079,0.966015,0.927096,14.22573,3.460209,4.221527,4.146734,5.756182,4.936294,0.82787,0.432124,0.529109,0.534401,15.997646,4.241476,5.695784,3.782058,4.656022,5.401754,0.671504,1.930006,2.272849,1.435385,3.632257,0.6243,1.130942,1.307879,2.451014,1.970802,0.327012,0.606466,0.672563,1.339849,5.462531,0.649614,1.200108,1.072031,1.257888,11.825533,1.278902,1.245521,1.518963,2.007622,104.500298,4.042361,5.195796,3.443296,1.975205,47.552925,5.24683,3.287459,2.299767,1.96347,14.327614,0.483485,1.287967,0.849436,0.891499,101.965469,9.88258,6.425795,4.540695,2.112669,25.198393,2.391957,2.406477,1.679518,1.36615
1702631020,1702631020,6,0,4254.487305,4240,4405.512695,4349.871582,4285.256348,4255.769043,4279.743652,4286.025879,4268.461426,4273.589844,4451.538574,4433.333496,4427.820313,4391.538574,3869,4,81,,,,0,4,4,4,4,4,4,4,4,4,4,4,4,4,4,100,,,,,,,,,,,,,,,,,,,,,,,,,,,,,,,,,,,,,,,,,,,,,,,,,,,,,,,,,,,,,,,,,,,,,,,,,,,,,,,,,,,,,,,,,,,,,,,,,,,,,,,,,,,,,,,,,,,,,,,,,,,,,,,,,,,,,,
1702631020,1702631020,7,0,4249.743652,4222.692383,4394.358887,4358.333496,4273.461426,4252.05127,4272.05127,4279.871582,4263.077148,4277.94873,4435.128418,4426.153809,4415.256348,4385.384766,4939,4,81,,,,0,4,4,4,4,4,4,4,4,4,4,4,4,4,4,100,,,,,,,,,,,,,,,,,,,,,,,,,,,,,,,,,,,,,,,,,,,,,,,,,,,,,,,,,,,,,,,,,,,,,,,,,,,,,,,,,,,,,,,,,,,,,,,,,,,,,,,,,,,,,,,,,,,,,,,,,,,,,,,,,,,,,,
1702631020,1702631020,8,0,4234.615234,4232.94873,4377.563965,4333.717773,4257.307617,4235.512695,4256.666504,4261.410156,4242.563965,4260.641113,4397.436035,4407.94873,4383.333496,4363.205078,5442,4,81,,,,0,4,4,4,4,4,4,4,4,4,4,4,4,4,4,100,,,,,,,,,,,,,,,,,2,0,0.337945,-0.623962,-0.126709,-0.693115,0.959101,-0.21487,0.145037,-5.534441,-6.941912,92.78421,,,,,,,,,,,,,,,,,,,,,,,,,,,,,,,,,,,,,,,,,,,,,,,,,,,,,,,,,,,,,,,,,,,,,,,,,,,,,,,,,,,,,,,,,,,,,,,,,,,,,,,,,,
1702631020,1702631020,9,0,4237.692383,4234.487305,4372.179688,4334.615234,4260.128418,4237.820313,4260,4262.307617,4244.871582,4259.615234,4409.102539,4415.256348,4356.025879,4357.436035,5482,4,81,,,,0,4,4,4,4,4,4,4,4,4,4,4,4,4,4,100,,,,,,,,,,,,,,,,,,,,,,,,,,,,,,,,,,,,,,,,,,,,,,,,,,,,,,,,,,,,,,,,,,,,,,,,,,,,,,,,,,,,,,,,,,,,,,,,,,,,,,,,,,,,,,,,,,,,,,,,,,,,,,,,,,,,,,
1702631020,1702631020,10,0,4248.717773,4240,4361.922852,4347.94873,4266.538574,4245,4262.820313,4263.974121,4249.871582,4274.102539,4427.179688,4427.94873,4360,4365.641113,6080,4,81,,,,0,4,4,4,4,4,4,4,4,4,4,4,4,4,4,100,,,,,,,,,,,,,,,,,,,,,,,,,,,,,,,,,,,,,,,,,,,,,,,,,,,,,,,,,,,,,,,,,,,,,,,,,,,,,,,,,,,,,,,,,,,,,,,,,,,,,,,,,,,,,,,,,,,,,,,,,,,,,,,,,,,,,,
1702631020,1702631020,11,0,4272.563965,4249.358887,4346.666504,4380.512695,4280.384766,4257.94873,4274.487305,4275.897461,4264.358887,4299.487305,4434.871582,4442.94873,4392.820313,4391.538574,6290,4,81,,,,0,4,4,4,4,4,4,4,4,4,4,4,4,4,4,100,,,,,,,,,,,,,,,,,,,,,,,,,,,,,,,,,,,,,,,,,,,,,,,,,,,,,,,,,,,,,,,,,,,,,,,,,,,,,,,,,,,,,,,,,,,,,,,,,,,,,,,,,,,,,,,,,,,,,,,,,,,,,,,,,,,,,,
1702631020,1702631020,12,0,4284.230957,4239.487305,4328.717773,4400.128418,4286.410156,4256.410156,4275.512695,4282.692383,4271.410156,4306.025879,4435.384766,4446.922852,4396.153809,4400.128418,6860,4,81,,,,0,4,4,4,4,4,4,4,4,4,4,4,4,4,4,100,,,,,,,,,,,,,,,,,3,0,0.337775,-0.623962,-0.12616,-0.693298,0.963008,-0.195336,0.140154,-5.530996,-6.931054,92.822456,,,,,,,,,,,,,,,,,,,,,,,,,,,,,,,,,,,,,,,,,,,,,,,,,,,,,,,,,,,,,,,,,,,,,,,,,,,,,,,,,,,,,,,,,,,,,,,,,,,,,,,,,,
1702631020,1702631020,13,0,4259.487305,4221.666504,4308.205078,4368.333496,4270,4235.128418,4251.666504,4256.153809,4241.794922,4267.05127,4413.205078,4423.589844,4353.205078,4364.615234,4370,4,81,,,,0,4,4,4,4,4,4,4,4,4,4,4,4,4,4,100,,,,,,,,,,,,,,,,,,,,,,,,,,,,,,,,,,,,,,,,,,,,,,,,,,,,,,,,,,,,,,,,,,,,,,,,,,,,,,,,,,,,,,,,,,,,,,,,,,,,,,,,,,,,,,,,,,,,,,,,,,,,,,,,,,,,,,
1702631020,1702631020,14,0,4247.307617,4211.153809,4304.102539,4355.384766,4260.128418,4232.94873,4249.743652,4239.230957,4223.717773,4240.769043,4401.538574,4415,4340.384766,4345.384766,6080,4,81,,,,0,4,4,4,4,4,4,4,4,4,4,4,4,4,4,100,,,,,,,,,,,,,,,,,,,,,,,,,,,,,,,,,,,,,,,,,,,,,,,,,,,,,,,,,,,,,,,,,,,,,,,,,,,,,,,,,,,,,,,,,,,,,,,,,,,,,,,,,,,,,,,,,,,,,,,,,,,,,,,,,,,,,,
1702631020,1702631020,15,0,4265.256348,4220,4311.410156,4384.743652,4265.256348,4244.871582,4266.410156,4251.794922,4235.128418,4251.282227,4411.025879,4426.922852,4357.563965,4360.769043,6290,4,81,,,,0,4,4,4,4,4,4,4,4,4,4,4,4,4,4,100,,,,,,,,,,,,,,,,,,,,,,,,,,,,,,,,,,,,,,,,,,,,,,,,,,,,,,,,,,,,,,,,,,,,,,,,,,,,,,,,,,,,,,,,,,,,,,,,,,,,,,,,,,,,,,,,,,,,,,,,,,,,,,,,,,,,,,
1702631020,1702631020,16,0,4265.897461,4233.589844,4311.666504,4391.153809,4255.897461,4240.256348,4259.871582,4250.256348,4230.641113,4237.563965,4407.179688,4419.102539,4328.589844,4354.487305,0,4,81,,,,0,4,4,4,4,4,4,4,4,4,4,4,4,4,4,100,,,,,,,,,,,,,,,,,4,0,0.337572,-0.624084,-0.126099,-0.693298,0.956171,-0.206568,0.147967,-5.544564,-6.787949,92.873543,,,,,,,,,,,,,,,,,,,,,,,,,,,,,,,,,,,,,,,,,,,,,,,,,,,,,,,,,,,,,,,,,,,,,,,,,,,,,,,,,,,,,,,,,,,,,,,,,,,,,,,,,,
1702631020,1702631020,17,0,4259.230957,4233.205078,4319.615234,4396.153809,4257.94873,4237.563965,4255.256348,4250.384766,4232.307617,4229.615234,4410.769043,4418.846191,4303.974121,4346.025879,0,4,81,,,,0,4,4,4,4,4,4,4,4,4,4,4,4,4,4,100,,,,,,,,,,,,,,,,,,,,,,,,,,,,,,,,,,,,,,,,,,,,,,,,,,,,,,,,,,,,,,,,,,,,,,,,,,,,,,,,,,,,,,,,,,,,,,,,,,,,,,,,,,,,,,,,,,,,,,,,,,,,,,,,,,,,,,
1702631020,1702631020,18,0,4275.384766,4229.358887,4332.820313,4424.615234,4277.05127,4253.589844,4268.461426,4271.153809,4258.205078,4269.743652,4430.384766,4440.641113,4342.307617,4367.436035,0,4,81,,,,0,4,4,4,4,4,4,4,4,4,4,4,4,4,4,100,,,,,,,,,,,,,,,,,,,,,,,,,,,,,,,,,,,,,,,,,,,,,,,,,,,,,,,,,,,,,,,,,,,,,,,,,,,,,,,,,,,,,,,,,,,,,,,,,,,,,,,,,,,,,,,,,,,,,,,,,,,,,,,,,,,,,,
1702631020,1702631020,19,0,4282.436035,4232.05127,4330.641113,4425.512695,4268.461426,4253.077148,4266.282227,4270.128418,4256.538574,4276.410156,4423.717773,4438.846191,4364.743652,4372.692383,0,4,81,,,,0,4,4,4,4,4,4,4,4,4,4,4,4,4,4,100,,,,,,,,,,,,,,,,,,,,,,,,,,,,,,,,,,,,,,,,,,,,,,,,,,,,,,,,,,,,,,,,,,,,,,,,,,,,,,,,,,,,,,,,,,,,,,,,,,,,,,,,,,,,,,,,,,,,,,,,,,,,,,,,,,,,,,
1702631020,1702631020,20,0,4282.563965,4218.205078,4335.769043,4438.846191,4261.794922,4246.538574,4260.384766,4260.897461,4241.794922,4253.717773,4422.307617,4433.461426,4345.512695,4368.333496,0,4,81,,,,0,4,4,4,4,4,4,4,4,4,4,4,4,4,4,100,,,,,,,,,,,,,,,,,5,0,0.336968,-0.624084,-0.126038,-0.693604,0.950311,-0.205591,0.141619,-5.623441,-6.959154,92.786186,,,,,,,,,,,,,,,,,,,,,,,,,,,,,,,,,,,,,,,,,,,,,,,,,,,,,,,,,,,,,,,,,,,,,,,,,,,,,,,,,,,,,,,,,,,,,,,,,,,,,,,,,,
