Timestamp,OriginalTimestamp,EEG.Counter,EEG.Interpolated,EEG.AF3,EEG.F7,EEG.F3,EEG.FC5,EEG.T7,EEG.P7,EEG.O1,EEG.O2,EEG.P8,EEG.T8,EEG.FC6,EEG.F4,EEG.F8,EEG.AF4,EEG.RawCq,EEG.Battery,EEG.BatteryPercent,MarkerIndex,MarkerType,MarkerValueInt,EEG.MarkerHardware,CQ.AF3,CQ.F7,CQ.F3,CQ.FC5,CQ.T7,CQ.P7,CQ.O1,CQ.O2,CQ.P8,CQ.T8,CQ.FC6,CQ.F4,CQ.F8,CQ.AF4,CQ.Overall,EQ.SampleRateQuality,EQ.OVERALL,EQ.AF3,EQ.F7,EQ.F3,EQ.FC5,EQ.T7,EQ.P7,EQ.O1,EQ.O2,EQ.P8,EQ.T8,EQ.FC6,EQ.F4,EQ.F8,EQ.AF4,MOT.CounterMems,MOT.InterpolatedMems,MOT.Q0,MOT.Q1,MOT.Q2,MOT.Q3,MOT.AccX,MOT.AccY,MOT.AccZ,MOT.MagX,MOT.MagY,MOT.MagZ,PM.Attention.IsActive,PM.Attention.Scaled,PM.Attention.Raw,PM.Attention.Min,PM.Attention.Max,PM.Engagement.IsActive,PM.Engagement.Scaled,PM.Engagement.Raw,PM.Engagement.Min,PM.Engagement.Max,PM.Excitement.IsActive,PM.Excitement.Scaled,PM.Excitement.Raw,PM.Excitement.Min,PM.Excitement.Max,PM.LongTermExcitement,PM.Stress.IsActive,PM.Stress.Scaled,PM.Stress.Raw,PM.Stress.Min,PM.Stress.Max,PM.Relaxation.IsActive,PM.Relaxation.Scaled,PM.Relaxation.Raw,PM.Relaxation.Min,PM.Relaxation.Max,PM.Interest.IsActive,PM.Interest.Scaled,PM.Interest.Raw,PM.Interest.Min,PM.Interest.Max,PM.Focus.IsActive,PM.Focus.Scaled,PM.Focus.Raw,PM.Focus.Min,PM.Focus.Max,POW.AF3.Theta,POW.AF3.Alpha,POW.AF3.BetaL,POW.AF3.BetaH,POW.AF3.Gamma,POW.F7.Theta,POW.F7.Alpha,POW.F7.BetaL,POW.F7.BetaH,POW.F7.Gamma,POW.F3.Theta,POW.F3.Alpha,POW.F3.BetaL,POW.F3.BetaH,POW.F3.Gamma,POW.FC5.Theta,POW.FC5.Alpha,POW.FC5.BetaL,POW.FC5.BetaH,POW.FC5.Gamma,POW.T7.Theta,POW.T7.Alpha,POW.T7.BetaL,POW.T7.BetaH,POW.T7.Gamma,POW.P7.Theta,POW.P7.Alpha,POW.P7.BetaL,POW.P7.BetaH,POW.P7.Gamma,POW.O1.Theta,POW.O1.Alpha,POW.O1.BetaL,POW.O1.BetaH,POW.O1.Gamma,POW.O2.Theta,POW.O2.Alpha,POW.O2.BetaL,POW.O2.BetaH,POW.O2.Gamma,POW.P8.Theta,POW.P8.Alpha,POW.P8.BetaL,POW.P8.BetaH,POW.P8.Gamma,POW.T8.Theta,POW.T8.Alpha,POW.T8.BetaL,POW.T8.BetaH,POW.T8.Gamma,POW.FC6.Theta,POW.FC6.Alpha,POW.FC6.BetaL,POW.FC6.BetaH,POW.FC6.Gamma,POW.F4.Theta,POW.F4.Alpha,POW.F4.BetaL,POW.F4.BetaH,POW.F4.Gamma,POW.F8.Theta,POW.F8.Alpha,POW.F8.BetaL,POW.F8.BetaH,POW.F8.Gamma,POW.AF4.Theta,POW.AF4.Alpha,POW.AF4.BetaL,POW.AF4.BetaH,POW.AF4.Gamma
,,,,,,,,,,,,,,,,,,,,,,,,,,,,,,,,,,,,,,,,,,,,,,,,,,,,,,,,,,,,,,,,,,,,,,,,,,,,,,,,,,,,,,,,,,,,,,,,,,,,,,,,,,,,,,,,,,,,,,,,,,,,,,,,,,,,,,,,,,,,,,,,,,,,,,,,,,,,,,,,,,,,,,,,,,,,,
1702631088,1702631088,15,0,4300.512695,4065.897461,4217.436035,4355,4172.05127,4215.384766,4231.538574,4256.922852,4346.153809,5339.615234,4550.641113,4830.256348,2215.256348,4923.846191,6219,4,80,,,,0,4,4,4,4,4,4,4,4,4,4,4,4,4,4,100,,,,,,,,,,,,,,,,,,,,,,,,,,,,,,,,,,,,,,,,,,,,,,,,,,,,,,,,,,,,,,,,,,,,,,,,,,,,,,,,,,,,,,,,,,,,,,,,,,,,,,,,,,,,,,,,,,,,,,,,,,,,,,,,,,,,,,
1702631088,1702631088,16,0,4290.641113,4082.94873,4209.358887,4323.846191,4168.846191,4216.153809,4230.384766,4251.794922,4337.692383,5256.153809,4540.384766,4798.077148,2192.820557,4909.871582,0,4,80,,,,0,4,4,4,4,4,4,4,4,4,4,4,4,4,4,100,,,,,,,,,,,,,,,,,4,0,0.207283,-0.684753,-0.002747,-0.698669,0.959101,-0.260774,0.012209,-12.023218,-6.937332,91.584473,,,,,,,,,,,,,,,,,,,,,,,,,,,,,,,,,,,,,,,,,,,,,,,,,,,,,,,,,,,,,,,,,,,,,,,,,,,,,,,,,,,,,,,,,,,,,,,,,,,,,,,,,,
1702631088,1702631088,17,0,4294.871582,4034.358887,4199.230957,4352.436035,4183.333496,4233.333496,4247.307617,4262.179688,4345.769043,5242.436035,4530.128418,4802.563965,2150,4922.179688,0,4,80,,,,0,4,4,4,4,4,4,4,4,4,4,4,4,4,4,100,,,,,,,,,,,,,,,,,,,,,,,,,,,,,,,,,,,,,,,,,,,,,,,,,,,,,,,,,,,,,,,,,,,,,,,,,,,,,,,,,,,,,,,,,,,,,,,,,,,,,,,,,,,,,,,,,,,,,,,,,,,,,,,,,,,,,,
1702631088,1702631088,18,0,4297.94873,4025.641113,4193.846191,4356.666504,4191.794922,4232.436035,4246.410156,4266.794922,4363.077148,5255.897461,4528.333496,4803.077148,2085.256348,4921.025879,0,4,80,,,,0,4,4,4,4,4,4,4,4,4,4,4,4,4,4,100,,,,,,,,,,,,,,,,,,,,,,,,,,,,,,,,,,,,,,,,,,,,,,,,,,,,,,,,,,,,,,,,,,,,,,,,,,,,,,,,,,,,,,,,,,,,,,,,,,,,,,,,,,,,,,,,,,,,,,,,,,,,,,,,,,,,,,
1702631088,1702631088,19,0,4278.333496,4056.794922,4186.538574,4319.358887,4180.384766,4217.05127,4228.589844,4253.717773,4353.333496,5182.94873,4516.282227,4765.769043,2075.256348,4877.94873,0,4,80,,,,0,4,4,4,4,4,4,4,4,4,4,4,4,4,4,100,,,,,,,,,,,,,,,,,,,,,,,,,,,,,,,,,,,,,,,,,,,,,,,,,,,,,,,,,,,,,,,,,,,,,,,,,,,,,,,,,,,,,,,,,,,,,,,,,,,,,,,,,,,,,,,,,,,,,,,,,,,,,,,,,,,,,,
1702631088,1702631088,20,0,4272.94873,4070.641113,4191.025879,4320.641113,4188.974121,4227.820313,4238.846191,4264.487305,4357.179688,5121.282227,4518.077148,4752.692383,2084.871826,4863.461426,0,4,80,,,,0,4,4,4,4,4,4,4,4,4,4,4,4,4,4,100,,,,,,,,,,,,,,,,,5,0,0.20728,-0.684631,-0.002319,-0.698792,0.956171,-0.246124,0.018557,-11.987562,-6.876932,91.726028,,,,,,,,,,,,,,,,,,,,,,,,,,,,,,,,,,,,,,,,,,,,,,,,,,,,,,,,,,,,,,,,,,,,,,,,,,,,,,,,,,,,,,,,,,,,,,,,,,,,,,,,,,
1702631088,1702631088,21,0,4286.794922,4072.564209,4201.666504,4343.461426,4214.102539,4249.487305,4257.307617,4284.358887,4373.589844,5067.820313,4528.205078,4752.820313,2118.974365,4862.563965,0,4,80,,,,0,4,4,4,4,4,4,4,4,4,4,4,4,4,4,100,1,0,4,1,1,0,1,1,4,3,3,0,1,1,0,1,,,,,,,,,,,,,,,,,,,,,,,,,,,,,,,,,,,,,,,,,,,,,,,,,5.444839,1.988103,1.084748,1.226753,0.774883,6.412024,1.782226,4.801839,3.371381,6.87731,18.287888,5.816514,2.919369,1.029372,0.407054,9.585046,3.46642,3.070774,3.967553,4.048159,2.062441,0.952966,0.611336,1.375525,1.289461,2.486701,0.619592,0.329679,0.787396,0.64417,2.187216,0.429117,0.37388,0.675039,0.547643,6.724669,1.32543,0.591411,0.894636,0.925121,14.457298,1.899567,0.801123,1.067816,1.316241,74.438675,3.580324,2.939209,1.897252,0.955191,25.528099,6.243282,1.487616,1.659315,1.494218,11.309107,1.132425,0.498383,0.785297,0.796281,200.784195,19.851948,4.597108,1.728547,1.51061,18.663687,2.982621,1.985564,1.568775,0.937937
1702631088,1702631088,22,0,4285.128418,4067.307617,4197.179688,4334.615234,4216.410156,4248.589844,4254.615234,4276.666504,4366.794922,5015.512695,4525.128418,4731.410156,2155.512939,4838.333496,0,4,80,,,,0,4,4,4,4,4,4,4,4,4,4,4,4,4,4,100,,,,,,,,,,,,,,,,,,,,,,,,,,,,,,,,,,,,,,,,,,,,,,,,,,,,,,,,,,,,,,,,,,,,,,,,,,,,,,,,,,,,,,,,,,,,,,,,,,,,,,,,,,,,,,,,,,,,,,,,,,,,,,,,,,,,,,
1702631088,1702631088,23,0,4267.307617,4044.230713,4180.384766,4315.897461,4203.077148,4236.282227,4245.641113,4261.922852,4354.743652,4967.692383,4514.615234,4705.641113,2168.974365,4801.282227,0,4,80,,,,0,4,4,4,4,4,4,4,4,4,4,4,4,4,4,100,,,,,,,,,,,,,,,,,,,,,,,,,,,,,,,,,,,,,,,,,,,,,,,,,,,,,,,,,,,,,,,,,,,,,,,,,,,,,,,,,,,,,,,,,,,,,,,,,,,,,,,,,,,,,,,,,,,,,,,,,,,,,,,,,,,,,,
1702631088,1702631088,24,0,4261.410156,4033.461426,4172.820313,4311.410156,4205.897461,4239.102539,4245.769043,4263.846191,4353.333496,4899.615234,4506.666504,4688.846191,2193.461426,4778.333496,0,4,80,,,,0,4,4,4,4,4,4,4,4,4,4,4,4,4,4,100,,,,,,,,,,,,,,,,,6,0,0.207281,-0.684631,-0.002197,-0.698792,0.943963,-0.254914,0.020999,-12.055473,-6.872572,91.786758,,,,,,,,,,,,,,,,,,,,,,,,,,,,,,,,,,,,,,,,,,,,,,,,,,,,,,,,,,,,,,,,,,,,,,,,,,,,,,,,,,,,,,,,,,,,,,,,,,,,,,,,,,
1702631088,1702631088,25,0,4272.05127,4057.05127,4175.897461,4298.846191,4215.641113,4252.179688,4251.153809,4268.205078,4348.589844,4836.025879,4503.077148,4672.820313,2246.794922,4767.05127,0,4,80,,,,0,4,4,4,4,4,4,4,4,4,4,4,4,4,4,100,,,,,,,,,,,,,,,,,,,,,,,,,,,,,,,,,,,,,,,,,,,,,,,,,,,,,,,,,,,,,,,,,,,,,,,,,,,,,,,,,,,,,,,,,,,,,,,,,,,,,,,,,,,,,,,,,,,,,,,,,,,,,,,,,,,,,,
1702631088,1702631088,26,0,4265.897461,4074.358887,4174.358887,4257.820313,4204.615234,4247.563965,4250,4260.384766,4331.025879,4786.794922,4486.794922,4649.358887,2289.102539,4734.871582,0,4,80,,,,0,4,4,4,4,4,4,4,4,4,4,4,4,4,4,100,,,,,,,,,,,,,,,,,,,,,,,,,,,,,,,,,,,,,,,,,,,,,,,,,,,,,,,,,,,,,,,,,,,,,,,,,,,,,,,,,,,,,,,,,,,,,,,,,,,,,,,,,,,,,,,,,,,,,,,,,,,,,,,,,,,,,,
1702631088,1702631088,27,0,4250.256348,4062.05127,4170.384766,4225.384766,4194.487305,4232.94873,4244.743652,4258.205078,4325.256348,4751.794922,4470.769043,4636.153809,2322.94873,4708.717773,0,4,80,,,,0,4,4,4,4,4,4,4,4,4,4,4,4,4,4,100,,,,,,,,,,,,,,,,,,,,,,,,,,,,,,,,,,,,,,,,,,,,,,,,,,,,,,,,,,,,,,,,,,,,,,,,,,,,,,,,,,,,,,,,,,,,,,,,,,,,,,,,,,,,,,,,,,,,,,,,,,,,,,,,,,,,,,
1702631088,1702631088,28,0,4248.974121,4052.564209,4173.077148,4220.769043,4200.384766,4233.205078,4245.256348,4264.358887,4335.512695,4718.717773,4476.666504,4634.358887,2373.589844,4702.692383,0,4,80,,,,0,4,4,4,4,4,4,4,4,4,4,4,4,4,4,100,,,,,,,,,,,,,,,,,7,0,0.20708,-0.684692,-0.002136,-0.698792,0.945428,-0.245147,0.025394,-12.066592,-6.801982,91.641411,,,,,,,,,,,,,,,,,,,,,,,,,,,,,,,,,,,,,,,,,,,,,,,,,,,,,,,,,,,,,,,,,,,,,,,,,,,,,,,,,,,,,,,,,,,,,,,,,,,,,,,,,,
1702631088,1702631088,29,0,4251.410156,4053.589844,4171.538574,4215.128418,4202.307617,4239.615234,4249.871582,4267.692383,4334.743652,4674.230957,4483.717773,4621.282227,2413.589844,4688.333496,0,4,80,,,,0,4,4,4,4,4,4,4,4,4,4,4,4,4,4,100,,,,,,,,,,,,,,,,,,,,,,,,,,,,,,,,,,,,,,,,,,,,,,,,,,,,,,,,,,,,,,,,,,,,,,,,,,,,,,,,,,,,,,,,,,,,,,,,,,,,,,,,,,,,,,,,,,,,,,,,,,,,,,,,,,,,,,
1702631088,1702631088,30,0,4247.94873,4051.025635,4160.384766,4201.666504,4198.717773,4237.820313,4249.871582,4267.692383,4324.230957,4630.128418,4475.769043,4604.102539,2443.974365,4667.94873,0,4,80,,,,0,4,4,4,4,4,4,4,4,4,4,4,4,4,4,100,,,,,,,,,,,,,,,,,,,,,,,,,,,,,,,,,,,,,,,,,,,,,,,,,,,,,,,,,,,,,,,,,,,,,,,,,,,,,,,,,,,,,,,,,,,,,,,,,,,,,,,,,,,,,,,,,,,,,,,,,,,,,,,,,,,,,,
1702631088,1702631088,31,0,4247.307617,4050.384521,4153.589844,4194.743652,4197.692383,4233.974121,4246.666504,4264.871582,4325.512695,4606.025879,4472.307617,4597.692383,2494.871826,4662.94873,0,4,80,,,,0,4,4,4,4,4,4,4,4,4,4,4,4,4,4,100,,,,,,,,,,,,,,,,,,,,,,,,,,,,,,,,,,,,,,,,,,,,,,,,,,,,,,,,,,,,,,,,,,,,,,,,,,,,,,,,,,,,,,,,,,,,,,,,,,,,,,,,,,,,,,,,,,,,,,,,,,,,,,,,,,,,,,
1702631088,1702631088,32,0,4252.05127,4054.102539,4152.692383,4192.05127,4199.358887,4233.461426,4247.820313,4264.615234,4332.179688,4594.487305,4477.563965,4597.179688,2551.281982,4665.256348,0,4,80,,,,0,4,4,4,4,4,4,4,4,4,4,4,4,4,4,100,,,,,,,,,,,,,,,,,8,0,0.207276,-0.68457,-0.002258,-0.698853,0.948358,-0.24124,0.012697,-12.159933,-6.738451,91.627274,,,,,,,,,,,,,,,,,,,,,,,,,,,,,,,,,,,,,,,,,,,,,,,,,,,,,,,,,,,,,,,,,,,,,,,,,,,,,,,,,,,,,,,,,,,,,,,,,,,,,,,,,,
1702631088,1702631088,33,0,4247.436035,4061.923096,4143.846191,4169.871582,4195.769043,4230.897461,4245.384766,4260.384766,4319.230957,4563.589844,4473.717773,4585.512695,2572.820557,4650.641113,0,4,80,,,,0,4,4,4,4,4,4,4,4,4,4,4,4,4,4,100,,,,,,,,,,,,,,,,,,,,,,,,,,,,,,,,,,,,,,,,,,,,,,,,,,,,,,,,,,,,,,,,,,,,,,,,,,,,,,,,,,,,,,,,,,,,,,,,,,,,,,,,,,,,,,,,,,,,,,,,,,,,,,,,,,,,,,
1702631088,1702631088,34,0,4243.589844,4061.923096,4137.179688,4163.974121,4199.615234,4235.512695,4246.794922,4256.794922,4312.179688,4528.974121,4478.077148,4575,2590.769287,4639.871582,0,4,80,,,,0,4,4,4,4,4,4,4,4,4,4,4,4,4,4,100,,,,,,,,,,,,,,,,,,,,,,,,,,,,,,,,,,,,,,,,,,,,,,,,,,,,,,,,,,,,,,,,,,,,,,,,,,,,,,,,,,,,,,,,,,,,,,,,,,,,,,,,,,,,,,,,,,,,,,,,,,,,,,,,,,,,,,
1702631088,1702631088,35,0,4249.743652,4047.435791,4140.897461,4175.256348,4212.94873,4245.256348,4249.615234,4263.974121,4325.128418,4510.256348,4492.692383,4574.358887,2633.974365,4642.820313,0,4,80,,,,0,4,4,4,4,4,4,4,4,4,4,4,4,4,4,100,,,,,,,,,,,,,,,,,,,,,,,,,,,,,,,,,,,,,,,,,,,,,,,,,,,,,,,,,,,,,,,,,,,,,,,,,,,,,,,,,,,,,,,,,,,,,,,,,,,,,,,,,,,,,,,,,,,,,,,,,,,,,,,,,,,,,,
1702631088,1702631088,36,0,4245.384766,4055.512939,4135.769043,4135,4203.717773,4233.461426,4238.077148,4262.820313,4320.128418,4491.538574,4482.179688,4566.666504,2662.179443,4628.974121,0,4,80,,,,0,4,4,4,4,4,4,4,4,4,4,4,4,4,4,100,,,,,,,,,,,,,,,,,9,0,0.207061,-0.684448,-0.002319,-0.699036,0.954706,-0.251496,0.009278,-12.077273,-6.747939,91.697876,,,,,,,,,,,,,,,,,,,,,,,,,,,,,,,,,,,,,,,,,,,,,,,,,,,,,,,,,,,,,,,,,,,,,,,,,,,,,,,,,,,,,,,,,,,,,,,,,,,,,,,,,,
1702631088,1702631088,37,0,4231.410156,4085.512939,4123.589844,4080.512939,4182.179688,4215.256348,4226.153809,4247.307617,4295.641113,4470.128418,4458.333496,4555.384766,2664.230713,4603.846191,0,4,80,,,,0,4,4,4,4,4,4,4,4,4,4,4,4,4,4,100,,,,,,,,,,,,,,,,,,,,,,,,,,,,,,,,,,,,,,,,,,,,,,,,,,,,,,,,,,,,,,,,,5.140656,1.738676,1.278573,1.224067,0.799975,6.318257,2.212833,5.061233,2.948108,7.212564,10.498237,3.175542,2.415069,0.811964,0.370974,7.069005,3.322906,3.398059,3.641087,4.199522,1.983488,0.985983,0.602374,1.311926,1.193074,2.403155,0.661269,0.390123,0.747035,0.626308,2.126078,0.506628,0.449375,0.679651,0.539569,6.440266,1.265628,0.739543,0.876078,0.872875,14.579852,1.941544,1.023967,1.117585,1.292964,100.363686,5.872995,3.653833,2.417078,1.012911,25.307577,5.593382,1.582934,1.796391,1.454438,13.15627,1.244273,0.667389,0.857709,0.763254,248.430389,23.56876,5.213804,2.085116,1.620038,22.618361,2.989543,2.407654,1.695025,0.93371
1702631088,1702631088,38,0,4224.230957,4092.94873,4122.94873,4078.974365,4183.333496,4221.538574,4231.794922,4240.256348,4287.179688,4458.333496,4457.436035,4552.179688,2670.769287,4594.743652,0,4,80,,,,0,4,4,4,4,4,4,4,4,4,4,4,4,4,4,100,,,,,,,,,,,,,,,,,,,,,,,,,,,,,,,,,,,,,,,,,,,,,,,,,,,,,,,,,,,,,,,,,,,,,,,,,,,,,,,,,,,,,,,,,,,,,,,,,,,,,,,,,,,,,,,,,,,,,,,,,,,,,,,,,,,,,,
1702631088,1702631088,39,0,4220.512695,4079.743652,4120.384766,4079.615479,4189.487305,4231.153809,4235.384766,4247.436035,4295.256348,4455.384766,4463.589844,4551.538574,2688.974365,4593.846191,0,4,80,,,,0,4,4,4,4,4,4,4,4,4,4,4,4,4,4,100,,,,,,,,,,,,,,,,,,,,,,,,,,,,,,,,,,,,,,,,,,,,,,,,,,,,,,,,,,,,,,,,,,,,,,,,,,,,,,,,,,,,,,,,,,,,,,,,,,,,,,,,,,,,,,,,,,,,,,,,,,,,,,,,,,,,,,
1702631088,1702631088,40,0,4213.589844,4078.076904,4113.846191,4053.333252,4185.256348,4227.05127,4232.692383,4253.974121,4300.769043,4459.615234,4460.641113,4549.358887,2717.435791,4585.384766,0,4,80,,,,0,4,4,4,4,4,4,4,4,4,4,4,4,4,4,100,,,,,,,,,,,,,,,,,10,0,0.20705,-0.684265,-0.002197,-0.699219,0.95666,-0.270052,0.027835,-12.219546,-6.723145,91.528091,,,,,,,,,,,,,,,,,,,,,,,,,,,,,,,,,,,,,,,,,,,,,,,,,,,,,,,,,,,,,,,,,,,,,,,,,,,,,,,,,,,,,,,,,,,,,,,,,,,,,,,,,,
1702631088,1702631088,41,0,4216.410156,4080,4117.94873,4045.641113,4190.897461,4229.102539,4241.410156,4253.333496,4303.205078,4461.282227,4462.179688,4551.282227,2742.94873,4580.641113,0,4,80,,,,0,4,4,4,4,4,4,4,4,4,4,4,4,4,4,100,,,,,,,,,,,,,,,,,,,,,,,,,,,,,,,,,,,,,,,,,,,,,,,,,,,,,,,,,,,,,,,,,,,,,,,,,,,,,,,,,,,,,,,,,,,,,,,,,,,,,,,,,,,,,,,,,,,,,,,,,,,,,,,,,,,,,,
1702631088,1702631088,42,0,4227.692383,4077.05127,4122.05127,4042.820557,4199.358887,4234.743652,4248.974121,4250.256348,4301.922852,4451.410156,4467.307617,4555.256348,2751.153809,4583.717773,0,4,80,,,,0,4,4,4,4,4,4,4,4,4,4,4,4,4,4,100,,,,,,,,,,,,,,,,,,,,,,,,,,,,,,,,,,,,,,,,,,,,,,,,,,,,,,,,,,,,,,,,,,,,,,,,,,,,,,,,,,,,,,,,,,,,,,,,,,,,,,,,,,,,,,,,,,,,,,,,,,,,,,,,,,,,,,
1702631088,1702631088,43,0,4230.384766,4078.205078,4116.794922,4030.897461,4196.666504,4233.077148,4245.641113,4255,4304.743652,4449.358887,4471.282227,4554.871582,2772.435791,4583.333496,0,4,80,,,,0,4,4,4,4,4,4,4,4,4,4,4,4,4,4,100,,,,,,,,,,,,,,,,,,,,,,,,,,,,,,,,,,,,,,,,,,,,,,,,,,,,,,,,,,,,,,,,,,,,,,,,,,,,,,,,,,,,,,,,,,,,,,,,,,,,,,,,,,,,,,,,,,,,,,,,,,,,,,,,,,,,,,
1702631088,1702631088,44,0,4232.94873,4087.435791,4117.820313,4028.205078,4202.179688,4233.846191,4243.461426,4263.846191,4313.077148,4449.871582,4477.436035,4553.461426,2820.769287,4579.487305,0,4,80,,,,0,4,4,4,4,4,4,4,4,4,4,4,4,4,4,100,,,,,,,,,,,,,,,,,11,0,0.206844,-0.684265,-0.002136,-0.69928,0.973752,-0.242217,0.024905,-12.164258,-6.684164,91.508614,,,,,,,,,,,,,,,,,,,,,,,,,,,,,,,,,,,,,,,,,,,,,,,,,,,,,,,,,,,,,,,,,,,,,,,,,,,,,,,,,,,,,,,,,,,,,,,,,,,,,,,,,,
1702631088,1702631088,45,0,4235.256348,4104.102539,4120.769043,4007.820557,4207.179688,4236.025879,4240.512695,4258.333496,4305.641113,4425.256348,4473.974121,4540,2858.461426,4569.230957,0,4,80,,,,0,4,4,4,4,4,4,4,4,4,4,4,4,4,4,100,,,,,,,,,,,,,,,,,,,,,,,,,,,,,,,,,,,,,,,,,,,,,,,,,,,,,,,,,,,,,,,,,,,,,,,,,,,,,,,,,,,,,,,,,,,,,,,,,,,,,,,,,,,,,,,,,,,,,,,,,,,,,,,,,,,,,,
1702631088,1702631088,46,0,4222.436035,4111.410156,4108.461426,3969.230713,4194.358887,4227.94873,4230.769043,4243.461426,4287.563965,4387.692383,4456.025879,4518.846191,2878.076904,4547.94873,0,4,80,,,,0,4,4,4,4,4,4,4,4,4,4,4,4,4,4,100,,,,,,,,,,,,,,,,,,,,,,,,,,,,,,,,,,,,,,,,,,,,,,,,,,,,,,,,,,,,,,,,,,,,,,,,,,,,,,,,,,,,,,,,,,,,,,,,,,,,,,,,,,,,,,,,,,,,,,,,,,,,,,,,,,,,,,
1702631088,1702631088,47,0,4212.436035,4095.256348,4099.743652,3963.205078,4187.692383,4227.820313,4231.410156,4242.436035,4286.153809,4375.256348,4447.94873,4516.794922,2906.666748,4535.641113,0,4,80,,,,0,4,4,4,4,4,4,4,4,4,4,4,4,4,4,100,,,,,,,,,,,,,,,,,,,,,,,,,,,,,,,,,,,,,,,,,,,,,,,,,,,,,,,,,,,,,,,,,,,,,,,,,,,,,,,,,,,,,,,,,,,,,,,,,,,,,,,,,,,,,,,,,,,,,,,,,,,,,,,,,,,,,,
1702631088,1702631088,48,0,4228.974121,4073.589844,4103.333496,3990.897461,4198.205078,4240.897461,4243.717773,4256.666504,4303.589844,4386.153809,4464.358887,4530.128418,2943.846191,4549.230957,0,4,80,,,,0,4,4,4,4,4,4,4,4,4,4,4,4,4,4,100,,,,,,,,,,,,,,,,,12,0,0.206642,-0.684326,-0.002136,-0.69928,0.962031,-0.233427,0.022464,-12.164499,-6.782414,91.474419,,,,,,,,,,,,,,,,,,,,,,,,,,,,,,,,,,,,,,,,,,,,,,,,,,,,,,,,,,,,,,,,,,,,,,,,,,,,,,,,,,,,,,,,,,,,,,,,,,,,,,,,,,
1702631088,1702631088,49,0,4234.102539,4083.205078,4103.974121,3984.230713,4196.794922,4236.666504,4239.230957,4256.666504,4305,4367.179688,4466.025879,4519.358887,2969.615479,4545.256348,0,4,80,,,,0,4,4,4,4,4,4,4,4,4,4,4,4,4,4,100,,,,,,,,,,,,,,,,,,,,,,,,,,,,,,,,,,,,,,,,,,,,,,,,,,,,,,,,,,,,,,,,,,,,,,,,,,,,,,,,,,,,,,,,,,,,,,,,,,,,,,,,,,,,,,,,,,,,,,,,,,,,,,,,,,,,,,
1702631088,1702631088,50,0,4215,4129.230957,4102.05127,3946.153809,4178.205078,4220.256348,4223.846191,4235.769043,4280.512695,4317.179688,4441.410156,4493.589844,3007.820557,4509.615234,0,4,80,,,,0,4,4,4,4,4,4,4,4,4,4,4,4,4,4,100,,,,,,,,,,,,,,,,,,,,,,,,,,,,,,,,,,,,,,,,,,,,,,,,,,,,,,,,,,,,,,,,,,,,,,,,,,,,,,,,,,,,,,,,,,,,,,,,,,,,,,,,,,,,,,,,,,,,,,,,,,,,,,,,,,,,,,
1702631088,1702631088,51,0,4219.871582,4150.897461,4106.794922,3953.589844,4179.230957,4225.256348,4226.538574,4234.102539,4275.512695,4296.282227,4443.846191,4491.922852,3081.923096,4501.794922,0,4,80,,,,0,4,4,4,4,4,4,4,4,4,4,4,4,4,4,100,,,,,,,,,,,,,,,,,,,,,,,,,,,,,,,,,,,,,,,,,,,,,,,,,,,,,,,,,,,,,,,,,,,,,,,,,,,,,,,,,,,,,,,,,,,,,,,,,,,,,,,,,,,,,,,,,,,,,,,,,,,,,,,,,,,,,,
1702631088,1702631088,52,0,4237.563965,4108.205078,4110.256348,3995.512939,4198.333496,4238.077148,4237.94873,4252.307617,4295.512695,4289.871582,4467.307617,4496.153809,3156.538574,4514.871582,0,4,80,,,,0,4,4,4,4,4,4,4,4,4,4,4,4,4,4,100,,,,,,,,,,,,,,,,,13,0,0.206226,-0.684326,-0.00238,-0.699402,0.961543,-0.251984,0.021487,-12.164716,-6.754172,91.526978,,,,,,,,,,,,,,,,,,,,,,,,,,,,,,,,,,,,,,,,,,,,,,,,,,,,,,,,,,,,,,,,,,,,,,,,,,,,,,,,,,,,,,,,,,,,,,,,,,,,,,,,,,
1702631088,1702631088,53,0,4232.05127,4089.230713,4107.179688,3998.205078,4198.846191,4234.102539,4234.487305,4252.563965,4294.230957,4251.282227,4458.974121,4478.846191,3212.820557,4496.794922,0,4,80,,,,0,4,4,4,4,4,4,4,4,4,4,4,4,4,4,100,,,,,,,,,,,,,,,,,,,,,,,,,,,,,,,,,,,,,,,,,,,,,,,,,,,,,,,,,,,,,,,,,7.523712,1.744284,1.530578,1.127571,0.825366,8.242339,2.752603,5.103137,2.434734,7.213749,4.988659,1.42614,2.054966,0.640046,0.355775,9.310437,3.346421,3.520739,3.010366,4.405472,2.048281,0.975121,0.645137,1.16246,1.099061,2.363572,0.686337,0.465709,0.653667,0.625396,1.943046,0.572134,0.526602,0.627636,0.544895,5.962264,1.182503,0.929006,0.815928,0.854627,14.714076,1.968851,1.314201,1.13164,1.30738,167.975891,18.057428,6.979774,3.968618,1.534461,25.377863,4.856242,1.837832,1.81806,1.461561,17.585463,2.242622,1.107514,0.98936,0.770733,411.862549,41.532997,11.579577,4.224107,2.139267,28.256977,4.674538,3.249617,1.786738,0.998468
1702631089,1702631089,54,0,4227.05127,4139.487305,4108.846191,3978.718018,4186.538574,4228.717773,4230.128418,4243.333496,4278.077148,4208.717773,4443.205078,4460,3280.897461,4472.307617,0,4,80,,,,0,4,4,4,4,4,4,4,4,4,4,4,4,4,4,100,,,,,,,,,,,,,,,,,,,,,,,,,,,,,,,,,,,,,,,,,,,,,,,,,,,,,,,,,,,,,,,,,,,,,,,,,,,,,,,,,,,,,,,,,,,,,,,,,,,,,,,,,,,,,,,,,,,,,,,,,,,,,,,,,,,,,,
1702631089,1702631089,55,0,4230.512695,4160.256348,4112.436035,3986.025635,4181.666504,4230.256348,4232.307617,4246.666504,4278.974121,4179.743652,4443.205078,4453.461426,3358.333252,4463.846191,0,4,80,,,,0,4,4,4,4,4,4,4,4,4,4,4,4,4,4,100,,,,,,,,,,,,,,,,,,,,,,,,,,,,,,,,,,,,,,,,,,,,,,,,,,,,,,,,,,,,,,,,,,,,,,,,,,,,,,,,,,,,,,,,,,,,,,,,,,,,,,,,,,,,,,,,,,,,,,,,,,,,,,,,,,,,,,
1702631089,1702631089,56,0,4220.512695,4124.615234,4108.333496,4002.820557,4183.205078,4229.615234,4230.256348,4245.256348,4275.384766,4140.128418,4430.384766,4439.871582,3416.794922,4444.743652,0,4,80,,,,0,4,4,4,4,4,4,4,4,4,4,4,4,4,4,100,,,,,,,,,,,,,,,,,14,0,0.20581,-0.684326,-0.002502,-0.699524,0.97131,-0.239775,0.017092,-12.148244,-6.712089,91.59095,,,,,,,,,,,,,,,,,,,,,,,,,,,,,,,,,,,,,,,,,,,,,,,,,,,,,,,,,,,,,,,,,,,,,,,,,,,,,,,,,,,,,,,,,,,,,,,,,,,,,,,,,,
1702631089,1702631089,57,0,4212.563965,4112.563965,4106.153809,4013.461426,4187.307617,4231.922852,4231.282227,4244.358887,4265.641113,4109.487305,4420.128418,4422.94873,3478.974365,4428.333496,0,4,80,,,,0,4,4,4,4,4,4,4,4,4,4,4,4,4,4,100,,,,,,,,,,,,,,,,,,,,,,,,,,,,,,,,,,,,,,,,,,,,,,,,,,,,,,,,,,,,,,,,,,,,,,,,,,,,,,,,,,,,,,,,,,,,,,,,,,,,,,,,,,,,,,,,,,,,,,,,,,,,,,,,,,,,,,
1702631089,1702631089,58,0,4216.666504,4131.922852,4109.102539,4021.923096,4189.230957,4233.077148,4234.358887,4251.922852,4268.205078,4090.641113,4424.487305,4416.666504,3549.230713,4425.512695,0,4,80,,,,0,4,4,4,4,4,4,4,4,4,4,4,4,4,4,100,,,,,,,,,,,,,,,,,,,,,,,,,,,,,,,,,,,,,,,,,,,,,,,,,,,,,,,,,,,,,,,,,,,,,,,,,,,,,,,,,,,,,,,,,,,,,,,,,,,,,,,,,,,,,,,,,,,,,,,,,,,,,,,,,,,,,,
1702631089,1702631089,59,0,4216.025879,4128.974121,4105.128418,4031.281982,4183.461426,4229.230957,4231.282227,4247.94873,4263.846191,4058.076904,4417.820313,4407.563965,3607.307617,4408.974121,0,4,80,,,,0,4,4,4,4,4,4,4,4,4,4,4,4,4,4,100,,,,,,,,,,,,,,,,,,,,,,,,,,,,,,,,,,,,,,,,,,,,,,,,,,,,,,,,,,,,,,,,,,,,,,,,,,,,,,,,,,,,,,,,,,,,,,,,,,,,,,,,,,,,,,,,,,,,,,,,,,,,,,,,,,,,,,
1702631089,1702631089,60,0,4216.025879,4123.717773,4099.230957,4040,4181.410156,4228.717773,4227.94873,4239.358887,4248.974121,4027.820557,4411.282227,4395.769043,3670.384521,4389.358887,0,4,80,,,,0,4,4,4,4,4,4,4,4,4,4,4,4,4,4,100,,,,,,,,,,,,,,,,,15,0,0.205397,-0.684387,-0.002686,-0.699585,0.962031,-0.247589,0.01465,-12.216753,-6.707546,91.48185,,,,,,,,,,,,,,,,,,,,,,,,,,,,,,,,,,,,,,,,,,,,,,,,,,,,,,,,,,,,,,,,,,,,,,,,,,,,,,,,,,,,,,,,,,,,,,,,,,,,,,,,,,
1702631089,1702631089,61,0,4217.94873,4135.128418,4103.205078,4048.205078,4186.538574,4232.436035,4230.641113,4235.897461,4245.769043,4006.923096,4412.436035,4387.692383,3748.205078,4383.333496,0,4,80,,,,0,4,4,4,4,4,4,4,4,4,4,4,4,4,4,100,,,,,,,,,,,,,,,,,,,,,,,,,,,,,,,,,,,,,,,,,,,,,,,,,,,,,,,,,,,,,,,,,,,,,,,,,,,,,,,,,,,,,,,,,,,,,,,,,,,,,,,,,,,,,,,,,,,,,,,,,,,,,,,,,,,,,,
1702631089,1702631089,62,0,4212.94873,4142.307617,4105.256348,4053.589844,4180.897461,4229.871582,4227.436035,4230.512695,4245.256348,3974.743652,4404.230957,4375,3821.923096,4370.769043,0,4,80,,,,0,4,4,4,4,4,4,4,4,4,4,4,4,4,4,100,,,,,,,,,,,,,,,,,,,,,,,,,,,,,,,,,,,,,,,,,,,,,,,,,,,,,,,,,,,,,,,,,,,,,,,,,,,,,,,,,,,,,,,,,,,,,,,,,,,,,,,,,,,,,,,,,,,,,,,,,,,,,,,,,,,,,,
1702631089,1702631089,63,0,4220.897461,4141.282227,4113.461426,4075.641113,4190.384766,4233.717773,4230.128418,4237.05127,4245.897461,3951.153809,4412.820313,4370.384766,3900.256348,4365.384766,0,4,80,,,,0,4,4,4,4,4,4,4,4,4,4,4,4,4,4,100,,,,,,,,,,,,,,,,,,,,,,,,,,,,,,,,,,,,,,,,,,,,,,,,,,,,,,,,,,,,,,,,,,,,,,,,,,,,,,,,,,,,,,,,,,,,,,,,,,,,,,,,,,,,,,,,,,,,,,,,,,,,,,,,,,,,,,
1702631089,1702631089,64,0,4240.897461,4137.820313,4128.846191,4110.769043,4215.128418,4246.025879,4244.358887,4252.563965,4254.358887,3948.461426,4436.922852,4375.384766,3985.769287,4380.128418,4772,4,80,,,,0,4,4,4,4,4,4,4,4,4,4,4,4,4,4,100,,,,,,,,,,,,,,,,,16,0,0.205403,-0.684509,-0.002869,-0.699463,0.960566,-0.234892,0.015139,-12.261744,-6.653459,91.567001,,,,,,,,,,,,,,,,,,,,,,,,,,,,,,,,,,,,,,,,,,,,,,,,,,,,,,,,,,,,,,,,,,,,,,,,,,,,,,,,,,,,,,,,,,,,,,,,,,,,,,,,,,
1702631089,1702631089,65,0,4232.563965,4159.230957,4122.94873,4098.846191,4201.410156,4236.922852,4238.717773,4240.897461,4243.077148,3926.025635,4421.538574,4356.794922,4035.512939,4366.538574,5652,4,80,,,,0,4,4,4,4,4,4,4,4,4,4,4,4,4,4,100,,,,,,,,,,,,,,,,,,,,,,,,,,,,,,,,,,,,,,,,,,,,,,,,,,,,,,,,,,,,,,,,,,,,,,,,,,,,,,,,,,,,,,,,,,,,,,,,,,,,,,,,,,,,,,,,,,,,,,,,,,,,,,,,,,,,,,
1702631089,1702631089,66,0,4217.436035,4183.589844,4114.487305,4080.769287,4181.794922,4226.025879,4227.436035,4230.512695,4230.897461,3893.974365,4402.563965,4340.256348,4074.102539,4338.077148,5452,4,80,,,,0,4,4,4,4,4,4,4,4,4,4,4,4,4,4,100,,,,,,,,,,,,,,,,,,,,,,,,,,,,,,,,,,,,,,,,,,,,,,,,,,,,,,,,,,,,,,,,,,,,,,,,,,,,,,,,,,,,,,,,,,,,,,,,,,,,,,,,,,,,,,,,,,,,,,,,,,,,,,,,,,,,,,
1702631089,1702631089,67,0,4236.410156,4174.102539,4134.230957,4118.717773,4203.461426,4239.871582,4239.230957,4256.666504,4254.230957,3903.461426,4427.692383,4356.153809,4155,4351.410156,5452,4,80,,,,0,4,4,4,4,4,4,4,4,4,4,4,4,4,4,100,,,,,,,,,,,,,,,,,,,,,,,,,,,,,,,,,,,,,,,,,,,,,,,,,,,,,,,,,,,,,,,,,,,,,,,,,,,,,,,,,,,,,,,,,,,,,,,,,,,,,,,,,,,,,,,,,,,,,,,,,,,,,,,,,,,,,,
1702631089,1702631089,68,0,4250.769043,4166.282227,4151.666504,4140.256348,4214.358887,4244.615234,4244.871582,4265.256348,4267.307617,3915.384521,4446.153809,4359.871582,4228.974121,4367.692383,5425,4,80,,,,0,4,4,4,4,4,4,4,4,4,4,4,4,4,4,100,,,,,,,,,,,,,,,,,17,0,0.205203,-0.684631,-0.00293,-0.699402,0.957148,-0.24417,0.019045,-12.28557,-6.621446,91.660301,,,,,,,,,,,,,,,,,,,,,,,,,,,,,,,,,,,,,,,,,,,,,,,,,,,,,,,,,,,,,,,,,,,,,,,,,,,,,,,,,,,,,,,,,,,,,,,,,,,,,,,,,,
1702631089,1702631089,69,0,4227.436035,4185.256348,4141.666504,4108.077148,4195.512695,4229.487305,4230,4237.820313,4238.333496,3881.923096,4424.230957,4333.974121,4259.230957,4343.846191,5285,4,80,,,,0,4,4,4,4,4,4,4,4,4,4,4,4,4,4,100,,,,,,,,,,,,,,,,,,,,,,,,,,,,,,,,,,,,,,,,,,,,,,,,,,,,,,,,,,,,,,,,,13.177821,2.121352,1.726872,0.958748,0.850463,12.298629,3.306386,5.018503,1.950616,6.871401,2.580663,0.638947,1.811456,0.53231,0.364597,16.644808,3.697113,3.356538,2.262467,4.617033,2.404397,0.924531,0.689965,0.957468,1.035551,2.46051,0.674645,0.527707,0.529669,0.651111,1.681092,0.597583,0.567721,0.530918,0.568858,5.1709,1.092928,1.075263,0.726895,0.882813,14.855686,2.070763,1.563396,1.111803,1.365528,308.255981,48.764877,15.924144,7.659384,2.927219,25.223078,4.194233,2.105195,1.717666,1.516735,26.390945,4.94348,2.051286,1.285231,0.862147,737.101257,84.057755,28.345205,9.79705,3.375254,35.748764,9.475677,4.842067,1.959223,1.159916
1702631089,1702631089,70,0,4211.410156,4193.333496,4130.384766,4095.256348,4194.358887,4226.794922,4224.358887,4223.589844,4217.820313,3850.512939,4401.794922,4322.563965,4294.487305,4321.922852,3954,4,80,,,,0,4,4,4,4,4,4,4,4,4,4,4,4,4,4,100,,,,,,,,,,,,,,,,,,,,,,,,,,,,,,,,,,,,,,,,,,,,,,,,,,,,,,,,,,,,,,,,,,,,,,,,,,,,,,,,,,,,,,,,,,,,,,,,,,,,,,,,,,,,,,,,,,,,,,,,,,,,,,,,,,,,,,
1702631089,1702631089,71,0,4224.358887,4182.436035,4130.769043,4118.205078,4203.589844,4234.230957,4232.820313,4232.563965,4229.743652,3859.743652,4401.666504,4329.871582,4353.205078,4329.102539,4936,4,80,,,,0,4,4,4,4,4,4,4,4,4,4,4,4,4,4,100,,,,,,,,,,,,,,,,,,,,,,,,,,,,,,,,,,,,,,,,,,,,,,,,,,,,,,,,,,,,,,,,,,,,,,,,,,,,,,,,,,,,,,,,,,,,,,,,,,,,,,,,,,,,,,,,,,,,,,,,,,,,,,,,,,,,,,
1702631089,1702631089,72,0,4236.794922,4184.358887,4134.871582,4137.820313,4200.512695,4235.641113,4241.666504,4242.692383,4243.333496,3878.076904,4416.666504,4336.410156,4403.205078,4343.589844,5412,4,80,,,,0,4,4,4,4,4,4,4,4,4,4,4,4,4,4,100,,,,,,,,,,,,,,,,,18,0,0.205002,-0.684753,-0.003052,-0.699341,0.954218,-0.231962,0.020999,-12.257013,-6.759301,91.710938,,,,,,,,,,,,,,,,,,,,,,,,,,,,,,,,,,,,,,,,,,,,,,,,,,,,,,,,,,,,,,,,,,,,,,,,,,,,,,,,,,,,,,,,,,,,,,,,,,,,,,,,,,
1702631089,1702631089,73,0,4239.871582,4204.230957,4139.871582,4147.94873,4204.487305,4236.922852,4247.05127,4253.077148,4247.820313,3880.897461,4430.897461,4343.974121,4446.922852,4351.666504,5482,4,80,,,,0,4,4,4,4,4,4,4,4,4,4,4,4,4,4,100,,,,,,,,,,,,,,,,,,,,,,,,,,,,,,,,,,,,,,,,,,,,,,,,,,,,,,,,,,,,,,,,,,,,,,,,,,,,,,,,,,,,,,,,,,,,,,,,,,,,,,,,,,,,,,,,,,,,,,,,,,,,,,,,,,,,,,
1702631089,1702631089,74,0,4241.282227,4228.974121,4140.256348,4136.153809,4211.794922,4233.846191,4244.615234,4260,4247.820313,3875.897461,4421.025879,4343.974121,4489.615234,4352.05127,6093,4,80,,,,0,4,4,4,4,4,4,4,4,4,4,4,4,4,4,100,,,,,,,,,,,,,,,,,,,,,,,,,,,,,,,,,,,,,,,,,,,,,,,,,,,,,,,,,,,,,,,,,,,,,,,,,,,,,,,,,,,,,,,,,,,,,,,,,,,,,,,,,,,,,,,,,,,,,,,,,,,,,,,,,,,,,,
1702631089,1702631089,75,0,4242.820313,4222.436035,4137.692383,4128.205078,4215.384766,4231.282227,4243.333496,4259.615234,4247.692383,3879.230713,4409.358887,4341.538574,4522.05127,4352.820313,6252,4,80,,,,0,4,4,4,4,4,4,4,4,4,4,4,4,4,4,100,,,,,,,,,,,,,,,,,,,,,,,,,,,,,,,,,,,,,,,,,,,,,,,,,,,,,,,,,,,,,,,,,,,,,,,,,,,,,,,,,,,,,,,,,,,,,,,,,,,,,,,,,,,,,,,,,,,,,,,,,,,,,,,,,,,,,,
1702631089,1702631089,76,0,4243.846191,4202.179688,4140.512695,4137.820313,4219.743652,4235.641113,4247.05127,4258.333496,4248.717773,3892.05127,4420.128418,4345.641113,4551.410156,4357.436035,6811,4,80,,,,0,4,4,4,4,4,4,4,4,4,4,4,4,4,4,100,,,,,,,,,,,,,,,,,19,0,0.204986,-0.68457,-0.003235,-0.699524,0.970333,-0.258332,0.018069,-12.314645,-6.750038,91.589844,,,,,,,,,,,,,,,,,,,,,,,,,,,,,,,,,,,,,,,,,,,,,,,,,,,,,,,,,,,,,,,,,,,,,,,,,,,,,,,,,,,,,,,,,,,,,,,,,,,,,,,,,,
1702631089,1702631089,77,0,4244.743652,4224.871582,4149.487305,4125.641113,4218.974121,4232.94873,4243.333496,4256.922852,4246.922852,3897.564209,4426.282227,4347.307617,4587.05127,4356.922852,4645,4,80,,,,0,4,4,4,4,4,4,4,4,4,4,4,4,4,4,100,,,,,,,,,,,,,,,,,,,,,,,,,,,,,,,,,,,,,,,,,,,,,,,,,,,,,,,,,,,,,,,,,,,,,,,,,,,,,,,,,,,,,,,,,,,,,,,,,,,,,,,,,,,,,,,,,,,,,,,,,,,,,,,,,,,,,,
1702631089,1702631089,78,0,4245.256348,4229.871582,4153.205078,4114.102539,4215.384766,4227.692383,4239.230957,4258.077148,4243.461426,3900,4413.333496,4347.307617,4633.589844,4356.153809,6093,4,80,,,,0,4,4,4,4,4,4,4,4,4,4,4,4,4,4,100,,,,,,,,,,,,,,,,,,,,,,,,,,,,,,,,,,,,,,,,,,,,,,,,,,,,,,,,,,,,,,,,,,,,,,,,,,,,,,,,,,,,,,,,,,,,,,,,,,,,,,,,,,,,,,,,,,,,,,,,,,,,,,,,,,,,,,
1702631089,1702631089,79,0,4248.077148,4198.461426,4151.153809,4130.897461,4220.384766,4235.897461,4248.205078,4266.538574,4248.717773,3925.769287,4415.256348,4359.102539,4687.05127,4372.179688,6252,4,80,,,,0,4,4,4,4,4,4,4,4,4,4,4,4,4,4,100,,,,,,,,,,,,,,,,,,,,,,,,,,,,,,,,,,,,,,,,,,,,,,,,,,,,,,,,,,,,,,,,,,,,,,,,,,,,,,,,,,,,,,,,,,,,,,,,,,,,,,,,,,,,,,,,,,,,,,,,,,,,,,,,,,,,,,
1702631089,1702631089,80,0,4248.974121,4214.487305,4152.94873,4121.794922,4222.436035,4235,4247.820313,4268.205078,4252.436035,3949.615479,4424.358887,4365.641113,4724.487305,4388.077148,6811,4,80,,,,0,4,4,4,4,4,4,4,4,4,4,4,4,4,4,100,,,,,,,,,,,,,,,,,20,0,0.20539,-0.684387,-0.003174,-0.699585,0.95959,-0.24124,0.012209,-12.199847,-6.791701,91.564194,,,,,,,,,,,,,,,,,,,,,,,,,,,,,,,,,,,,,,,,,,,,,,,,,,,,,,,,,,,,,,,,,,,,,,,,,,,,,,,,,,,,,,,,,,,,,,,,,,,,,,,,,,
1702631089,1702631089,81,0,4244.743652,4250.384766,4156.410156,4089.743652,4211.538574,4218.589844,4236.025879,4260.512695,4246.538574,3966.281982,4415,4366.153809,4723.205078,4391.794922,4645,4,80,,,,0,4,4,4,4,4,4,4,4,4,4,4,4,4,4,100,,,,,,,,,,,,,,,,,,,,,,,,,,,,,,,,,,,,,,,,,,,,,,,,,,,,,,,,,,,,,,,,,,,,,,,,,,,,,,,,,,,,,,,,,,,,,,,,,,,,,,,,,,,,,,,,,,,,,,,,,,,,,,,,,,,,,,
1702631089,1702631089,82,0,4247.05127,4238.589844,4162.179688,4103.717773,4212.820313,4219.102539,4240.256348,4265.512695,4252.05127,4016.666748,4417.179688,4385.897461,4696.025879,4413.333496,6093,4,80,,,,0,4,4,4,4,4,4,4,4,4,4,4,4,4,4,100,,,,,,,,,,,,,,,,,,,,,,,,,,,,,,,,,,,,,,,,,,,,,,,,,,,,,,,,,,,,,,,,,,,,,,,,,,,,,,,,,,,,,,,,,,,,,,,,,,,,,,,,,,,,,,,,,,,,,,,,,,,,,,,,,,,,,,
1702631089,1702631089,83,0,4248.205078,4219.358887,4171.282227,4123.461426,4222.436035,4230.512695,4247.692383,4269.743652,4260.512695,4066.025635,4425.897461,4400,4674.871582,4440.641113,6252,4,80,,,,0,4,4,4,4,4,4,4,4,4,4,4,4,4,4,100,,,,,,,,,,,,,,,,,,,,,,,,,,,,,,,,,,,,,,,,,,,,,,,,,,,,,,,,,,,,,,,,,,,,,,,,,,,,,,,,,,,,,,,,,,,,,,,,,,,,,,,,,,,,,,,,,,,,,,,,,,,,,,,,,,,,,,
1702631089,1702631089,84,0,4248.846191,4231.153809,4181.025879,4110.641113,4228.589844,4231.410156,4243.589844,4267.436035,4262.820313,4072.94873,4424.358887,4397.179688,4689.230957,4446.410156,6811,4,80,,,,0,4,4,4,4,4,4,4,4,4,4,4,4,4,4,100,,,,,,,,,,,,,,,,,21,0,0.205386,-0.684326,-0.003113,-0.699646,0.960566,-0.239287,0.024417,-12.096529,-6.662531,91.57444,,,,,,,,,,,,,,,,,,,,,,,,,,,,,,,,,,,,,,,,,,,,,,,,,,,,,,,,,,,,,,,,,,,,,,,,,,,,,,,,,,,,,,,,,,,,,,,,,,,,,,,,,,
1702631089,1702631089,85,0,4257.820313,4245.897461,4185.384766,4112.307617,4237.692383,4232.307617,4247.436035,4277.307617,4271.666504,4067.179443,4432.307617,4400.769043,4732.692383,4449.358887,4645,4,80,,,,0,4,4,4,4,4,4,4,4,4,4,4,4,4,4,100,1,0,4,1,1,0,1,1,4,4,3,0,3,1,0,1,,,,,,,,,,,,,,,,,,,,,,,,,,,,,,,,,,,,,,,,,,,,,,,,,21.489677,2.920864,1.804786,0.757903,0.866221,18.408033,3.822817,4.870753,1.624185,6.301088,2.082835,0.490867,1.588943,0.474826,0.386803,27.7342,4.496257,3.001624,1.588601,4.765091,2.852057,0.869029,0.710055,0.736745,1.009486,2.577264,0.626842,0.565099,0.401622,0.69782,1.40137,0.580629,0.562844,0.413647,0.60429,4.206353,1.03405,1.119683,0.624968,0.941293,15.6914,2.326259,1.694748,1.064676,1.440823,543.677551,100.719154,31.761585,13.879198,5.305658,24.615282,3.784962,2.270581,1.524297,1.585888,41.970516,9.581408,3.583886,1.793755,1.044465,1271.967529,153.057999,56.619804,19.278023,5.399141,47.981319,17.756563,7.30848,2.294613,1.407136
1702631089,1702631089,86,0,4251.666504,4249.487305,4176.153809,4122.05127,4235.384766,4232.94873,4247.05127,4277.307617,4268.589844,4049.358887,4430.128418,4392.307617,4747.94873,4442.94873,6093,4,80,,,,0,4,4,4,4,4,4,4,4,4,4,4,4,4,4,100,,,,,,,,,,,,,,,,,,,,,,,,,,,,,,,,,,,,,,,,,,,,,,,,,,,,,,,,,,,,,,,,,,,,,,,,,,,,,,,,,,,,,,,,,,,,,,,,,,,,,,,,,,,,,,,,,,,,,,,,,,,,,,,,,,,,,,
1702631089,1702631089,87,0,4228.205078,4242.820313,4164.871582,4110.641113,4222.820313,4227.563965,4232.94873,4256.410156,4246.025879,4009.358887,4396.025879,4366.025879,4740.512695,4416.666504,6252,4,80,,,,0,4,4,4,4,4,4,4,4,4,4,4,4,4,4,100,,,,,,,,,,,,,,,,,,,,,,,,,,,,,,,,,,,,,,,,,,,,,,,,,,,,,,,,,,,,,,,,,,,,,,,,,,,,,,,,,,,,,,,,,,,,,,,,,,,,,,,,,,,,,,,,,,,,,,,,,,,,,,,,,,,,,,
1702631089,1702631089,88,0,4231.538574,4245.256348,4169.230957,4108.974121,4229.358887,4231.025879,4237.307617,4259.871582,4245.769043,3998.846191,4388.077148,4368.974121,4768.717773,4415.641113,6811,4,80,,,,0,4,4,4,4,4,4,4,4,4,4,4,4,4,4,100,,,,,,,,,,,,,,,,,22,0,0.205375,-0.684143,-0.00293,-0.699829,0.964962,-0.236845,0.027347,-12.153543,-6.612944,91.450333,,,,,,,,,,,,,,,,,,,,,,,,,,,,,,,,,,,,,,,,,,,,,,,,,,,,,,,,,,,,,,,,,,,,,,,,,,,,,,,,,,,,,,,,,,,,,,,,,,,,,,,,,,
1702631089,1702631089,89,0,4248.717773,4261.922852,4173.589844,4122.05127,4239.230957,4232.179688,4250.512695,4274.487305,4256.922852,4008.846191,4417.05127,4382.94873,4806.922852,4430.512695,4645,4,80,,,,0,4,4,4,4,4,4,4,4,4,4,4,4,4,4,100,,,,,,,,,,,,,,,,,,,,,,,,,,,,,,,,,,,,,,,,,,,,,,,,,,,,,,,,,,,,,,,,,,,,,,,,,,,,,,,,,,,,,,,,,,,,,,,,,,,,,,,,,,,,,,,,,,,,,,,,,,,,,,,,,,,,,,
1702631089,1702631089,90,0,4244.102539,4260.769043,4162.307617,4120.128418,4230,4222.94873,4244.871582,4264.230957,4247.563965,3991.281982,4414.102539,4369.230957,4828.077148,4420.641113,6093,4,80,,,,0,4,4,4,4,4,4,4,4,4,4,4,4,4,4,100,,,,,,,,,,,,,,,,,,,,,,,,,,,,,,,,,,,,,,,,,,,,,,,,,,,,,,,,,,,,,,,,,,,,,,,,,,,,,,,,,,,,,,,,,,,,,,,,,,,,,,,,,,,,,,,,,,,,,,,,,,,,,,,,,,,,,,
1702631089,1702631089,91,0,4248.333496,4260.897461,4163.077148,4119.615234,4232.05127,4225.512695,4243.461426,4266.025879,4250.512695,3981.923096,4405.769043,4366.922852,4871.282227,4418.846191,6252,4,80,,,,0,4,4,4,4,4,4,4,4,4,4,4,4,4,4,100,,,,,,,,,,,,,,,,,,,,,,,,,,,,,,,,,,,,,,,,,,,,,,,,,,,,,,,,,,,,,,,,,,,,,,,,,,,,,,,,,,,,,,,,,,,,,,,,,,,,,,,,,,,,,,,,,,,,,,,,,,,,,,,,,,,,,,
1702631089,1702631089,92,0,4267.692383,4284.230957,4179.487305,4123.717773,4245.256348,4233.717773,4249.358887,4281.922852,4265.384766,3990.769287,4426.153809,4376.666504,4926.666504,4435.641113,6811,4,80,,,,0,4,4,4,4,4,4,4,4,4,4,4,4,4,4,100,,,,,,,,,,,,,,,,,23,0,0.204965,-0.684204,-0.002808,-0.69989,0.961543,-0.24124,0.020022,-12.271522,-6.584983,91.555298,,,,,,,,,,,,,,,,,,,,,,,,,,,,,,,,,,,,,,,,,,,,,,,,,,,,,,,,,,,,,,,,,,,,,,,,,,,,,,,,,,,,,,,,,,,,,,,,,,,,,,,,,,
1702631089,1702631089,93,0,4272.05127,4295.128418,4190.641113,4131.410156,4245.641113,4233.461426,4250.769043,4284.102539,4269.102539,3990.641113,4435.897461,4374.487305,4961.025879,4441.153809,4645,4,80,,,,0,4,4,4,4,4,4,4,4,4,4,4,4,4,4,100,,,,,,,,,,,,,,,,,,,,,,,,,,,,,,,,,,,,,,,,,,,,,,,,,,,,,,,,,,,,,,,,,,,,,,,,,,,,,,,,,,,,,,,,,,,,,,,,,,,,,,,,,,,,,,,,,,,,,,,,,,,,,,,,,,,,,,
1702631089,1702631089,94,0,4266.410156,4285.641113,4194.230957,4143.205078,4243.077148,4231.153809,4253.717773,4285.769043,4267.820313,3979.871826,4424.871582,4372.563965,4989.871582,4438.077148,6093,4,80,,,,0,4,4,4,4,4,4,4,4,4,4,4,4,4,4,100,,,,,,,,,,,,,,,,,,,,,,,,,,,,,,,,,,,,,,,,,,,,,,,,,,,,,,,,,,,,,,,,,,,,,,,,,,,,,,,,,,,,,,,,,,,,,,,,,,,,,,,,,,,,,,,,,,,,,,,,,,,,,,,,,,,,,,
1702631089,1702631089,95,0,4276.410156,4296.666504,4203.974121,4146.922852,4253.846191,4238.589844,4261.025879,4296.153809,4273.846191,3978.718018,4435,4381.410156,5026.666504,4445.641113,6252,4,80,,,,0,4,4,4,4,4,4,4,4,4,4,4,4,4,4,100,,,,,,,,,,,,,,,,,,,,,,,,,,,,,,,,,,,,,,,,,,,,,,,,,,,,,,,,,,,,,,,,,,,,,,,,,,,,,,,,,,,,,,,,,,,,,,,,,,,,,,,,,,,,,,,,,,,,,,,,,,,,,,,,,,,,,,
1702631089,1702631089,96,0,4286.538574,4315.769043,4210.512695,4142.563965,4262.436035,4244.358887,4262.05127,4295.512695,4276.153809,3982.179443,4453.077148,4382.307617,5044.230957,4452.05127,6811,4,80,,,,0,4,4,4,4,4,4,4,4,4,4,4,4,4,4,100,,,,,,,,,,,,,,,,,24,0,0.204549,-0.684204,-0.002686,-0.700012,0.963985,-0.221707,0.035161,-12.111036,-6.676485,91.449768,,,,,,,,,,,,,,,,,,,,,,,,,,,,,,,,,,,,,,,,,,,,,,,,,,,,,,,,,,,,,,,,,,,,,,,,,,,,,,,,,,,,,,,,,,,,,,,,,,,,,,,,,,
1702631089,1702631089,97,0,4266.538574,4306.922852,4198.589844,4124.230957,4246.666504,4235.128418,4249.615234,4278.205078,4257.692383,3973.076904,4429.743652,4365.897461,5032.307617,4432.563965,4645,4,80,,,,0,4,4,4,4,4,4,4,4,4,4,4,4,4,4,100,,,,,,,,,,,,,,,,,,,,,,,,,,,,,,,,,,,,,,,,,,,,,,,,,,,,,,,,,,,,,,,,,,,,,,,,,,,,,,,,,,,,,,,,,,,,,,,,,,,,,,,,,,,,,,,,,,,,,,,,,,,,,,,,,,,,,,
1702631089,1702631089,98,0,4247.436035,4289.230957,4193.205078,4115.384766,4233.461426,4227.563965,4244.358887,4268.974121,4245.256348,3972.435791,4406.538574,4360.384766,5023.461426,4414.487305,6093,4,80,,,,0,4,4,4,4,4,4,4,4,4,4,4,4,4,4,100,,,,,,,,,,,,,,,,,,,,,,,,,,,,,,,,,,,,,,,,,,,,,,,,,,,,,,,,,,,,,,,,,,,,,,,,,,,,,,,,,,,,,,,,,,,,,,,,,,,,,,,,,,,,,,,,,,,,,,,,,,,,,,,,,,,,,,
1702631089,1702631089,99,0,4262.692383,4281.922852,4201.666504,4145.384766,4246.153809,4234.871582,4256.794922,4278.461426,4258.589844,3991.025635,4422.05127,4375.512695,5047.563965,4432.307617,6252,4,80,,,,0,4,4,4,4,4,4,4,4,4,4,4,4,4,4,100,,,,,,,,,,,,,,,,,,,,,,,,,,,,,,,,,,,,,,,,,,,,,,,,,,,,,,,,,,,,,,,,,,,,,,,,,,,,,,,,,,,,,,,,,,,,,,,,,,,,,,,,,,,,,,,,,,,,,,,,,,,,,,,,,,,,,,
1702631089,1702631089,100,0,4275,4298.589844,4199.615234,4162.436035,4253.333496,4236.538574,4259.487305,4282.563965,4265.641113,3996.153809,4432.179688,4378.461426,5071.410156,4444.615234,6811,4,80,,,,0,4,4,4,4,4,4,4,4,4,4,4,4,4,4,100,,,,,,,,,,,,,,,,,25,0,0.204339,-0.684204,-0.002808,-0.700073,0.956171,-0.246612,0.027835,-12.033266,-6.74217,91.421455,,,,,,,,,,,,,,,,,,,,,,,,,,,,,,,,,,,,,,,,,,,,,,,,,,,,,,,,,,,,,,,,,,,,,,,,,,,,,,,,,,,,,,,,,,,,,,,,,,,,,,,,,,
1702631089,1702631089,101,0,4266.410156,4331.025879,4199.615234,4143.077148,4243.589844,4232.307617,4251.538574,4275.769043,4254.230957,3982.94873,4425.897461,4364.615234,5074.615234,4428.717773,4645,4,80,,,,0,4,4,4,4,4,4,4,4,4,4,4,4,4,4,100,,,,,,,,,,,,,,,,,,,,,,,,,,,,,,,,,,,,,,,,,,,,,,,,,,,,,,,,,,,,,,,,,30.405844,3.996304,1.74995,0.569584,0.861591,24.313793,4.223427,4.647982,1.544136,5.669571,2.461542,0.558803,1.319417,0.44447,0.406327,40.080456,5.655081,2.676291,1.109446,4.780605,3.559677,0.842087,0.705166,0.539822,1.004606,2.866564,0.550145,0.577004,0.292245,0.745206,1.239467,0.538727,0.525979,0.304385,0.633969,3.380127,1.019435,1.050297,0.529397,0.995827,17.376659,2.704259,1.687588,1.000784,1.489919,850.531982,166.205124,52.127193,21.645805,8.28621,23.261314,3.681095,2.293324,1.292245,1.622215,63.383492,15.430604,5.473337,2.437344,1.276037,1930.58374,237.310867,91.611176,31.130966,7.87467,64.39682,28.139324,10.256355,2.761603,1.68574
1702631089,1702631089,102,0,4275.769043,4343.077148,4216.666504,4153.846191,4251.025879,4241.922852,4257.692383,4283.333496,4261.282227,3988.846191,4436.538574,4369.358887,5095.897461,4436.794922,6093,4,80,,,,0,4,4,4,4,4,4,4,4,4,4,4,4,4,4,100,,,,,,,,,,,,,,,,,,,,,,,,,,,,,,,,,,,,,,,,,,,,,,,,,,,,,,,,,,,,,,,,,,,,,,,,,,,,,,,,,,,,,,,,,,,,,,,,,,,,,,,,,,,,,,,,,,,,,,,,,,,,,,,,,,,,,,
1702631089,1702631089,103,0,4295.384766,4332.94873,4226.410156,4198.333496,4269.102539,4252.179688,4265.769043,4297.05127,4282.05127,4008.589844,4452.820313,4385.256348,5132.820313,4460.769043,6252,4,80,,,,0,4,4,4,4,4,4,4,4,4,4,4,4,4,4,100,,,,,,,,,,,,,,,,,,,,,,,,,,,,,,,,,,,,,,,,,,,,,,,,,,,,,,,,,,,,,,,,,,,,,,,,,,,,,,,,,,,,,,,,,,,,,,,,,,,,,,,,,,,,,,,,,,,,,,,,,,,,,,,,,,,,,,
1702631089,1702631089,104,0,4301.666504,4338.974121,4227.179688,4220.641113,4276.282227,4258.846191,4266.922852,4303.717773,4291.025879,4020.256348,4463.589844,4390.512695,5152.692383,4463.077148,6811,4,80,,,,0,4,4,4,4,4,4,4,4,4,4,4,4,4,4,100,,,,,,,,,,,,,,,,,26,0,0.204129,-0.684204,-0.002869,-0.700134,0.975705,-0.246612,0.027347,-11.946606,-6.651286,91.445976,,,,,,,,,,,,,,,,,,,,,,,,,,,,,,,,,,,,,,,,,,,,,,,,,,,,,,,,,,,,,,,,,,,,,,,,,,,,,,,,,,,,,,,,,,,,,,,,,,,,,,,,,,
1702631089,1702631089,105,0,4307.436035,4359.358887,4232.05127,4218.974121,4281.922852,4265.641113,4275.128418,4313.461426,4299.743652,4025,4480.512695,4393.846191,5154.487305,4461.794922,4645,4,80,,,,0,4,4,4,4,4,4,4,4,4,4,4,4,4,4,100,,,,,,,,,,,,,,,,,,,,,,,,,,,,,,,,,,,,,,,,,,,,,,,,,,,,,,,,,,,,,,,,,,,,,,,,,,,,,,,,,,,,,,,,,,,,,,,,,,,,,,,,,,,,,,,,,,,,,,,,,,,,,,,,,,,,,,
1702631089,1702631089,106,0,4306.153809,4360.769043,4226.282227,4208.077148,4281.025879,4258.717773,4276.794922,4313.205078,4295.512695,4019.358887,4475,4393.461426,5153.974121,4459.871582,6093,4,80,,,,0,4,4,4,4,4,4,4,4,4,4,4,4,4,4,100,,,,,,,,,,,,,,,,,,,,,,,,,,,,,,,,,,,,,,,,,,,,,,,,,,,,,,,,,,,,,,,,,,,,,,,,,,,,,,,,,,,,,,,,,,,,,,,,,,,,,,,,,,,,,,,,,,,,,,,,,,,,,,,,,,,,,,
1702631089,1702631089,107,0,4304.615234,4351.538574,4221.794922,4209.615234,4280.384766,4252.563965,4272.820313,4306.410156,4285.512695,4018.718018,4460,4392.179688,5175.512695,4457.05127,6252,4,80,,,,0,4,4,4,4,4,4,4,4,4,4,4,4,4,4,100,,,,,,,,,,,,,,,,,,,,,,,,,,,,,,,,,,,,,,,,,,,,,,,,,,,,,,,,,,,,,,,,,,,,,,,,,,,,,,,,,,,,,,,,,,,,,,,,,,,,,,,,,,,,,,,,,,,,,,,,,,,,,,,,,,,,,,
1702631089,1702631089,108,0,4315.769043,4349.615234,4228.846191,4224.230957,4295.128418,4264.487305,4281.410156,4313.717773,4293.717773,4023.333252,4469.230957,4396.922852,5213.333496,4460.769043,6811,4,80,,,,0,4,4,4,4,4,4,4,4,4,4,4,4,4,4,100,,,,,,,,,,,,,,,,,27,0,0.204125,-0.684204,-0.003113,-0.700134,0.96838,-0.236357,0.014162,-11.951945,-6.619491,91.234711,,,,,,,,,,,,,,,,,,,,,,,,,,,,,,,,,,,,,,,,,,,,,,,,,,,,,,,,,,,,,,,,,,,,,,,,,,,,,,,,,,,,,,,,,,,,,,,,,,,,,,,,,,
1702631089,1702631089,109,0,4307.05127,4350.769043,4221.410156,4201.153809,4298.205078,4265.256348,4278.846191,4310.512695,4288.077148,4008.461426,4463.461426,4387.563965,5222.179688,4445.512695,4645,4,80,,,,0,4,4,4,4,4,4,4,4,4,4,4,4,4,4,100,,,,,,,,,,,,,,,,,,,,,,,,,,,,,,,,,,,,,,,,,,,,,,,,,,,,,,,,,,,,,,,,,,,,,,,,,,,,,,,,,,,,,,,,,,,,,,,,,,,,,,,,,,,,,,,,,,,,,,,,,,,,,,,,,,,,,,
1702631089,1702631089,110,0,4288.333496,4357.436035,4209.102539,4161.666504,4283.333496,4248.589844,4268.589844,4295.512695,4265.512695,3987.692383,4441.153809,4373.717773,5218.461426,4422.692383,6093,4,80,,,,0,4,4,4,4,4,4,4,4,4,4,4,4,4,4,100,,,,,,,,,,,,,,,,,,,,,,,,,,,,,,,,,,,,,,,,,,,,,,,,,,,,,,,,,,,,,,,,,,,,,,,,,,,,,,,,,,,,,,,,,,,,,,,,,,,,,,,,,,,,,,,,,,,,,,,,,,,,,,,,,,,,,,
1702631089,1702631089,111,0,4296.538574,4361.794922,4217.05127,4172.94873,4281.794922,4246.666504,4272.94873,4304.102539,4273.205078,3988.076904,4445.512695,4382.179688,5239.615234,4430.256348,6252,4,80,,,,0,4,4,4,4,4,4,4,4,4,4,4,4,4,4,100,,,,,,,,,,,,,,,,,,,,,,,,,,,,,,,,,,,,,,,,,,,,,,,,,,,,,,,,,,,,,,,,,,,,,,,,,,,,,,,,,,,,,,,,,,,,,,,,,,,,,,,,,,,,,,,,,,,,,,,,,,,,,,,,,,,,,,
1702631089,1702631089,112,0,4299.871582,4340.641113,4218.974121,4194.487305,4284.102539,4250.769043,4276.153809,4312.563965,4287.436035,3987.05127,4446.666504,4387.692383,5242.436035,4432.820313,6811,4,80,,,,0,4,4,4,4,4,4,4,4,4,4,4,4,4,4,100,,,,,,,,,,,,,,,,,28,0,0.203725,-0.684509,-0.003418,-0.699951,0.960078,-0.2471,0.021975,-11.940084,-6.574208,91.227905,,,,,,,,,,,,,,,,,,,,,,,,,,,,,,,,,,,,,,,,,,,,,,,,,,,,,,,,,,,,,,,,,,,,,,,,,,,,,,,,,,,,,,,,,,,,,,,,,,,,,,,,,,
1702631089,1702631089,113,0,4279.615234,4325.897461,4207.563965,4175,4272.05127,4238.461426,4269.487305,4294.871582,4266.282227,3972.564209,4423.589844,4373.974121,5225.769043,4411.410156,4645,4,80,,,,0,4,4,4,4,4,4,4,4,4,4,4,4,4,4,100,,,,,,,,,,,,,,,,,,,,,,,,,,,,,,,,,,,,,,,,,,,,,,,,,,,,,,,,,,,,,,,,,,,,,,,,,,,,,,,,,,,,,,,,,,,,,,,,,,,,,,,,,,,,,,,,,,,,,,,,,,,,,,,,,,,,,,
1702631089,1702631089,114,0,4283.589844,4351.282227,4217.692383,4162.179688,4270.256348,4231.922852,4273.589844,4291.153809,4254.358887,3974.102539,4426.282227,4371.666504,5253.589844,4414.743652,6093,4,80,,,,0,4,4,4,4,4,4,4,4,4,4,4,4,4,4,100,,,,,,,,,,,,,,,,,,,,,,,,,,,,,,,,,,,,,,,,,,,,,,,,,,,,,,,,,,,,,,,,,,,,,,,,,,,,,,,,,,,,,,,,,,,,,,,,,,,,,,,,,,,,,,,,,,,,,,,,,,,,,,,,,,,,,,
1702631089,1702631089,115,0,4305.641113,4363.461426,4240.769043,4183.333496,4279.615234,4241.922852,4279.871582,4307.436035,4270,3983.461426,4448.974121,4381.410156,5303.846191,4431.922852,6252,4,80,,,,0,4,4,4,4,4,4,4,4,4,4,4,4,4,4,100,,,,,,,,,,,,,,,,,,,,,,,,,,,,,,,,,,,,,,,,,,,,,,,,,,,,,,,,,,,,,,,,,,,,,,,,,,,,,,,,,,,,,,,,,,,,,,,,,,,,,,,,,,,,,,,,,,,,,,,,,,,,,,,,,,,,,,
1702631089,1702631089,116,0,4304.230957,4343.974121,4243.846191,4200,4279.102539,4242.563965,4270.256348,4303.974121,4272.563965,3979.487061,4448.461426,4377.05127,5319.615234,4423.077148,6811,4,80,,,,0,4,4,4,4,4,4,4,4,4,4,4,4,4,4,100,,,,,,,,,,,,,,,,,29,0,0.203514,-0.684509,-0.003479,-0.700012,0.95373,-0.234892,0.02637,-11.912743,-6.466787,91.321785,,,,,,,,,,,,,,,,,,,,,,,,,,,,,,,,,,,,,,,,,,,,,,,,,,,,,,,,,,,,,,,,,,,,,,,,,,,,,,,,,,,,,,,,,,,,,,,,,,,,,,,,,,
1702631089,1702631089,117,0,4294.615234,4340,4234.230957,4202.563965,4276.025879,4232.692383,4263.974121,4293.205078,4263.589844,3973.076904,4438.974121,4365.128418,5325,4408.205078,4645,4,80,,,,0,4,4,4,4,4,4,4,4,4,4,4,4,4,4,100,,,,,,,,,,,,,,,,,,,,,,,,,,,,,,,,,,,,,,,,,,,,,,,,,,,,,,,,,,,,,,,,,37.236683,5.038617,1.604312,0.429764,0.832022,28.791075,4.417059,4.30051,1.669538,5.081826,2.951106,0.675771,1.029442,0.433082,0.411946,50.954468,6.799564,2.513127,0.854005,4.61408,4.106226,0.852866,0.689603,0.39663,0.993844,3.044291,0.46153,0.564536,0.214994,0.768561,1.167334,0.49382,0.480845,0.227679,0.639627,2.753315,1.04122,0.910049,0.461763,1.013764,19.198057,3.087545,1.574501,0.935728,1.478241,1150.290771,227.687744,71.420586,28.80481,11.066486,21.065891,3.832789,2.196787,1.083147,1.597475,85.093575,20.884056,7.208756,3.033682,1.482651,2536.008545,313.685486,123.68174,42.135025,10.12229,81.238564,37.720524,12.896128,3.21751,1.917496
1702631089,1702631089,118,0,4288.205078,4348.205078,4232.307617,4201.153809,4271.025879,4230.769043,4264.358887,4294.615234,4256.282227,3965.769287,4436.410156,4357.307617,5330.897461,4404.871582,6093,4,80,,,,0,4,4,4,4,4,4,4,4,4,4,4,4,4,4,100,,,,,,,,,,,,,,,,,,,,,,,,,,,,,,,,,,,,,,,,,,,,,,,,,,,,,,,,,,,,,,,,,,,,,,,,,,,,,,,,,,,,,,,,,,,,,,,,,,,,,,,,,,,,,,,,,,,,,,,,,,,,,,,,,,,,,,
1702631089,1702631089,119,0,4277.692383,4343.974121,4235.769043,4197.94873,4260.128418,4231.410156,4256.666504,4286.282227,4245.128418,3959.871826,4430.384766,4350.769043,5313.589844,4396.282227,6252,4,80,,,,0,4,4,4,4,4,4,4,4,4,4,4,4,4,4,100,,,,,,,,,,,,,,,,,,,,,,,,,,,,,,,,,,,,,,,,,,,,,,,,,,,,,,,,,,,,,,,,,,,,,,,,,,,,,,,,,,,,,,,,,,,,,,,,,,,,,,,,,,,,,,,,,,,,,,,,,,,,,,,,,,,,,,
1702631089,1702631089,120,0,4283.717773,4340,4239.743652,4216.922852,4265.512695,4230.128418,4256.153809,4281.922852,4247.820313,3974.487061,4434.871582,4352.436035,5316.153809,4400.897461,6811,4,80,,,,0,4,4,4,4,4,4,4,4,4,4,4,4,4,4,100,,,,,,,,,,,,,,,,,30,0,0.203314,-0.684631,-0.003418,-0.699951,0.978147,-0.251007,0.022952,-11.971468,-6.653442,91.289604,,,,,,,,,,,,,,,,,,,,,,,,,,,,,,,,,,,,,,,,,,,,,,,,,,,,,,,,,,,,,,,,,,,,,,,,,,,,,,,,,,,,,,,,,,,,,,,,,,,,,,,,,,
1702631089,1702631089,121,0,4292.179688,4339.615234,4237.05127,4237.692383,4267.05127,4223.974121,4257.94873,4287.94873,4253.333496,3984.871826,4437.179688,4353.589844,5342.563965,4412.436035,4645,4,80,,,,0,4,4,4,4,4,4,4,4,4,4,4,4,4,4,100,,,,,,,,,,,,,,,,,,,,,,,,,,,,,,,,,,,,,,,,,,,,,,,,,,,,,,,,,,,,,,,,,,,,,,,,,,,,,,,,,,,,,,,,,,,,,,,,,,,,,,,,,,,,,,,,,,,,,,,,,,,,,,,,,,,,,,
1702631089,1702631089,122,0,4283.461426,4339.871582,4235.897461,4235.128418,4248.974121,4216.538574,4249.871582,4283.205078,4241.538574,3972.820557,4425,4343.333496,5351.282227,4403.717773,6093,4,80,,,,0,4,4,4,4,4,4,4,4,4,4,4,4,4,4,100,,,,,,,,,,,,,,,,,,,,,,,,,,,,,,,,,,,,,,,,,,,,,,,,,,,,,,,,,,,,,,,,,,,,,,,,,,,,,,,,,,,,,,,,,,,,,,,,,,,,,,,,,,,,,,,,,,,,,,,,,,,,,,,,,,,,,,
1702631089,1702631089,123,0,4278.846191,4344.743652,4242.692383,4240.641113,4247.436035,4217.94873,4247.436035,4277.05127,4240.897461,3968.333252,4431.025879,4337.692383,5351.025879,4394.871582,6252,4,80,,,,0,4,4,4,4,4,4,4,4,4,4,4,4,4,4,100,,,,,,,,,,,,,,,,,,,,,,,,,,,,,,,,,,,,,,,,,,,,,,,,,,,,,,,,,,,,,,,,,,,,,,,,,,,,,,,,,,,,,,,,,,,,,,,,,,,,,,,,,,,,,,,,,,,,,,,,,,,,,,,,,,,,,,
1702631089,1702631089,124,0,4273.717773,4346.282227,4242.179688,4248.077148,4252.05127,4215.641113,4247.94873,4281.666504,4249.358887,3965.384521,4442.820313,4336.282227,5362.05127,4393.461426,6811,4,80,,,,0,4,4,4,4,4,4,4,4,4,4,4,4,4,4,100,,,,,,,,,,,,,,,,,31,0,0.203325,-0.684753,-0.003296,-0.699829,0.962031,-0.243682,0.022952,-11.957655,-6.554765,91.310646,,,,,,,,,,,,,,,,,,,,,,,,,,,,,,,,,,,,,,,,,,,,,,,,,,,,,,,,,,,,,,,,,,,,,,,,,,,,,,,,,,,,,,,,,,,,,,,,,,,,,,,,,,
1702631089,1702631089,125,0,4258.205078,4344.871582,4239.230957,4233.974121,4236.025879,4206.666504,4238.461426,4279.615234,4238.205078,3951.666748,4428.333496,4323.974121,5377.307617,4383.461426,4645,4,80,,,,0,4,4,4,4,4,4,4,4,4,4,4,4,4,4,100,,,,,,,,,,,,,,,,,,,,,,,,,,,,,,,,,,,,,,,,,,,,,,,,,,,,,,,,,,,,,,,,,,,,,,,,,,,,,,,,,,,,,,,,,,,,,,,,,,,,,,,,,,,,,,,,,,,,,,,,,,,,,,,,,,,,,,
1702631089,1702631089,126,0,4262.307617,4345.897461,4241.922852,4239.615234,4235.256348,4211.282227,4238.846191,4273.461426,4228.717773,3953.205078,4422.179688,4315.128418,5399.230957,4378.717773,6093,4,80,,,,0,4,4,4,4,4,4,4,4,4,4,4,4,4,4,100,,,,,,,,,,,,,,,,,,,,,,,,,,,,,,,,,,,,,,,,,,,,,,,,,,,,,,,,,,,,,,,,,,,,,,,,,,,,,,,,,,,,,,,,,,,,,,,,,,,,,,,,,,,,,,,,,,,,,,,,,,,,,,,,,,,,,,
1702631089,1702631089,127,0,4272.179688,4341.410156,4237.05127,4271.025879,4250.128418,4217.307617,4248.461426,4271.410156,4231.025879,3956.153809,4436.025879,4317.692383,5421.153809,4382.692383,80,4,80,,,,0,4,4,4,4,4,4,4,4,4,4,4,4,4,4,100,,,,,,,,,,,,,,,,,,,,,,,,,,,,,,,,,,,,,,,,,,,,,,,,,,,,,,,,,,,,,,,,,,,,,,,,,,,,,,,,,,,,,,,,,,,,,,,,,,,,,,,,,,,,,,,,,,,,,,,,,,,,,,,,,,,,,,
1702631089,1702631089,0,0,4263.461426,4341.153809,4235.769043,4280,4247.307617,4212.179688,4245.384766,4266.153809,4224.871582,3951.666748,4437.692383,4319.615234,5426.282227,4382.307617,4769,4,80,,,,0,4,4,4,4,4,4,4,4,4,4,4,4,4,4,100,,,,,,,,,,,,,,,,,0,0,0.202918,-0.684937,-0.003296,-0.699768,0.966427,-0.240752,0.00879,-11.795222,-6.615955,91.562912,,,,,,,,,,,,,,,,,,,,,,,,,,,,,,,,,,,,,,,,,,,,,,,,,,,,,,,,,,,,,,,,,,,,,,,,,,,,,,,,,,,,,,,,,,,,,,,,,,,,,,,,,,
1702631089,1702631089,1,0,4256.025879,4348.205078,4246.410156,4274.615234,4241.282227,4210,4239.358887,4258.077148,4210.641113,3956.281982,4427.436035,4315.384766,5425,4382.05127,5644,4,80,,,,0,4,4,4,4,4,4,4,4,4,4,4,4,4,4,100,,,,,,,,,,,,,,,,,,,,,,,,,,,,,,,,,,,,,,,,,,,,,,,,,,,,,,,,,,,,,,,,,,,,,,,,,,,,,,,,,,,,,,,,,,,,,,,,,,,,,,,,,,,,,,,,,,,,,,,,,,,,,,,,,,,,,,
1702631089,1702631089,2,0,4257.307617,4340.384766,4248.846191,4284.102539,4248.205078,4216.922852,4244.871582,4263.974121,4214.358887,3961.538574,4427.94873,4315,5428.205078,4385.641113,5454,4,80,,,,0,4,4,4,4,4,4,4,4,4,4,4,4,4,4,100,,,,,,,,,,,,,,,,,,,,,,,,,,,,,,,,,,,,,,,,,,,,,,,,,,,,,,,,,,,,,,,,,,,,,,,,,,,,,,,,,,,,,,,,,,,,,,,,,,,,,,,,,,,,,,,,,,,,,,,,,,,,,,,,,,,,,,
1702631089,1702631089,3,0,4253.205078,4332.436035,4241.922852,4287.179688,4249.487305,4218.333496,4248.846191,4274.487305,4227.436035,3965.512939,4431.025879,4316.153809,5428.717773,4384.230957,5444,4,80,,,,0,4,4,4,4,4,4,4,4,4,4,4,4,4,4,100,,,,,,,,,,,,,,,,,,,,,,,,,,,,,,,,,,,,,,,,,,,,,,,,,,,,,,,,,,,,,,,,,,,,,,,,,,,,,,,,,,,,,,,,,,,,,,,,,,,,,,,,,,,,,,,,,,,,,,,,,,,,,,,,,,,,,,
1702631089,1702631089,4,0,4246.410156,4352.05127,4242.179688,4266.922852,4242.692383,4210.897461,4241.538574,4266.025879,4221.410156,3974.487061,4421.922852,4311.666504,5418.589844,4376.922852,5427,4,80,,,,0,4,4,4,4,4,4,4,4,4,4,4,4,4,4,100,,,,,,,,,,,,,,,,,1,0,0.202508,-0.68512,-0.003418,-0.699707,0.961543,-0.24124,0.018557,-11.599033,-6.671026,91.573288,,,,,,,,,,,,,,,,,,,,,,,,,,,,,,,,,,,,,,,,,,,,,,,,,,,,,,,,,,,,,,,,,,,,,,,,,,,,,,,,,,,,,,,,,,,,,,,,,,,,,,,,,,
1702631089,1702631089,5,0,4260,4364.358887,4256.153809,4279.102539,4255.641113,4220.128418,4249.358887,4265.384766,4220.769043,3994.102539,4431.153809,4322.436035,5421.538574,4390,5295,4,80,,,,0,4,4,4,4,4,4,4,4,4,4,4,4,4,4,100,,,,,,,,,,,,,,,,,,,,,,,,,,,,,,,,,,,,,,,,,,,,,,,,,,,,,,,,,,,,,,,,,39.45306,5.696262,1.450323,0.350521,0.784716,29.94058,4.31429,3.786229,1.868155,4.555866,3.239267,0.837265,0.80283,0.434562,0.400616,56.214363,7.517318,2.589879,0.763815,4.263456,4.343276,0.890942,0.695216,0.313512,0.956011,3.051506,0.377033,0.538665,0.17143,0.750728,1.140549,0.464363,0.451007,0.191767,0.611823,2.360599,1.075784,0.781838,0.430536,0.980973,20.218168,3.292055,1.441019,0.871554,1.396794,1353.039917,264.917908,83.247353,32.932812,12.743722,18.076277,4.053619,2.063727,0.931518,1.516039,100.951965,24.126427,8.232997,3.367951,1.589943,2903.275391,356.952789,142.213333,48.694664,11.400724,93.297844,43.29015,14.388164,3.465931,2.03019
1702631089,1702631089,6,0,4291.666504,4361.025879,4274.102539,4331.410156,4285.897461,4247.307617,4274.230957,4294.230957,4249.487305,4024.871826,4470.256348,4347.05127,5457.05127,4423.717773,3957,4,80,,,,0,4,4,4,4,4,4,4,4,4,4,4,4,4,4,100,,,,,,,,,,,,,,,,,,,,,,,,,,,,,,,,,,,,,,,,,,,,,,,,,,,,,,,,,,,,,,,,,,,,,,,,,,,,,,,,,,,,,,,,,,,,,,,,,,,,,,,,,,,,,,,,,,,,,,,,,,,,,,,,,,,,,,
1702631089,1702631089,7,0,4294.230957,4381.025879,4271.025879,4327.307617,4294.487305,4249.358887,4275.512695,4306.153809,4259.743652,4029.487061,4478.205078,4344.615234,5475.769043,4423.333496,4938,4,80,,,,0,4,4,4,4,4,4,4,4,4,4,4,4,4,4,100,,,,,,,,,,,,,,,,,,,,,,,,,,,,,,,,,,,,,,,,,,,,,,,,,,,,,,,,,,,,,,,,,,,,,,,,,,,,,,,,,,,,,,,,,,,,,,,,,,,,,,,,,,,,,,,,,,,,,,,,,,,,,,,,,,,,,,
1702631089,1702631089,8,0,4267.94873,4414.230957,4259.102539,4268.333496,4277.692383,4228.974121,4254.743652,4281.794922,4229.487305,3993.076904,4446.282227,4317.692383,5454.358887,4388.205078,5405,4,80,,,,0,4,4,4,4,4,4,4,4,4,4,4,4,4,4,100,,,,,,,,,,,,,,,,,2,0,0.202511,-0.685181,-0.003479,-0.699646,0.94494,-0.240752,0.020022,-11.53913,-6.687257,91.565964,,,,,,,,,,,,,,,,,,,,,,,,,,,,,,,,,,,,,,,,,,,,,,,,,,,,,,,,,,,,,,,,,,,,,,,,,,,,,,,,,,,,,,,,,,,,,,,,,,,,,,,,,,
1702631089,1702631089,9,0,4264.358887,4406.025879,4261.538574,4267.820313,4269.102539,4229.487305,4249.871582,4270.256348,4217.820313,3975.769287,4438.077148,4312.05127,5452.94873,4379.871582,5470,4,80,,,,0,4,4,4,4,4,4,4,4,4,4,4,4,4,4,100,,,,,,,,,,,,,,,,,,,,,,,,,,,,,,,,,,,,,,,,,,,,,,,,,,,,,,,,,,,,,,,,,,,,,,,,,,,,,,,,,,,,,,,,,,,,,,,,,,,,,,,,,,,,,,,,,,,,,,,,,,,,,,,,,,,,,,
1702631089,1702631089,10,0,4268.974121,4341.794922,4255,4304.487305,4270.256348,4238.077148,4260.769043,4287.05127,4234.615234,3989.871826,4448.846191,4320.769043,5471.666504,4387.05127,5948,4,80,,,,0,4,4,4,4,4,4,4,4,4,4,4,4,4,4,100,,,,,,,,,,,,,,,,,,,,,,,,,,,,,,,,,,,,,,,,,,,,,,,,,,,,,,,,,,,,,,,,,,,,,,,,,,,,,,,,,,,,,,,,,,,,,,,,,,,,,,,,,,,,,,,,,,,,,,,,,,,,,,,,,,,,,,
1702631089,1702631089,11,0,4256.794922,4320.641113,4243.974121,4290.641113,4266.666504,4233.717773,4263.974121,4295.512695,4237.436035,3993.974365,4442.820313,4318.077148,5468.974121,4378.461426,6264,4,80,,,,0,4,4,4,4,4,4,4,4,4,4,4,4,4,4,100,,,,,,,,,,,,,,,,,,,,,,,,,,,,,,,,,,,,,,,,,,,,,,,,,,,,,,,,,,,,,,,,,,,,,,,,,,,,,,,,,,,,,,,,,,,,,,,,,,,,,,,,,,,,,,,,,,,,,,,,,,,,,,,,,,,,,,
1702631089,1702631089,12,0,4263.205078,4385.641113,4259.102539,4268.717773,4265.384766,4234.743652,4256.410156,4287.307617,4230.512695,3991.410156,4442.563965,4316.282227,5471.922852,4385.897461,6815,4,80,,,,0,4,4,4,4,4,4,4,4,4,4,4,4,4,4,100,,,,,,,,,,,,,,,,,3,0,0.202305,-0.685303,-0.003723,-0.699585,0.959101,-0.225613,0.019534,-11.41855,-6.768531,91.576035,,,,,,,,,,,,,,,,,,,,,,,,,,,,,,,,,,,,,,,,,,,,,,,,,,,,,,,,,,,,,,,,,,,,,,,,,,,,,,,,,,,,,,,,,,,,,,,,,,,,,,,,,,
1702631089,1702631089,13,0,4269.230957,4405.897461,4267.436035,4287.692383,4259.743652,4231.410156,4247.563965,4271.410156,4217.179688,3980.256348,4436.666504,4307.94873,5478.974121,4387.563965,4676,4,80,,,,0,4,4,4,4,4,4,4,4,4,4,4,4,4,4,100,,,,,,,,,,,,,,,,,,,,,,,,,,,,,,,,,,,,,,,,,,,,,,,,,,,,,,,,,,,,,,,,,,,,,,,,,,,,,,,,,,,,,,,,,,,,,,,,,,,,,,,,,,,,,,,,,,,,,,,,,,,,,,,,,,,,,,
1702631089,1702631089,14,0,4248.846191,4371.666504,4254.358887,4302.05127,4253.974121,4219.358887,4242.563965,4260.641113,4200.512695,3958.205078,4408.846191,4292.05127,5456.410156,4360.769043,5948,4,80,,,,0,4,4,4,4,4,4,4,4,4,4,4,4,4,4,100,,,,,,,,,,,,,,,,,,,,,,,,,,,,,,,,,,,,,,,,,,,,,,,,,,,,,,,,,,,,,,,,,,,,,,,,,,,,,,,,,,,,,,,,,,,,,,,,,,,,,,,,,,,,,,,,,,,,,,,,,,,,,,,,,,,,,,
1702631089,1702631089,15,0,4238.717773,4384.102539,4256.410156,4300.512695,4256.538574,4219.102539,4236.282227,4258.205078,4194.487305,3946.281982,4392.563965,4289.615234,5427.563965,4351.794922,6264,4,80,,,,0,4,4,4,4,4,4,4,4,4,4,4,4,4,4,100,,,,,,,,,,,,,,,,,,,,,,,,,,,,,,,,,,,,,,,,,,,,,,,,,,,,,,,,,,,,,,,,,,,,,,,,,,,,,,,,,,,,,,,,,,,,,,,,,,,,,,,,,,,,,,,,,,,,,,,,,,,,,,,,,,,,,,
1702631089,1702631089,16,0,4252.692383,4386.538574,4267.05127,4327.94873,4260.641113,4231.410156,4236.410156,4262.563965,4200.384766,3951.923096,4404.102539,4302.436035,5423.846191,4367.692383,0,4,80,,,,0,4,4,4,4,4,4,4,4,4,4,4,4,4,4,100,,,,,,,,,,,,,,,,,4,0,0.201874,-0.685303,-0.00415,-0.699707,0.955683,-0.237334,0.00879,-11.576695,-6.741678,91.535095,,,,,,,,,,,,,,,,,,,,,,,,,,,,,,,,,,,,,,,,,,,,,,,,,,,,,,,,,,,,,,,,,,,,,,,,,,,,,,,,,,,,,,,,,,,,,,,,,,,,,,,,,,
1702631089,1702631089,17,0,4253.077148,4366.025879,4257.692383,4344.102539,4259.487305,4232.436035,4244.743652,4262.820313,4200,3956.794922,4407.94873,4304.358887,5424.230957,4366.538574,0,4,80,,,,0,4,4,4,4,4,4,4,4,4,4,4,4,4,4,100,,,,,,,,,,,,,,,,,,,,,,,,,,,,,,,,,,,,,,,,,,,,,,,,,,,,,,,,,,,,,,,,,,,,,,,,,,,,,,,,,,,,,,,,,,,,,,,,,,,,,,,,,,,,,,,,,,,,,,,,,,,,,,,,,,,,,,
1702631089,1702631089,18,0,4228.333496,4400.897461,4244.743652,4298.461426,4246.282227,4217.436035,4235.897461,4245.897461,4179.615234,3940,4380.128418,4285,5400.641113,4341.794922,0,4,80,,,,0,4,4,4,4,4,4,4,4,4,4,4,4,4,4,100,,,,,,,,,,,,,,,,,,,,,,,,,,,,,,,,,,,,,,,,,,,,,,,,,,,,,,,,,,,,,,,,,,,,,,,,,,,,,,,,,,,,,,,,,,,,,,,,,,,,,,,,,,,,,,,,,,,,,,,,,,,,,,,,,,,,,,
1702631089,1702631089,19,0,4217.05127,4416.410156,4251.794922,4284.871582,4242.307617,4217.307617,4229.487305,4236.410156,4169.230957,3933.461426,4367.05127,4280.769043,5387.94873,4330.512695,0,4,80,,,,0,4,4,4,4,4,4,4,4,4,4,4,4,4,4,100,,,,,,,,,,,,,,,,,,,,,,,,,,,,,,,,,,,,,,,,,,,,,,,,,,,,,,,,,,,,,,,,,,,,,,,,,,,,,,,,,,,,,,,,,,,,,,,,,,,,,,,,,,,,,,,,,,,,,,,,,,,,,,,,,,,,,,
1702631089,1702631089,20,0,4230.256348,4377.563965,4263.333496,4326.410156,4253.205078,4232.436035,4243.717773,4250.256348,4185,3955.769287,4390.512695,4298.461426,5414.102539,4342.820313,0,4,80,,,,0,4,4,4,4,4,4,4,4,4,4,4,4,4,4,100,,,,,,,,,,,,,,,,,5,0,0.201652,-0.685181,-0.004211,-0.69989,0.95959,-0.256379,0.014162,-11.635693,-6.71751,91.44825,,,,,,,,,,,,,,,,,,,,,,,,,,,,,,,,,,,,,,,,,,,,,,,,,,,,,,,,,,,,,,,,,,,,,,,,,,,,,,,,,,,,,,,,,,,,,,,,,,,,,,,,,,
1702631089,1702631089,21,0,4235.256348,4379.487305,4262.563965,4323.974121,4251.025879,4231.794922,4245.512695,4260,4192.563965,3965,4400.769043,4301.282227,5444.358887,4347.94873,0,4,80,,,,0,4,4,4,4,4,4,4,4,4,4,4,4,4,4,100,1,0,4,1,1,0,3,3,4,4,3,0,3,1,0,1,,,,,,,,,,,,,,,,,,,,,,,,,,,,,,,,,,,,,,,,,,,,,,,,,35.983196,5.75104,1.35974,0.32454,0.735432,27.212666,3.955481,3.140502,1.988211,4.055163,3.196406,1.032103,0.712736,0.436437,0.377545,55.403217,7.624531,2.817048,0.755891,3.785574,4.156714,0.92726,0.739701,0.282743,0.887078,2.779955,0.314718,0.511233,0.156854,0.690582,1.092792,0.448868,0.445423,0.191379,0.554554,2.12337,1.09868,0.739454,0.432659,0.906889,19.76178,3.18649,1.378363,0.802077,1.265346,1386.900757,264.642609,83.445702,32.488335,12.727752,14.5844,4.12062,1.976816,0.836954,1.408416,105.150696,24.008316,8.202102,3.299993,1.556693,2887.172852,352.03241,140.758133,48.5257,11.246421,96.604759,42.858124,14.2342,3.361834,1.988193
1702631089,1702631089,22,0,4227.179688,4379.102539,4261.282227,4311.282227,4248.846191,4227.436035,4240.128418,4252.307617,4183.461426,3956.923096,4393.077148,4293.589844,5465.897461,4343.205078,0,4,80,,,,0,4,4,4,4,4,4,4,4,4,4,4,4,4,4,100,,,,,,,,,,,,,,,,,,,,,,,,,,,,,,,,,,,,,,,,,,,,,,,,,,,,,,,,,,,,,,,,,,,,,,,,,,,,,,,,,,,,,,,,,,,,,,,,,,,,,,,,,,,,,,,,,,,,,,,,,,,,,,,,,,,,,,
1702631089,1702631089,23,0,4233.846191,4340.769043,4259.871582,4346.666504,4262.05127,4236.922852,4248.974121,4248.461426,4185.641113,3965.128174,4400.128418,4301.666504,5495.128418,4348.589844,0,4,80,,,,0,4,4,4,4,4,4,4,4,4,4,4,4,4,4,100,,,,,,,,,,,,,,,,,,,,,,,,,,,,,,,,,,,,,,,,,,,,,,,,,,,,,,,,,,,,,,,,,,,,,,,,,,,,,,,,,,,,,,,,,,,,,,,,,,,,,,,,,,,,,,,,,,,,,,,,,,,,,,,,,,,,,,
1702631089,1702631089,24,0,4237.820313,4350.641113,4255.641113,4340.128418,4254.102539,4235.256348,4246.410156,4249.358887,4187.05127,3970,4401.153809,4302.179688,5512.692383,4352.692383,0,4,80,,,,0,4,4,4,4,4,4,4,4,4,4,4,4,4,4,100,,,,,,,,,,,,,,,,,6,0,0.201437,-0.68512,-0.00415,-0.700012,0.940056,-0.237822,0.01758,-11.422123,-6.712426,91.520096,,,,,,,,,,,,,,,,,,,,,,,,,,,,,,,,,,,,,,,,,,,,,,,,,,,,,,,,,,,,,,,,,,,,,,,,,,,,,,,,,,,,,,,,,,,,,,,,,,,,,,,,,,
1702631089,1702631089,25,0,4212.692383,4380,4256.025879,4286.153809,4228.205078,4219.871582,4231.538574,4236.538574,4168.589844,3949.102539,4379.615234,4279.871582,5507.563965,4336.410156,0,4,80,,,,0,4,4,4,4,4,4,4,4,4,4,4,4,4,4,100,,,,,,,,,,,,,,,,,,,,,,,,,,,,,,,,,,,,,,,,,,,,,,,,,,,,,,,,,,,,,,,,,,,,,,,,,,,,,,,,,,,,,,,,,,,,,,,,,,,,,,,,,,,,,,,,,,,,,,,,,,,,,,,,,,,,,,
1702631089,1702631089,26,0,4201.666504,4360,4259.487305,4298.077148,4236.922852,4229.871582,4237.94873,4235.384766,4166.410156,3942.692383,4379.102539,4277.94873,5525,4333.589844,0,4,80,,,,0,4,4,4,4,4,4,4,4,4,4,4,4,4,4,100,,,,,,,,,,,,,,,,,,,,,,,,,,,,,,,,,,,,,,,,,,,,,,,,,,,,,,,,,,,,,,,,,,,,,,,,,,,,,,,,,,,,,,,,,,,,,,,,,,,,,,,,,,,,,,,,,,,,,,,,,,,,,,,,,,,,,,
1702631089,1702631089,27,0,4219.358887,4343.974121,4266.153809,4344.230957,4257.94873,4251.153809,4255.641113,4256.410156,4186.922852,3957.94873,4400.384766,4296.538574,5562.692383,4356.282227,0,4,80,,,,0,4,4,4,4,4,4,4,4,4,4,4,4,4,4,100,,,,,,,,,,,,,,,,,,,,,,,,,,,,,,,,,,,,,,,,,,,,,,,,,,,,,,,,,,,,,,,,,,,,,,,,,,,,,,,,,,,,,,,,,,,,,,,,,,,,,,,,,,,,,,,,,,,,,,,,,,,,,,,,,,,,,,
1702631089,1702631089,28,0,4219.487305,4369.871582,4274.230957,4325.769043,4242.563965,4241.922852,4247.307617,4259.487305,4192.692383,3954.358887,4395.128418,4291.410156,5568.717773,4359.615234,0,4,80,,,,0,4,4,4,4,4,4,4,4,4,4,4,4,4,4,100,,,,,,,,,,,,,,,,,7,0,0.201437,-0.68512,-0.00415,-0.700012,0.9508,-0.227078,0.021975,-11.529911,-6.674517,91.501419,,,,,,,,,,,,,,,,,,,,,,,,,,,,,,,,,,,,,,,,,,,,,,,,,,,,,,,,,,,,,,,,,,,,,,,,,,,,,,,,,,,,,,,,,,,,,,,,,,,,,,,,,,
1702631089,1702631089,29,0,4205.256348,4374.743652,4273.077148,4292.94873,4227.05127,4228.205078,4232.179688,4245.897461,4183.205078,3943.333252,4381.538574,4278.974121,5561.410156,4350.256348,0,4,80,,,,0,4,4,4,4,4,4,4,4,4,4,4,4,4,4,100,,,,,,,,,,,,,,,,,,,,,,,,,,,,,,,,,,,,,,,,,,,,,,,,,,,,,,,,,,,,,,,,,,,,,,,,,,,,,,,,,,,,,,,,,,,,,,,,,,,,,,,,,,,,,,,,,,,,,,,,,,,,,,,,,,,,,,
1702631089,1702631089,30,0,4212.179688,4351.410156,4270.128418,4299.871582,4240,4238.974121,4238.077148,4248.717773,4183.077148,3959.615479,4391.410156,4287.307617,5572.692383,4359.230957,0,4,80,,,,0,4,4,4,4,4,4,4,4,4,4,4,4,4,4,100,,,,,,,,,,,,,,,,,,,,,,,,,,,,,,,,,,,,,,,,,,,,,,,,,,,,,,,,,,,,,,,,,,,,,,,,,,,,,,,,,,,,,,,,,,,,,,,,,,,,,,,,,,,,,,,,,,,,,,,,,,,,,,,,,,,,,,
1702631089,1702631089,31,0,4221.025879,4366.153809,4283.589844,4300.641113,4245.641113,4242.692383,4242.94873,4251.025879,4185.128418,3973.205078,4394.615234,4294.102539,5575.512695,4366.538574,0,4,80,,,,0,4,4,4,4,4,4,4,4,4,4,4,4,4,4,100,,,,,,,,,,,,,,,,,,,,,,,,,,,,,,,,,,,,,,,,,,,,,,,,,,,,,,,,,,,,,,,,,,,,,,,,,,,,,,,,,,,,,,,,,,,,,,,,,,,,,,,,,,,,,,,,,,,,,,,,,,,,,,,,,,,,,,
1702631089,1702631089,32,0,4218.717773,4393.974121,4300.256348,4283.205078,4241.282227,4236.410156,4234.358887,4245.512695,4183.589844,3963.076904,4386.922852,4290.128418,5566.538574,4365.769043,0,4,80,,,,0,4,4,4,4,4,4,4,4,4,4,4,4,4,4,100,,,,,,,,,,,,,,,,,8,0,0.201226,-0.68512,-0.004089,-0.700073,0.957148,-0.243682,0.027835,-11.510253,-6.657065,91.467941,,,,,,,,,,,,,,,,,,,,,,,,,,,,,,,,,,,,,,,,,,,,,,,,,,,,,,,,,,,,,,,,,,,,,,,,,,,,,,,,,,,,,,,,,,,,,,,,,,,,,,,,,,
1702631089,1702631089,33,0,4222.94873,4383.205078,4295.128418,4281.666504,4242.05127,4237.563965,4229.230957,4243.717773,4180,3965.641113,4388.974121,4287.179688,5572.179688,4369.743652,0,4,80,,,,0,4,4,4,4,4,4,4,4,4,4,4,4,4,4,100,,,,,,,,,,,,,,,,,,,,,,,,,,,,,,,,,,,,,,,,,,,,,,,,,,,,,,,,,,,,,,,,,,,,,,,,,,,,,,,,,,,,,,,,,,,,,,,,,,,,,,,,,,,,,,,,,,,,,,,,,,,,,,,,,,,,,,
1702631089,1702631089,34,0,4235,4379.102539,4291.538574,4296.153809,4246.666504,4243.077148,4237.307617,4247.563965,4180.384766,3985.769287,4398.846191,4293.077148,5584.743652,4381.153809,0,4,80,,,,0,4,4,4,4,4,4,4,4,4,4,4,4,4,4,100,,,,,,,,,,,,,,,,,,,,,,,,,,,,,,,,,,,,,,,,,,,,,,,,,,,,,,,,,,,,,,,,,,,,,,,,,,,,,,,,,,,,,,,,,,,,,,,,,,,,,,,,,,,,,,,,,,,,,,,,,,,,,,,,,,,,,,
1702631089,1702631089,35,0,4251.153809,4410.769043,4312.563965,4312.05127,4263.589844,4256.410156,4250.769043,4262.820313,4198.333496,3999.615479,4416.025879,4306.666504,5595.769043,4399.358887,0,4,80,,,,0,4,4,4,4,4,4,4,4,4,4,4,4,4,4,100,,,,,,,,,,,,,,,,,,,,,,,,,,,,,,,,,,,,,,,,,,,,,,,,,,,,,,,,,,,,,,,,,,,,,,,,,,,,,,,,,,,,,,,,,,,,,,,,,,,,,,,,,,,,,,,,,,,,,,,,,,,,,,,,,,,,,,
1702631089,1702631089,36,0,4261.794922,4408.974121,4326.282227,4332.179688,4280.256348,4270,4259.743652,4274.487305,4215.512695,4012.179443,4433.461426,4312.692383,5611.025879,4415.897461,0,4,80,,,,0,4,4,4,4,4,4,4,4,4,4,4,4,4,4,100,,,,,,,,,,,,,,,,,9,0,0.200803,-0.685181,-0.004211,-0.700134,0.953241,-0.236357,0.022952,-11.709228,-6.641358,91.387817,,,,,,,,,,,,,,,,,,,,,,,,,,,,,,,,,,,,,,,,,,,,,,,,,,,,,,,,,,,,,,,,,,,,,,,,,,,,,,,,,,,,,,,,,,,,,,,,,,,,,,,,,,
1702631089,1702631089,37,0,4262.05127,4393.974121,4318.333496,4341.410156,4275,4269.615234,4260.128418,4272.307617,4214.487305,4019.487061,4432.563965,4308.974121,5613.717773,4421.282227,0,4,80,,,,0,4,4,4,4,4,4,4,4,4,4,4,4,4,4,100,,,,,,,,,,,,,,,,,,,,,,,,,,,,,,,,,,,,,,,,,,,,,,,,,,,,,,,,,,,,,,,,,28.226343,5.222016,1.368278,0.338875,0.699219,22.023916,3.424697,2.482016,1.940176,3.544876,2.857665,1.22921,0.790394,0.426979,0.353303,48.260429,7.223467,3.017743,0.781548,3.273867,3.647457,0.961126,0.825382,0.287274,0.798568,2.319513,0.296676,0.491699,0.16087,0.603554,1.023241,0.442674,0.459811,0.211509,0.482969,1.911726,1.122234,0.820733,0.451626,0.815131,17.351267,2.787849,1.450372,0.721052,1.118007,1240.152588,226.758347,72.014648,27.583904,11.021441,10.956339,3.947629,2.007553,0.777645,1.309639,96.50341,20.536652,7.1428,2.836355,1.39117,2507.219238,300.941254,119.902313,41.795853,9.702254,88.610062,36.502041,12.518098,2.898915,1.806206
1702631089,1702631089,38,0,4267.436035,4416.922852,4317.94873,4340.256348,4268.589844,4269.615234,4257.05127,4272.94873,4211.410156,4023.333252,4426.794922,4310.256348,5607.307617,4423.333496,0,4,80,,,,0,4,4,4,4,4,4,4,4,4,4,4,4,4,4,100,,,,,,,,,,,,,,,,,,,,,,,,,,,,,,,,,,,,,,,,,,,,,,,,,,,,,,,,,,,,,,,,,,,,,,,,,,,,,,,,,,,,,,,,,,,,,,,,,,,,,,,,,,,,,,,,,,,,,,,,,,,,,,,,,,,,,,
1702631089,1702631089,39,0,4278.461426,4424.487305,4330.641113,4345.769043,4285,4282.05127,4261.794922,4283.333496,4222.94873,4039.358887,4433.077148,4318.077148,5613.333496,4429.487305,0,4,80,,,,0,4,4,4,4,4,4,4,4,4,4,4,4,4,4,100,,,,,,,,,,,,,,,,,,,,,,,,,,,,,,,,,,,,,,,,,,,,,,,,,,,,,,,,,,,,,,,,,,,,,,,,,,,,,,,,,,,,,,,,,,,,,,,,,,,,,,,,,,,,,,,,,,,,,,,,,,,,,,,,,,,,,,
1702631089,1702631089,40,0,4288.846191,4425.641113,4348.333496,4357.692383,4304.615234,4291.922852,4274.743652,4294.487305,4239.615234,4057.692383,4447.692383,4328.333496,5627.94873,4437.436035,0,4,80,,,,0,4,4,4,4,4,4,4,4,4,4,4,4,4,4,100,,,,,,,,,,,,,,,,,10,0,0.2008,-0.685181,-0.004333,-0.700134,0.961543,-0.24124,0.023929,-11.554972,-6.660556,91.3657,,,,,,,,,,,,,,,,,,,,,,,,,,,,,,,,,,,,,,,,,,,,,,,,,,,,,,,,,,,,,,,,,,,,,,,,,,,,,,,,,,,,,,,,,,,,,,,,,,,,,,,,,,
1702631089,1702631089,41,0,4297.179688,4438.846191,4363.974121,4378.333496,4307.94873,4298.846191,4283.461426,4305.128418,4245.769043,4064.871826,4461.922852,4339.615234,5636.410156,4451.153809,0,4,80,,,,0,4,4,4,4,4,4,4,4,4,4,4,4,4,4,100,,,,,,,,,,,,,,,,,,,,,,,,,,,,,,,,,,,,,,,,,,,,,,,,,,,,,,,,,,,,,,,,,,,,,,,,,,,,,,,,,,,,,,,,,,,,,,,,,,,,,,,,,,,,,,,,,,,,,,,,,,,,,,,,,,,,,,
1702631089,1702631089,42,0,4290.128418,4437.94873,4354.871582,4374.871582,4298.717773,4293.846191,4271.666504,4300.641113,4237.307617,4063.589844,4456.538574,4335.128418,5624.487305,4451.666504,0,4,80,,,,0,4,4,4,4,4,4,4,4,4,4,4,4,4,4,100,,,,,,,,,,,,,,,,,,,,,,,,,,,,,,,,,,,,,,,,,,,,,,,,,,,,,,,,,,,,,,,,,,,,,,,,,,,,,,,,,,,,,,,,,,,,,,,,,,,,,,,,,,,,,,,,,,,,,,,,,,,,,,,,,,,,,,
1702631089,1702631089,43,0,4270.769043,4436.282227,4336.666504,4348.717773,4287.692383,4280,4256.666504,4278.846191,4220.256348,4056.538574,4431.922852,4318.717773,5591.025879,4430.512695,0,4,80,,,,0,4,4,4,4,4,4,4,4,4,4,4,4,4,4,100,,,,,,,,,,,,,,,,,,,,,,,,,,,,,,,,,,,,,,,,,,,,,,,,,,,,,,,,,,,,,,,,,,,,,,,,,,,,,,,,,,,,,,,,,,,,,,,,,,,,,,,,,,,,,,,,,,,,,,,,,,,,,,,,,,,,,,
1702631089,1702631089,44,0,4279.871582,4423.974121,4352.05127,4382.436035,4297.692383,4292.94873,4271.538574,4283.077148,4229.615234,4065.512939,4436.410156,4323.974121,5578.846191,4438.077148,0,4,80,,,,0,4,4,4,4,4,4,4,4,4,4,4,4,4,4,100,,,,,,,,,,,,,,,,,11,0,0.200387,-0.685425,-0.004578,-0.700012,0.951776,-0.227078,0.019045,-11.616141,-6.727834,91.379128,,,,,,,,,,,,,,,,,,,,,,,,,,,,,,,,,,,,,,,,,,,,,,,,,,,,,,,,,,,,,,,,,,,,,,,,,,,,,,,,,,,,,,,,,,,,,,,,,,,,,,,,,,
1702631089,1702631089,45,0,4297.94873,4405,4369.743652,4435.641113,4308.717773,4306.025879,4284.358887,4298.077148,4244.743652,4080.512939,4453.974121,4334.487305,5587.820313,4459.230957,0,4,80,,,,0,4,4,4,4,4,4,4,4,4,4,4,4,4,4,100,,,,,,,,,,,,,,,,,,,,,,,,,,,,,,,,,,,,,,,,,,,,,,,,,,,,,,,,,,,,,,,,,,,,,,,,,,,,,,,,,,,,,,,,,,,,,,,,,,,,,,,,,,,,,,,,,,,,,,,,,,,,,,,,,,,,,,
1702631089,1702631089,46,0,4288.717773,4439.487305,4364.743652,4413.846191,4294.871582,4288.077148,4266.538574,4285,4229.358887,4073.461426,4437.436035,4322.436035,5570.769043,4445.897461,0,4,80,,,,0,4,4,4,4,4,4,4,4,4,4,4,4,4,4,100,,,,,,,,,,,,,,,,,,,,,,,,,,,,,,,,,,,,,,,,,,,,,,,,,,,,,,,,,,,,,,,,,,,,,,,,,,,,,,,,,,,,,,,,,,,,,,,,,,,,,,,,,,,,,,,,,,,,,,,,,,,,,,,,,,,,,,
1702631089,1702631089,47,0,4284.743652,4496.153809,4370.769043,4389.358887,4282.05127,4279.487305,4256.794922,4268.205078,4213.461426,4063.333252,4422.307617,4310.769043,5544.615234,4431.794922,0,4,80,,,,0,4,4,4,4,4,4,4,4,4,4,4,4,4,4,100,,,,,,,,,,,,,,,,,,,,,,,,,,,,,,,,,,,,,,,,,,,,,,,,,,,,,,,,,,,,,,,,,,,,,,,,,,,,,,,,,,,,,,,,,,,,,,,,,,,,,,,,,,,,,,,,,,,,,,,,,,,,,,,,,,,,,,
1702631089,1702631089,48,0,4297.436035,4463.589844,4384.102539,4443.205078,4297.436035,4296.922852,4275,4277.94873,4223.461426,4075.897461,4444.487305,4320.512695,5550.128418,4448.461426,0,4,80,,,,0,4,4,4,4,4,4,4,4,4,4,4,4,4,4,100,,,,,,,,,,,,,,,,,12,0,0.199952,-0.685425,-0.004883,-0.700134,0.961055,-0.243194,0.018557,-11.58786,-6.788383,91.274551,,,,,,,,,,,,,,,,,,,,,,,,,,,,,,,,,,,,,,,,,,,,,,,,,,,,,,,,,,,,,,,,,,,,,,,,,,,,,,,,,,,,,,,,,,,,,,,,,,,,,,,,,,
1702631089,1702631089,49,0,4304.102539,4406.794922,4378.077148,4490.769043,4316.922852,4307.05127,4286.282227,4298.846191,4240.128418,4091.794922,4470.641113,4333.846191,5570.384766,4461.282227,0,4,80,,,,0,4,4,4,4,4,4,4,4,4,4,4,4,4,4,100,,,,,,,,,,,,,,,,,,,,,,,,,,,,,,,,,,,,,,,,,,,,,,,,,,,,,,,,,,,,,,,,,,,,,,,,,,,,,,,,,,,,,,,,,,,,,,,,,,,,,,,,,,,,,,,,,,,,,,,,,,,,,,,,,,,,,,
1702631089,1702631089,50,0,4295.897461,4420.384766,4362.436035,4475.384766,4302.436035,4295.641113,4273.461426,4293.461426,4236.666504,4082.94873,4465.128418,4326.153809,5562.820313,4448.333496,0,4,80,,,,0,4,4,4,4,4,4,4,4,4,4,4,4,4,4,100,,,,,,,,,,,,,,,,,,,,,,,,,,,,,,,,,,,,,,,,,,,,,,,,,,,,,,,,,,,,,,,,,,,,,,,,,,,,,,,,,,,,,,,,,,,,,,,,,,,,,,,,,,,,,,,,,,,,,,,,,,,,,,,,,,,,,,
1702631089,1702631089,51,0,4280.897461,4454.230957,4357.436035,4446.282227,4274.871582,4280,4259.230957,4267.563965,4213.974121,4059.358887,4441.153809,4307.307617,5532.563965,4429.871582,0,4,80,,,,0,4,4,4,4,4,4,4,4,4,4,4,4,4,4,100,,,,,,,,,,,,,,,,,,,,,,,,,,,,,,,,,,,,,,,,,,,,,,,,,,,,,,,,,,,,,,,,,,,,,,,,,,,,,,,,,,,,,,,,,,,,,,,,,,,,,,,,,,,,,,,,,,,,,,,,,,,,,,,,,,,,,,
1702631089,1702631089,52,0,4274.230957,4451.666504,4363.461426,4441.666504,4274.871582,4279.102539,4260.641113,4257.692383,4197.563965,4052.05127,4428.333496,4303.589844,5518.205078,4420.512695,0,4,80,,,,0,4,4,4,4,4,4,4,4,4,4,4,4,4,4,100,,,,,,,,,,,,,,,,,13,0,0.199314,-0.685608,-0.005249,-0.700134,0.967403,-0.234892,0.01465,-11.645741,-6.792879,91.297096,,,,,,,,,,,,,,,,,,,,,,,,,,,,,,,,,,,,,,,,,,,,,,,,,,,,,,,,,,,,,,,,,,,,,,,,,,,,,,,,,,,,,,,,,,,,,,,,,,,,,,,,,,
1702631089,1702631089,53,0,4292.94873,4394.487305,4371.282227,4504.743652,4308.205078,4302.692383,4282.179688,4287.05127,4224.358887,4083.205078,4458.205078,4326.666504,5537.94873,4442.563965,0,4,80,,,,0,4,4,4,4,4,4,4,4,4,4,4,4,4,4,100,,,,,,,,,,,,,,,,,,,,,,,,,,,,,,,,,,,,,,,,,,,,,,,,,,,,,,,,,,,,,,,,,19.100386,4.406096,1.450001,0.388074,0.68454,15.747712,2.867806,1.978479,1.781457,3.060278,2.436299,1.393405,1.006221,0.40614,0.338922,38.066799,6.574011,3.048797,0.854298,2.842405,3.197861,1.026888,0.926812,0.30933,0.712496,1.880002,0.345848,0.479845,0.174267,0.516277,1.04475,0.444767,0.474718,0.236061,0.417468,1.819379,1.186433,0.993996,0.468315,0.733703,13.588382,2.320135,1.639032,0.633932,0.990155,957.696655,165.188293,53.110493,19.952303,8.227798,8.290375,3.737361,2.126637,0.74197,1.244104,77.192612,15.013883,5.442884,2.134074,1.148978,1863.597046,221.623718,87.011803,30.993227,7.290039,71.587418,26.601971,9.832925,2.221462,1.545183
1702631090,1702631090,54,0,4296.922852,4373.333496,4364.871582,4543.717773,4315.128418,4306.410156,4286.410156,4300.384766,4246.025879,4100.641113,4476.282227,4332.820313,5539.230957,4454.230957,0,4,80,,,,0,4,4,4,4,4,4,4,4,4,4,4,4,4,4,100,,,,,,,,,,,,,,,,,,,,,,,,,,,,,,,,,,,,,,,,,,,,,,,,,,,,,,,,,,,,,,,,,,,,,,,,,,,,,,,,,,,,,,,,,,,,,,,,,,,,,,,,,,,,,,,,,,,,,,,,,,,,,,,,,,,,,,
1702631090,1702631090,55,0,4259.358887,4430.512695,4352.436035,4480.769043,4272.179688,4273.589844,4254.743652,4263.974121,4205.512695,4063.718018,4427.179688,4303.974121,5492.94873,4414.871582,0,4,80,,,,0,4,4,4,4,4,4,4,4,4,4,4,4,4,4,100,,,,,,,,,,,,,,,,,,,,,,,,,,,,,,,,,,,,,,,,,,,,,,,,,,,,,,,,,,,,,,,,,,,,,,,,,,,,,,,,,,,,,,,,,,,,,,,,,,,,,,,,,,,,,,,,,,,,,,,,,,,,,,,,,,,,,,
1702631090,1702631090,56,0,4245.769043,4457.692383,4361.153809,4453.205078,4255.641113,4262.563965,4241.153809,4245.897461,4177.307617,4037.94873,4398.077148,4299.358887,5465.641113,4393.589844,0,4,80,,,,0,4,4,4,4,4,4,4,4,4,4,4,4,4,4,100,,,,,,,,,,,,,,,,,14,0,0.19911,-0.685913,-0.005676,-0.69989,0.96545,-0.243194,0.009278,-11.697834,-6.846924,91.317383,,,,,,,,,,,,,,,,,,,,,,,,,,,,,,,,,,,,,,,,,,,,,,,,,,,,,,,,,,,,,,,,,,,,,,,,,,,,,,,,,,,,,,,,,,,,,,,,,,,,,,,,,,
1702631090,1702631090,57,0,4265,4430.769043,4373.077148,4508.717773,4276.794922,4277.692383,4256.153809,4262.563965,4196.153809,4047.692383,4419.871582,4318.461426,5468.974121,4415,0,4,80,,,,0,4,4,4,4,4,4,4,4,4,4,4,4,4,4,100,,,,,,,,,,,,,,,,,,,,,,,,,,,,,,,,,,,,,,,,,,,,,,,,,,,,,,,,,,,,,,,,,,,,,,,,,,,,,,,,,,,,,,,,,,,,,,,,,,,,,,,,,,,,,,,,,,,,,,,,,,,,,,,,,,,,,,
1702631090,1702631090,58,0,4282.94873,4417.307617,4371.025879,4564.102539,4291.538574,4290.512695,4266.922852,4277.94873,4215.128418,4067.94873,4445.128418,4327.94873,5481.794922,4439.358887,0,4,80,,,,0,4,4,4,4,4,4,4,4,4,4,4,4,4,4,100,,,,,,,,,,,,,,,,,,,,,,,,,,,,,,,,,,,,,,,,,,,,,,,,,,,,,,,,,,,,,,,,,,,,,,,,,,,,,,,,,,,,,,,,,,,,,,,,,,,,,,,,,,,,,,,,,,,,,,,,,,,,,,,,,,,,,,
1702631090,1702631090,59,0,4295.769043,4418.974121,4366.282227,4582.94873,4298.205078,4297.05127,4271.666504,4290.897461,4224.102539,4094.102539,4465.256348,4335.641113,5498.205078,4449.230957,0,4,80,,,,0,4,4,4,4,4,4,4,4,4,4,4,4,4,4,100,,,,,,,,,,,,,,,,,,,,,,,,,,,,,,,,,,,,,,,,,,,,,,,,,,,,,,,,,,,,,,,,,,,,,,,,,,,,,,,,,,,,,,,,,,,,,,,,,,,,,,,,,,,,,,,,,,,,,,,,,,,,,,,,,,,,,,
1702631090,1702631090,60,0,4284.743652,4423.333496,4354.358887,4560,4291.025879,4285.641113,4265.384766,4284.615234,4216.282227,4093.589844,4454.871582,4329.743652,5474.743652,4429.871582,0,4,80,,,,0,4,4,4,4,4,4,4,4,4,4,4,4,4,4,100,,,,,,,,,,,,,,,,,15,0,0.198674,-0.686035,-0.006165,-0.69989,0.961055,-0.233427,0.004883,-11.62805,-6.845565,91.418983,,,,,,,,,,,,,,,,,,,,,,,,,,,,,,,,,,,,,,,,,,,,,,,,,,,,,,,,,,,,,,,,,,,,,,,,,,,,,,,,,,,,,,,,,,,,,,,,,,,,,,,,,,
1702631090,1702631090,61,0,4258.077148,4442.05127,4340.641113,4537.05127,4273.077148,4268.846191,4247.692383,4255.897461,4186.410156,4057.307617,4415,4306.538574,5425.512695,4398.077148,0,4,80,,,,0,4,4,4,4,4,4,4,4,4,4,4,4,4,4,100,,,,,,,,,,,,,,,,,,,,,,,,,,,,,,,,,,,,,,,,,,,,,,,,,,,,,,,,,,,,,,,,,,,,,,,,,,,,,,,,,,,,,,,,,,,,,,,,,,,,,,,,,,,,,,,,,,,,,,,,,,,,,,,,,,,,,,
1702631090,1702631090,62,0,4262.179688,4453.077148,4351.410156,4576.666504,4282.307617,4275.641113,4249.358887,4251.025879,4177.436035,4051.666748,4414.102539,4308.974121,5415.512695,4407.05127,0,4,80,,,,0,4,4,4,4,4,4,4,4,4,4,4,4,4,4,100,,,,,,,,,,,,,,,,,,,,,,,,,,,,,,,,,,,,,,,,,,,,,,,,,,,,,,,,,,,,,,,,,,,,,,,,,,,,,,,,,,,,,,,,,,,,,,,,,,,,,,,,,,,,,,,,,,,,,,,,,,,,,,,,,,,,,,
1702631090,1702631090,63,0,4287.94873,4448.589844,4366.538574,4628.205078,4303.077148,4286.282227,4263.589844,4269.230957,4198.589844,4079.102539,4441.410156,4329.102539,5422.436035,4433.461426,0,4,80,,,,0,4,4,4,4,4,4,4,4,4,4,4,4,4,4,100,,,,,,,,,,,,,,,,,,,,,,,,,,,,,,,,,,,,,,,,,,,,,,,,,,,,,,,,,,,,,,,,,,,,,,,,,,,,,,,,,,,,,,,,,,,,,,,,,,,,,,,,,,,,,,,,,,,,,,,,,,,,,,,,,,,,,,
1702631090,1702631090,64,0,4291.666504,4458.461426,4358.974121,4627.179688,4294.743652,4277.436035,4260.769043,4266.538574,4202.05127,4076.923096,4430.641113,4325,5397.563965,4424.230957,4757,4,80,,,,0,4,4,4,4,4,4,4,4,4,4,4,4,4,4,100,,,,,,,,,,,,,,,,,16,0,0.198667,-0.686096,-0.006531,-0.699829,0.953241,-0.231962,0.010743,-11.565246,-6.811008,91.510414,,,,,,,,,,,,,,,,,,,,,,,,,,,,,,,,,,,,,,,,,,,,,,,,,,,,,,,,,,,,,,,,,,,,,,,,,,,,,,,,,,,,,,,,,,,,,,,,,,,,,,,,,,
1702631090,1702631090,65,0,4289.358887,4476.794922,4358.461426,4633.205078,4293.717773,4277.436035,4259.871582,4262.436035,4198.205078,4072.820557,4427.05127,4322.307617,5377.436035,4419.230957,5617,4,80,,,,0,4,4,4,4,4,4,4,4,4,4,4,4,4,4,100,,,,,,,,,,,,,,,,,,,,,,,,,,,,,,,,,,,,,,,,,,,,,,,,,,,,,,,,,,,,,,,,,,,,,,,,,,,,,,,,,,,,,,,,,,,,,,,,,,,,,,,,,,,,,,,,,,,,,,,,,,,,,,,,,,,,,,
1702631090,1702631090,66,0,4289.102539,4483.974121,4368.205078,4646.153809,4305.384766,4280.256348,4260.897461,4268.461426,4201.922852,4088.461426,4442.692383,4329.358887,5367.820313,4425.769043,5462,4,80,,,,0,4,4,4,4,4,4,4,4,4,4,4,4,4,4,100,,,,,,,,,,,,,,,,,,,,,,,,,,,,,,,,,,,,,,,,,,,,,,,,,,,,,,,,,,,,,,,,,,,,,,,,,,,,,,,,,,,,,,,,,,,,,,,,,,,,,,,,,,,,,,,,,,,,,,,,,,,,,,,,,,,,,,
1702631090,1702631090,67,0,4281.410156,4467.563965,4365.512695,4645.512695,4298.846191,4268.717773,4249.743652,4263.589844,4199.871582,4087.564209,4438.974121,4327.307617,5351.153809,4413.846191,5420,4,80,,,,0,4,4,4,4,4,4,4,4,4,4,4,4,4,4,100,,,,,,,,,,,,,,,,,,,,,,,,,,,,,,,,,,,,,,,,,,,,,,,,,,,,,,,,,,,,,,,,,,,,,,,,,,,,,,,,,,,,,,,,,,,,,,,,,,,,,,,,,,,,,,,,,,,,,,,,,,,,,,,,,,,,,,
1702631090,1702631090,68,0,4279.230957,4431.922852,4359.102539,4663.589844,4292.94873,4265.128418,4248.589844,4260.897461,4200.512695,4081.025635,4439.102539,4326.666504,5346.153809,4407.436035,5420,4,80,,,,0,4,4,4,4,4,4,4,4,4,4,4,4,4,4,100,,,,,,,,,,,,,,,,,17,0,0.198235,-0.686218,-0.006836,-0.699829,0.953241,-0.227567,0.019534,-11.525388,-6.679908,91.526039,,,,,,,,,,,,,,,,,,,,,,,,,,,,,,,,,,,,,,,,,,,,,,,,,,,,,,,,,,,,,,,,,,,,,,,,,,,,,,,,,,,,,,,,,,,,,,,,,,,,,,,,,,
1702631090,1702631090,69,0,4278.589844,4430.512695,4357.179688,4664.871582,4295.769043,4268.077148,4253.333496,4267.436035,4203.974121,4086.794922,4443.205078,4327.692383,5337.307617,4411.153809,5292,4,80,,,,0,4,4,4,4,4,4,4,4,4,4,4,4,4,4,100,,,,,,,,,,,,,,,,,,,,,,,,,,,,,,,,,,,,,,,,,,,,,,,,,,,,,,,,,,,,,,,,,11.388247,3.622347,1.537757,0.472192,0.691529,10.722142,2.396257,1.763743,1.639165,2.684028,2.022167,1.482089,1.262692,0.382583,0.34203,27.619221,5.953398,2.874063,1.014655,2.58669,3.258717,1.146046,1.00046,0.339555,0.650876,1.755897,0.464187,0.470105,0.193308,0.454336,1.289528,0.461801,0.47117,0.257529,0.376114,2.02563,1.307948,1.178473,0.474063,0.682734,9.808889,1.983738,1.857436,0.561189,0.903558,633.432373,100.073174,32.954388,12.093735,5.252473,6.948679,3.674208,2.240131,0.738594,1.217049,54.225563,9.248398,3.646111,1.425398,0.906305,1186.928223,139.156998,52.350414,19.667789,4.768149,50.817154,16.379898,6.998572,1.560334,1.284201
1702631090,1702631090,70,0,4274.230957,4466.282227,4358.846191,4643.205078,4290.256348,4263.974121,4243.589844,4263.077148,4197.563965,4091.923096,4432.05127,4324.871582,5312.179688,4404.487305,3966,4,80,,,,0,4,4,4,4,4,4,4,4,4,4,4,4,4,4,100,,,,,,,,,,,,,,,,,,,,,,,,,,,,,,,,,,,,,,,,,,,,,,,,,,,,,,,,,,,,,,,,,,,,,,,,,,,,,,,,,,,,,,,,,,,,,,,,,,,,,,,,,,,,,,,,,,,,,,,,,,,,,,,,,,,,,,
1702631090,1702631090,71,0,4278.205078,4464.358887,4363.974121,4661.794922,4292.307617,4268.077148,4245.256348,4258.333496,4198.846191,4099.615234,4434.358887,4333.205078,5301.025879,4406.025879,4956,4,80,,,,0,4,4,4,4,4,4,4,4,4,4,4,4,4,4,100,,,,,,,,,,,,,,,,,,,,,,,,,,,,,,,,,,,,,,,,,,,,,,,,,,,,,,,,,,,,,,,,,,,,,,,,,,,,,,,,,,,,,,,,,,,,,,,,,,,,,,,,,,,,,,,,,,,,,,,,,,,,,,,,,,,,,,
1702631090,1702631090,72,0,4281.794922,4433.205078,4359.743652,4692.436035,4306.538574,4277.94873,4260.512695,4267.692383,4210.128418,4110.641113,4452.692383,4344.230957,5298.333496,4417.179688,5420,4,80,,,,0,4,4,4,4,4,4,4,4,4,4,4,4,4,4,100,,,,,,,,,,,,,,,,,18,0,0.198008,-0.686218,-0.007141,-0.69989,0.960566,-0.230497,0.020999,-11.556182,-6.49525,91.523438,,,,,,,,,,,,,,,,,,,,,,,,,,,,,,,,,,,,,,,,,,,,,,,,,,,,,,,,,,,,,,,,,,,,,,,,,,,,,,,,,,,,,,,,,,,,,,,,,,,,,,,,,,
1702631090,1702631090,73,0,4267.94873,4444.230957,4345.384766,4667.179688,4296.922852,4269.358887,4254.871582,4264.487305,4199.615234,4109.358887,4442.94873,4332.563965,5270.384766,4400.256348,5459,4,80,,,,0,4,4,4,4,4,4,4,4,4,4,4,4,4,4,100,,,,,,,,,,,,,,,,,,,,,,,,,,,,,,,,,,,,,,,,,,,,,,,,,,,,,,,,,,,,,,,,,,,,,,,,,,,,,,,,,,,,,,,,,,,,,,,,,,,,,,,,,,,,,,,,,,,,,,,,,,,,,,,,,,,,,,
1702631090,1702631090,74,0,4252.820313,4477.179688,4345.128418,4632.436035,4279.487305,4258.846191,4242.307617,4245.256348,4178.717773,4099.102539,4422.179688,4318.974121,5233.077148,4375.512695,5958,4,80,,,,0,4,4,4,4,4,4,4,4,4,4,4,4,4,4,100,,,,,,,,,,,,,,,,,,,,,,,,,,,,,,,,,,,,,,,,,,,,,,,,,,,,,,,,,,,,,,,,,,,,,,,,,,,,,,,,,,,,,,,,,,,,,,,,,,,,,,,,,,,,,,,,,,,,,,,,,,,,,,,,,,,,,,
1702631090,1702631090,75,0,4260.512695,4464.615234,4360.897461,4656.153809,4296.922852,4272.563965,4256.538574,4253.077148,4187.307617,4103.461426,4435.897461,4332.692383,5226.410156,4390.769043,6270,4,80,,,,0,4,4,4,4,4,4,4,4,4,4,4,4,4,4,100,,,,,,,,,,,,,,,,,,,,,,,,,,,,,,,,,,,,,,,,,,,,,,,,,,,,,,,,,,,,,,,,,,,,,,,,,,,,,,,,,,,,,,,,,,,,,,,,,,,,,,,,,,,,,,,,,,,,,,,,,,,,,,,,,,,,,,
1702631090,1702631090,76,0,4276.794922,4430.384766,4368.974121,4695.769043,4318.333496,4287.436035,4273.717773,4280,4210.384766,4119.871582,4457.307617,4348.205078,5233.333496,4414.487305,6820,4,80,,,,0,4,4,4,4,4,4,4,4,4,4,4,4,4,4,100,,,,,,,,,,,,,,,,,19,0,0.197799,-0.68634,-0.007202,-0.699829,0.958125,-0.227078,0.013185,-11.56723,-6.595725,91.587761,,,,,,,,,,,,,,,,,,,,,,,,,,,,,,,,,,,,,,,,,,,,,,,,,,,,,,,,,,,,,,,,,,,,,,,,,,,,,,,,,,,,,,,,,,,,,,,,,,,,,,,,,,
1702631090,1702631090,77,0,4274.230957,4427.05127,4359.358887,4685.769043,4301.794922,4278.205078,4261.922852,4272.307617,4204.102539,4120.128418,4447.179688,4336.282227,5211.153809,4404.358887,4677,4,80,,,,0,4,4,4,4,4,4,4,4,4,4,4,4,4,4,100,,,,,,,,,,,,,,,,,,,,,,,,,,,,,,,,,,,,,,,,,,,,,,,,,,,,,,,,,,,,,,,,,,,,,,,,,,,,,,,,,,,,,,,,,,,,,,,,,,,,,,,,,,,,,,,,,,,,,,,,,,,,,,,,,,,,,,
1702631090,1702631090,78,0,4256.538574,4462.820313,4350.256348,4639.615234,4274.743652,4260.256348,4243.589844,4245.512695,4181.282227,4103.846191,4423.974121,4318.333496,5169.358887,4382.05127,5958,4,80,,,,0,4,4,4,4,4,4,4,4,4,4,4,4,4,4,100,,,,,,,,,,,,,,,,,,,,,,,,,,,,,,,,,,,,,,,,,,,,,,,,,,,,,,,,,,,,,,,,,,,,,,,,,,,,,,,,,,,,,,,,,,,,,,,,,,,,,,,,,,,,,,,,,,,,,,,,,,,,,,,,,,,,,,
1702631090,1702631090,79,0,4252.563965,4484.102539,4355,4627.563965,4276.922852,4259.871582,4246.922852,4245,4181.666504,4104.615234,4423.717773,4321.666504,5152.692383,4379.743652,6270,4,80,,,,0,4,4,4,4,4,4,4,4,4,4,4,4,4,4,100,,,,,,,,,,,,,,,,,,,,,,,,,,,,,,,,,,,,,,,,,,,,,,,,,,,,,,,,,,,,,,,,,,,,,,,,,,,,,,,,,,,,,,,,,,,,,,,,,,,,,,,,,,,,,,,,,,,,,,,,,,,,,,,,,,,,,,
1702631090,1702631090,80,0,4281.025879,4443.333496,4372.307617,4686.153809,4309.487305,4282.692383,4266.794922,4269.871582,4208.974121,4133.461426,4458.717773,4344.230957,5176.025879,4407.94873,6820,4,80,,,,0,4,4,4,4,4,4,4,4,4,4,4,4,4,4,100,,,,,,,,,,,,,,,,,20,0,0.197595,-0.686584,-0.007324,-0.699646,0.951776,-0.220242,0.006348,-11.54384,-6.702819,91.545647,,,,,,,,,,,,,,,,,,,,,,,,,,,,,,,,,,,,,,,,,,,,,,,,,,,,,,,,,,,,,,,,,,,,,,,,,,,,,,,,,,,,,,,,,,,,,,,,,,,,,,,,,,
1702631090,1702631090,81,0,4307.05127,4430.769043,4386.410156,4723.333496,4328.077148,4295.512695,4276.922852,4282.820313,4223.589844,4151.794922,4489.358887,4356.410156,5188.846191,4432.563965,4677,4,80,,,,0,4,4,4,4,4,4,4,4,4,4,4,4,4,4,100,,,,,,,,,,,,,,,,,,,,,,,,,,,,,,,,,,,,,,,,,,,,,,,,,,,,,,,,,,,,,,,,,,,,,,,,,,,,,,,,,,,,,,,,,,,,,,,,,,,,,,,,,,,,,,,,,,,,,,,,,,,,,,,,,,,,,,
1702631090,1702631090,82,0,4288.717773,4470.641113,4377.820313,4681.153809,4306.025879,4277.05127,4261.282227,4260.641113,4199.102539,4129.871582,4467.563965,4337.820313,5152.436035,4411.538574,5958,4,80,,,,0,4,4,4,4,4,4,4,4,4,4,4,4,4,4,100,,,,,,,,,,,,,,,,,,,,,,,,,,,,,,,,,,,,,,,,,,,,,,,,,,,,,,,,,,,,,,,,,,,,,,,,,,,,,,,,,,,,,,,,,,,,,,,,,,,,,,,,,,,,,,,,,,,,,,,,,,,,,,,,,,,,,,
1702631090,1702631090,83,0,4260.256348,4461.794922,4361.153809,4647.436035,4287.436035,4260.769043,4246.794922,4239.743652,4176.282227,4100.641113,4433.974121,4320,5112.436035,4379.487305,6270,4,80,,,,0,4,4,4,4,4,4,4,4,4,4,4,4,4,4,100,,,,,,,,,,,,,,,,,,,,,,,,,,,,,,,,,,,,,,,,,,,,,,,,,,,,,,,,,,,,,,,,,,,,,,,,,,,,,,,,,,,,,,,,,,,,,,,,,,,,,,,,,,,,,,,,,,,,,,,,,,,,,,,,,,,,,,
1702631090,1702631090,84,0,4266.794922,4442.820313,4362.94873,4661.282227,4294.871582,4268.333496,4252.692383,4252.94873,4188.461426,4108.717773,4443.077148,4329.743652,5111.794922,4386.153809,6820,4,80,,,,0,4,4,4,4,4,4,4,4,4,4,4,4,4,4,100,,,,,,,,,,,,,,,,,21,0,0.197607,-0.686707,-0.007202,-0.699524,0.958613,-0.229032,0.004883,-11.506124,-6.665871,91.407753,,,,,,,,,,,,,,,,,,,,,,,,,,,,,,,,,,,,,,,,,,,,,,,,,,,,,,,,,,,,,,,,,,,,,,,,,,,,,,,,,,,,,,,,,,,,,,,,,,,,,,,,,,
1702631090,1702631090,85,0,4286.794922,4465.641113,4372.436035,4673.717773,4295.897461,4278.589844,4262.692383,4268.846191,4203.589844,4135.769043,4468.974121,4342.94873,5121.538574,4405.128418,4677,4,80,,,,0,4,4,4,4,4,4,4,4,4,4,4,4,4,4,100,1,0,4,1,1,0,3,4,4,4,3,0,3,1,0,1,,,,,,,,,,,,,,,,,,,,,,,,,,,,,,,,,,,,,,,,,,,,,,,,,6.975824,3.086995,1.566758,0.59069,0.717798,7.463832,2.086836,1.845294,1.633061,2.486572,1.861409,1.471779,1.455507,0.370447,0.36593,19.872232,5.55318,2.551008,1.296824,2.570939,4.133879,1.314378,1.014982,0.382686,0.634389,2.104943,0.629695,0.454993,0.221456,0.436144,1.816549,0.510278,0.441127,0.28085,0.372958,2.675454,1.474817,1.292521,0.478993,0.674691,7.138314,1.886261,1.996397,0.531108,0.869974,351.258911,49.075394,17.01321,6.090015,2.89347,7.104267,3.827953,2.260187,0.789847,1.22867,33.20591,4.803839,2.223801,0.90351,0.729427,612.137146,74.726944,25.128149,10.837169,2.804219,32.188046,8.540962,4.694044,1.1122,1.094187
1702631090,1702631090,86,0,4290.512695,4457.05127,4370.641113,4679.487305,4295.769043,4279.487305,4262.692383,4263.717773,4202.692383,4139.230957,4471.666504,4341.666504,5107.179688,4403.846191,5958,4,80,,,,0,4,4,4,4,4,4,4,4,4,4,4,4,4,4,100,,,,,,,,,,,,,,,,,,,,,,,,,,,,,,,,,,,,,,,,,,,,,,,,,,,,,,,,,,,,,,,,,,,,,,,,,,,,,,,,,,,,,,,,,,,,,,,,,,,,,,,,,,,,,,,,,,,,,,,,,,,,,,,,,,,,,,
1702631090,1702631090,87,0,4288.974121,4427.179688,4367.179688,4696.794922,4310.128418,4278.205078,4262.820313,4262.307617,4201.282227,4136.410156,4467.94873,4338.077148,5090.641113,4403.333496,6270,4,80,,,,0,4,4,4,4,4,4,4,4,4,4,4,4,4,4,100,,,,,,,,,,,,,,,,,,,,,,,,,,,,,,,,,,,,,,,,,,,,,,,,,,,,,,,,,,,,,,,,,,,,,,,,,,,,,,,,,,,,,,,,,,,,,,,,,,,,,,,,,,,,,,,,,,,,,,,,,,,,,,,,,,,,,,
1702631090,1702631090,88,0,4281.282227,4448.077148,4363.974121,4683.846191,4305.128418,4272.692383,4260.897461,4260.256348,4192.05127,4137.692383,4460.256348,4330.256348,5076.282227,4398.461426,6820,4,80,,,,0,4,4,4,4,4,4,4,4,4,4,4,4,4,4,100,,,,,,,,,,,,,,,,,22,0,0.197405,-0.68689,-0.007141,-0.699402,0.958613,-0.224148,0.004395,-11.655511,-6.732617,91.266975,,,,,,,,,,,,,,,,,,,,,,,,,,,,,,,,,,,,,,,,,,,,,,,,,,,,,,,,,,,,,,,,,,,,,,,,,,,,,,,,,,,,,,,,,,,,,,,,,,,,,,,,,,
1702631090,1702631090,89,0,4275.641113,4468.974121,4362.563965,4668.717773,4293.846191,4273.333496,4259.230957,4257.563965,4190.128418,4138.846191,4454.871582,4332.05127,5061.025879,4395.641113,4677,4,80,,,,0,4,4,4,4,4,4,4,4,4,4,4,4,4,4,100,,,,,,,,,,,,,,,,,,,,,,,,,,,,,,,,,,,,,,,,,,,,,,,,,,,,,,,,,,,,,,,,,,,,,,,,,,,,,,,,,,,,,,,,,,,,,,,,,,,,,,,,,,,,,,,,,,,,,,,,,,,,,,,,,,,,,,
1702631090,1702631090,90,0,4287.563965,4447.436035,4368.333496,4705.384766,4308.205078,4286.153809,4267.692383,4271.025879,4211.410156,4160.769043,4474.487305,4352.563965,5059.743652,4415.384766,5958,4,80,,,,0,4,4,4,4,4,4,4,4,4,4,4,4,4,4,100,,,,,,,,,,,,,,,,,,,,,,,,,,,,,,,,,,,,,,,,,,,,,,,,,,,,,,,,,,,,,,,,,,,,,,,,,,,,,,,,,,,,,,,,,,,,,,,,,,,,,,,,,,,,,,,,,,,,,,,,,,,,,,,,,,,,,,
1702631090,1702631090,91,0,4282.94873,4438.077148,4362.436035,4706.666504,4306.922852,4279.615234,4261.025879,4265.128418,4205.769043,4167.692383,4476.153809,4348.077148,5039.102539,4411.282227,6270,4,80,,,,0,4,4,4,4,4,4,4,4,4,4,4,4,4,4,100,,,,,,,,,,,,,,,,,,,,,,,,,,,,,,,,,,,,,,,,,,,,,,,,,,,,,,,,,,,,,,,,,,,,,,,,,,,,,,,,,,,,,,,,,,,,,,,,,,,,,,,,,,,,,,,,,,,,,,,,,,,,,,,,,,,,,,
1702631090,1702631090,92,0,4263.077148,4459.743652,4355.512695,4654.615234,4289.230957,4266.666504,4248.846191,4243.461426,4183.974121,4140,4457.05127,4325.512695,5011.025879,4386.282227,6820,4,80,,,,0,4,4,4,4,4,4,4,4,4,4,4,4,4,4,100,,,,,,,,,,,,,,,,,23,0,0.197178,-0.686768,-0.007202,-0.699585,0.959101,-0.2178,0.007325,-11.656627,-6.809355,91.356949,,,,,,,,,,,,,,,,,,,,,,,,,,,,,,,,,,,,,,,,,,,,,,,,,,,,,,,,,,,,,,,,,,,,,,,,,,,,,,,,,,,,,,,,,,,,,,,,,,,,,,,,,,
1702631090,1702631090,93,0,4261.538574,4467.307617,4364.743652,4648.589844,4287.563965,4270,4250.769043,4242.692383,4186.410156,4124.230957,4454.230957,4322.307617,5019.743652,4385.769043,4677,4,80,,,,0,4,4,4,4,4,4,4,4,4,4,4,4,4,4,100,,,,,,,,,,,,,,,,,,,,,,,,,,,,,,,,,,,,,,,,,,,,,,,,,,,,,,,,,,,,,,,,,,,,,,,,,,,,,,,,,,,,,,,,,,,,,,,,,,,,,,,,,,,,,,,,,,,,,,,,,,,,,,,,,,,,,,
1702631090,1702631090,94,0,4263.717773,4437.820313,4369.487305,4683.077148,4292.307617,4272.94873,4251.025879,4248.717773,4190.769043,4152.307617,4459.487305,4336.025879,5020.641113,4400.512695,5958,4,80,,,,0,4,4,4,4,4,4,4,4,4,4,4,4,4,4,100,,,,,,,,,,,,,,,,,,,,,,,,,,,,,,,,,,,,,,,,,,,,,,,,,,,,,,,,,,,,,,,,,,,,,,,,,,,,,,,,,,,,,,,,,,,,,,,,,,,,,,,,,,,,,,,,,,,,,,,,,,,,,,,,,,,,,,
1702631090,1702631090,95,0,4264.230957,4402.179688,4362.94873,4692.307617,4296.282227,4273.589844,4250.256348,4248.974121,4191.538574,4167.563965,4467.563965,4341.282227,5037.820313,4401.794922,6270,4,80,,,,0,4,4,4,4,4,4,4,4,4,4,4,4,4,4,100,,,,,,,,,,,,,,,,,,,,,,,,,,,,,,,,,,,,,,,,,,,,,,,,,,,,,,,,,,,,,,,,,,,,,,,,,,,,,,,,,,,,,,,,,,,,,,,,,,,,,,,,,,,,,,,,,,,,,,,,,,,,,,,,,,,,,,
1702631090,1702631090,96,0,4270,4401.538574,4358.205078,4679.487305,4299.615234,4279.358887,4251.410156,4250.641113,4200.128418,4157.307617,4474.615234,4341.153809,5073.333496,4400.897461,6820,4,80,,,,0,4,4,4,4,4,4,4,4,4,4,4,4,4,4,100,,,,,,,,,,,,,,,,,24,0,0.19716,-0.686523,-0.007263,-0.699829,0.973263,-0.230497,0.020022,-11.607631,-6.87842,91.387917,,,,,,,,,,,,,,,,,,,,,,,,,,,,,,,,,,,,,,,,,,,,,,,,,,,,,,,,,,,,,,,,,,,,,,,,,,,,,,,,,,,,,,,,,,,,,,,,,,,,,,,,,,
1702631090,1702631090,97,0,4269.871582,4448.974121,4357.692383,4645.769043,4293.333496,4278.717773,4247.436035,4245.769043,4200.641113,4271.538574,4467.563965,4376.410156,4931.282227,4445.384766,4677,4,80,,,,0,4,4,4,4,4,4,4,4,4,4,4,4,4,4,100,,,,,,,,,,,,,,,,,,,,,,,,,,,,,,,,,,,,,,,,,,,,,,,,,,,,,,,,,,,,,,,,,,,,,,,,,,,,,,,,,,,,,,,,,,,,,,,,,,,,,,,,,,,,,,,,,,,,,,,,,,,,,,,,,,,,,,
1702631090,1702631090,98,0,4270.897461,4461.282227,4361.538574,4626.666504,4290.384766,4276.153809,4251.282227,4249.230957,4209.743652,4485.256348,4471.153809,4435.641113,4668.974121,4520.897461,5958,4,80,,,,0,4,4,4,4,4,4,4,4,4,4,4,4,4,4,100,,,,,,,,,,,,,,,,,,,,,,,,,,,,,,,,,,,,,,,,,,,,,,,,,,,,,,,,,,,,,,,,,,,,,,,,,,,,,,,,,,,,,,,,,,,,,,,,,,,,,,,,,,,,,,,,,,,,,,,,,,,,,,,,,,,,,,
1702631090,1702631090,99,0,4281.666504,4415.384766,4366.922852,4652.05127,4302.05127,4282.94873,4259.871582,4263.974121,4229.487305,4548.461426,4494.743652,4451.282227,4592.307617,4549.615234,6270,4,80,,,,0,4,4,4,4,4,4,4,4,4,4,4,4,4,4,100,,,,,,,,,,,,,,,,,,,,,,,,,,,,,,,,,,,,,,,,,,,,,,,,,,,,,,,,,,,,,,,,,,,,,,,,,,,,,,,,,,,,,,,,,,,,,,,,,,,,,,,,,,,,,,,,,,,,,,,,,,,,,,,,,,,,,,
1702631090,1702631090,100,0,4275.256348,4432.179688,4363.846191,4627.94873,4295.256348,4281.282227,4250.128418,4248.077148,4212.692383,4445.384766,4479.358887,4416.666504,4648.717773,4515.769043,6820,4,80,,,,0,4,4,4,4,4,4,4,4,4,4,4,4,4,4,100,,,,,,,,,,,,,,,,,25,0,0.197152,-0.686401,-0.007263,-0.699951,0.988402,-0.236357,0.011232,-11.396868,-7.023911,91.349129,,,,,,,,,,,,,,,,,,,,,,,,,,,,,,,,,,,,,,,,,,,,,,,,,,,,,,,,,,,,,,,,,,,,,,,,,,,,,,,,,,,,,,,,,,,,,,,,,,,,,,,,,,
1702631090,1702631090,101,0,4256.666504,4490.256348,4354.102539,4556.025879,4277.436035,4271.666504,4238.589844,4222.179688,4183.077148,4385.897461,4441.153809,4393.077148,4630.769043,4489.743652,4677,4,80,,,,0,4,4,4,4,4,4,4,4,4,4,4,4,4,4,100,,,,,,,,,,,,,,,,,,,,,,,,,,,,,,,,,,,,,,,,,,,,,,,,,,,,,,,,,,,,,,,,,5.602024,2.835841,1.506725,0.739612,0.757742,7.084709,1.990309,2.109916,1.801369,2.510083,1.841557,1.361774,1.521935,0.378545,0.406982,15.326324,5.355392,2.179019,1.691679,2.823633,5.669855,1.491813,0.958878,0.446425,0.678225,2.784509,0.799631,0.4285,0.264703,0.467712,2.480278,0.596372,0.388609,0.315796,0.413471,3.635436,1.643745,1.297386,0.504071,0.713712,6.094668,1.992959,1.984846,0.563466,0.89377,166.583969,19.633301,7.62517,2.787743,1.524355,7.598463,4.14404,2.156258,0.91248,1.280783,19.115931,2.308754,1.357595,0.643221,0.649071,266.218628,36.693653,9.15301,5.714333,1.696185,19.440081,4.126622,3.188686,0.952725,1.011026
1702631090,1702631090,102,0,4266.410156,4472.179688,4353.974121,4550.897461,4286.922852,4275.384766,4247.05127,4232.94873,4193.333496,4386.538574,4454.743652,4392.307617,4631.922852,4497.563965,5958,4,80,,,,0,4,4,4,4,4,4,4,4,4,4,4,4,4,4,100,,,,,,,,,,,,,,,,,,,,,,,,,,,,,,,,,,,,,,,,,,,,,,,,,,,,,,,,,,,,,,,,,,,,,,,,,,,,,,,,,,,,,,,,,,,,,,,,,,,,,,,,,,,,,,,,,,,,,,,,,,,,,,,,,,,,,,
1702631090,1702631090,103,0,4285.512695,4429.230957,4359.358887,4581.410156,4305.256348,4289.358887,4256.794922,4254.102539,4215,4344.743652,4483.717773,4388.589844,4698.974121,4500.769043,6270,4,80,,,,0,4,4,4,4,4,4,4,4,4,4,4,4,4,4,100,,,,,,,,,,,,,,,,,,,,,,,,,,,,,,,,,,,,,,,,,,,,,,,,,,,,,,,,,,,,,,,,,,,,,,,,,,,,,,,,,,,,,,,,,,,,,,,,,,,,,,,,,,,,,,,,,,,,,,,,,,,,,,,,,,,,,,
1702631090,1702631090,104,0,4272.94873,4422.692383,4350.769043,4557.820313,4301.666504,4293.461426,4256.922852,4252.563965,4210,4283.717773,4461.666504,4371.410156,4708.974121,4478.846191,6820,4,80,,,,0,4,4,4,4,4,4,4,4,4,4,4,4,4,4,100,,,,,,,,,,,,,,,,,26,0,0.19672,-0.686279,-0.006958,-0.700195,1.008912,-0.243682,0.004883,-11.357181,-7.004853,91.447548,,,,,,,,,,,,,,,,,,,,,,,,,,,,,,,,,,,,,,,,,,,,,,,,,,,,,,,,,,,,,,,,,,,,,,,,,,,,,,,,,,,,,,,,,,,,,,,,,,,,,,,,,,
1702631090,1702631090,105,0,4250.641113,4423.205078,4332.692383,4498.974121,4284.102539,4283.205078,4248.717773,4239.743652,4192.563965,4245.641113,4437.692383,4345.128418,4707.05127,4454.615234,4677,4,80,,,,0,4,4,4,4,4,4,4,4,4,4,4,4,4,4,100,,,,,,,,,,,,,,,,,,,,,,,,,,,,,,,,,,,,,,,,,,,,,,,,,,,,,,,,,,,,,,,,,,,,,,,,,,,,,,,,,,,,,,,,,,,,,,,,,,,,,,,,,,,,,,,,,,,,,,,,,,,,,,,,,,,,,,
1702631090,1702631090,106,0,4269.102539,4433.205078,4338.205078,4485.384766,4289.487305,4285.897461,4246.410156,4247.436035,4205,4257.436035,4473.974121,4346.153809,4770,4476.153809,5958,4,80,,,,0,4,4,4,4,4,4,4,4,4,4,4,4,4,4,100,,,,,,,,,,,,,,,,,,,,,,,,,,,,,,,,,,,,,,,,,,,,,,,,,,,,,,,,,,,,,,,,,,,,,,,,,,,,,,,,,,,,,,,,,,,,,,,,,,,,,,,,,,,,,,,,,,,,,,,,,,,,,,,,,,,,,,
1702631090,1702631090,107,0,4304.487305,4430.256348,4355,4514.871582,4309.358887,4297.94873,4253.846191,4268.461426,4234.487305,4289.102539,4518.974121,4345.384766,4831.922852,4517.563965,6270,4,80,,,,0,4,4,4,4,4,4,4,4,4,4,4,4,4,4,100,,,,,,,,,,,,,,,,,,,,,,,,,,,,,,,,,,,,,,,,,,,,,,,,,,,,,,,,,,,,,,,,,,,,,,,,,,,,,,,,,,,,,,,,,,,,,,,,,,,,,,,,,,,,,,,,,,,,,,,,,,,,,,,,,,,,,,
1702631090,1702631090,108,0,4301.538574,4411.922852,4346.794922,4493.205078,4300,4287.692383,4243.974121,4261.538574,4228.333496,4278.717773,4512.820313,4298.205078,4831.666504,4512.307617,6820,4,80,,,,0,4,4,4,4,4,4,4,4,4,4,4,4,4,4,100,,,,,,,,,,,,,,,,,27,0,0.196713,-0.686035,-0.006653,-0.700439,0.920034,-0.228544,0.018557,-11.388129,-6.854368,91.46946,,,,,,,,,,,,,,,,,,,,,,,,,,,,,,,,,,,,,,,,,,,,,,,,,,,,,,,,,,,,,,,,,,,,,,,,,,,,,,,,,,,,,,,,,,,,,,,,,,,,,,,,,,
1702631090,1702631090,109,0,4281.794922,4427.179688,4334.743652,4425.128418,4273.589844,4270.769043,4226.794922,4238.333496,4202.94873,4249.358887,4492.05127,4251.922852,4817.563965,4484.102539,4677,4,80,,,,0,4,4,4,4,4,4,4,4,4,4,4,4,4,4,100,,,,,,,,,,,,,,,,,,,,,,,,,,,,,,,,,,,,,,,,,,,,,,,,,,,,,,,,,,,,,,,,,,,,,,,,,,,,,,,,,,,,,,,,,,,,,,,,,,,,,,,,,,,,,,,,,,,,,,,,,,,,,,,,,,,,,,
1702631090,1702631090,110,0,4292.94873,4451.922852,4352.563965,4427.436035,4281.282227,4281.282227,4236.538574,4249.102539,4212.179688,4257.820313,4511.410156,4251.410156,4849.743652,4488.974121,5958,4,80,,,,0,4,4,4,4,4,4,4,4,4,4,4,4,4,4,100,,,,,,,,,,,,,,,,,,,,,,,,,,,,,,,,,,,,,,,,,,,,,,,,,,,,,,,,,,,,,,,,,,,,,,,,,,,,,,,,,,,,,,,,,,,,,,,,,,,,,,,,,,,,,,,,,,,,,,,,,,,,,,,,,,,,,,
1702631090,1702631090,111,0,4318.077148,4445,4378.461426,4476.153809,4310.641113,4298.589844,4255,4279.230957,4237.563965,4288.717773,4550.512695,4264.487305,4893.205078,4511.410156,6270,4,80,,,,0,4,4,4,4,4,4,4,4,4,4,4,4,4,4,100,,,,,,,,,,,,,,,,,,,,,,,,,,,,,,,,,,,,,,,,,,,,,,,,,,,,,,,,,,,,,,,,,,,,,,,,,,,,,,,,,,,,,,,,,,,,,,,,,,,,,,,,,,,,,,,,,,,,,,,,,,,,,,,,,,,,,,
1702631090,1702631090,112,0,4321.025879,4435,4382.05127,4468.077148,4312.05127,4297.307617,4250.641113,4277.436035,4239.358887,4289.230957,4560.769043,4260,4906.794922,4511.153809,6820,4,80,,,,0,4,4,4,4,4,4,4,4,4,4,4,4,4,4,100,,,,,,,,,,,,,,,,,28,0,0.196025,-0.685242,-0.005798,-0.701416,0.928336,-0.23245,0.019534,-11.499316,-6.802265,91.622513,,,,,,,,,,,,,,,,,,,,,,,,,,,,,,,,,,,,,,,,,,,,,,,,,,,,,,,,,,,,,,,,,,,,,,,,,,,,,,,,,,,,,,,,,,,,,,,,,,,,,,,,,,
1702631090,1702631090,113,0,4318.205078,4438.846191,4380,4447.563965,4300.384766,4292.820313,4243.333496,4261.025879,4227.563965,4270.256348,4550.769043,4252.820313,4910.512695,4500.769043,4677,4,80,,,,0,4,4,4,4,4,4,4,4,4,4,4,4,4,4,100,,,,,,,,,,,,,,,,,,,,,,,,,,,,,,,,,,,,,,,,,,,,,,,,,,,,,,,,,,,,,,,,,,,,,,,,,,,,,,,,,,,,,,,,,,,,,,,,,,,,,,,,,,,,,,,,,,,,,,,,,,,,,,,,,,,,,,
1702631090,1702631090,114,0,4337.692383,4454.102539,4393.333496,4466.794922,4308.461426,4301.922852,4260.128418,4269.871582,4232.05127,4276.794922,4569.487305,4260,4945.128418,4512.05127,5958,4,80,,,,0,4,4,4,4,4,4,4,4,4,4,4,4,4,4,100,,,,,,,,,,,,,,,,,,,,,,,,,,,,,,,,,,,,,,,,,,,,,,,,,,,,,,,,,,,,,,,,,,,,,,,,,,,,,,,,,,,,,,,,,,,,,,,,,,,,,,,,,,,,,,,,,,,,,,,,,,,,,,,,,,,,,,
1702631090,1702631090,115,0,4363.077148,4472.94873,4405.384766,4488.846191,4321.538574,4312.692383,4269.358887,4288.205078,4246.794922,4300.384766,4605.897461,4273.461426,4993.589844,4536.666504,6270,4,80,,,,0,4,4,4,4,4,4,4,4,4,4,4,4,4,4,100,,,,,,,,,,,,,,,,,,,,,,,,,,,,,,,,,,,,,,,,,,,,,,,,,,,,,,,,,,,,,,,,,,,,,,,,,,,,,,,,,,,,,,,,,,,,,,,,,,,,,,,,,,,,,,,,,,,,,,,,,,,,,,,,,,,,,,
1702631090,1702631090,116,0,4369.871582,4471.666504,4403.846191,4490.641113,4311.153809,4306.410156,4251.794922,4279.615234,4238.589844,4295.897461,4606.282227,4267.692383,5009.743652,4544.358887,6820,4,80,,,,0,4,4,4,4,4,4,4,4,4,4,4,4,4,4,100,,,,,,,,,,,,,,,,,29,0,0.194867,-0.684143,-0.004395,-0.70282,0.934196,-0.245147,0.030277,-11.482718,-6.772038,91.61026,,,,,,,,,,,,,,,,,,,,,,,,,,,,,,,,,,,,,,,,,,,,,,,,,,,,,,,,,,,,,,,,,,,,,,,,,,,,,,,,,,,,,,,,,,,,,,,,,,,,,,,,,,
1702631090,1702631090,117,0,4384.358887,4476.410156,4403.974121,4486.666504,4299.743652,4295.897461,4242.820313,4266.025879,4220.128418,4280.384766,4598.717773,4260.256348,5017.436035,4553.461426,4677,4,80,,,,0,4,4,4,4,4,4,4,4,4,4,4,4,4,4,100,,,,,,,,,,,,,,,,,,,,,,,,,,,,,,,,,,,,,,,,,,,,,,,,,,,,,,,,,,,,,,,,,6.11221,2.712999,1.36341,0.915491,0.807919,7.638809,2.059402,2.413938,2.085956,2.764612,1.892508,1.17229,1.454802,0.411751,0.458025,12.650344,5.178519,1.853755,2.172464,3.342898,7.239776,1.606585,0.846416,0.543773,0.788084,3.47473,0.91822,0.385899,0.330248,0.54324,3.045003,0.70105,0.322646,0.373577,0.494092,4.608684,1.740565,1.19818,0.571921,0.79976,6.251492,2.128441,1.808211,0.66531,0.974493,72.274361,8.729918,3.764558,1.722837,1.041569,8.135205,4.375653,1.941232,1.113136,1.380526,11.173281,1.440788,0.948211,0.59576,0.658261,95.764374,21.784494,3.167413,3.704025,1.340516,12.617178,2.440309,2.32095,1.029287,1.034252
1702631090,1702631090,118,0,4417.307617,4503.461426,4412.563965,4496.794922,4310.256348,4298.589844,4247.94873,4268.717773,4220.384766,4287.307617,4617.563965,4270.897461,5048.846191,4577.94873,5958,4,80,,,,0,4,4,4,4,4,4,4,4,4,4,4,4,4,4,100,,,,,,,,,,,,,,,,,,,,,,,,,,,,,,,,,,,,,,,,,,,,,,,,,,,,,,,,,,,,,,,,,,,,,,,,,,,,,,,,,,,,,,,,,,,,,,,,,,,,,,,,,,,,,,,,,,,,,,,,,,,,,,,,,,,,,,
1702631090,1702631090,119,0,4433.205078,4513.077148,4414.358887,4509.102539,4304.102539,4296.153809,4236.410156,4257.94873,4213.461426,4287.94873,4620.641113,4273.077148,5065.897461,4584.615234,6270,4,80,,,,0,4,4,4,4,4,4,4,4,4,4,4,4,4,4,100,,,,,,,,,,,,,,,,,,,,,,,,,,,,,,,,,,,,,,,,,,,,,,,,,,,,,,,,,,,,,,,,,,,,,,,,,,,,,,,,,,,,,,,,,,,,,,,,,,,,,,,,,,,,,,,,,,,,,,,,,,,,,,,,,,,,,,
1702631090,1702631090,120,0,4435.128418,4505.641113,4417.179688,4506.282227,4281.025879,4283.461426,4227.820313,4241.025879,4195,4272.179688,4601.538574,4269.743652,5056.025879,4577.436035,6820,4,80,,,,0,4,4,4,4,4,4,4,4,4,4,4,4,4,4,100,,,,,,,,,,,,,,,,,30,0,0.193704,-0.683289,-0.002869,-0.703979,0.973752,-0.225613,0.034672,-11.517779,-6.661501,91.482567,,,,,,,,,,,,,,,,,,,,,,,,,,,,,,,,,,,,,,,,,,,,,,,,,,,,,,,,,,,,,,,,,,,,,,,,,,,,,,,,,,,,,,,,,,,,,,,,,,,,,,,,,,
1702631090,1702631090,121,0,4443.974121,4515.769043,4431.410156,4503.974121,4282.563965,4281.153809,4241.153809,4247.563965,4198.077148,4272.94873,4603.974121,4282.307617,5064.230957,4588.717773,4677,4,80,,,,0,4,4,4,4,4,4,4,4,4,4,4,4,4,4,100,,,,,,,,,,,,,,,,,,,,,,,,,,,,,,,,,,,,,,,,,,,,,,,,,,,,,,,,,,,,,,,,,,,,,,,,,,,,,,,,,,,,,,,,,,,,,,,,,,,,,,,,,,,,,,,,,,,,,,,,,,,,,,,,,,,,,,
1702631090,1702631090,122,0,4450.512695,4529.615234,4434.358887,4511.153809,4287.94873,4285.769043,4243.846191,4255.641113,4205.512695,4287.820313,4617.05127,4295,5080,4600.641113,5958,4,80,,,,0,4,4,4,4,4,4,4,4,4,4,4,4,4,4,100,,,,,,,,,,,,,,,,,,,,,,,,,,,,,,,,,,,,,,,,,,,,,,,,,,,,,,,,,,,,,,,,,,,,,,,,,,,,,,,,,,,,,,,,,,,,,,,,,,,,,,,,,,,,,,,,,,,,,,,,,,,,,,,,,,,,,,
1702631090,1702631090,123,0,4440.769043,4518.333496,4417.563965,4505.512695,4266.025879,4277.820313,4230.128418,4238.205078,4185.641113,4272.307617,4594.102539,4282.179688,5054.230957,4587.820313,6270,4,80,,,,0,4,4,4,4,4,4,4,4,4,4,4,4,4,4,100,,,,,,,,,,,,,,,,,,,,,,,,,,,,,,,,,,,,,,,,,,,,,,,,,,,,,,,,,,,,,,,,,,,,,,,,,,,,,,,,,,,,,,,,,,,,,,,,,,,,,,,,,,,,,,,,,,,,,,,,,,,,,,,,,,,,,,
1702631090,1702631090,124,0,4432.307617,4504.102539,4409.871582,4500.641113,4252.307617,4270.256348,4224.358887,4224.487305,4169.487305,4246.794922,4568.974121,4269.615234,5026.666504,4577.05127,6820,4,80,,,,0,4,4,4,4,4,4,4,4,4,4,4,4,4,4,100,,,,,,,,,,,,,,,,,31,0,0.192592,-0.683167,-0.00177,-0.704407,1.008912,-0.211452,0.029789,-11.532668,-6.795351,91.55098,,,,,,,,,,,,,,,,,,,,,,,,,,,,,,,,,,,,,,,,,,,,,,,,,,,,,,,,,,,,,,,,,,,,,,,,,,,,,,,,,,,,,,,,,,,,,,,,,,,,,,,,,,
1702631090,1702631090,125,0,4437.05127,4508.333496,4415.256348,4514.102539,4262.05127,4275.384766,4226.282227,4232.94873,4176.794922,4251.153809,4576.666504,4273.589844,5032.307617,4585.384766,4677,4,80,,,,0,4,4,4,4,4,4,4,4,4,4,4,4,4,4,100,,,,,,,,,,,,,,,,,,,,,,,,,,,,,,,,,,,,,,,,,,,,,,,,,,,,,,,,,,,,,,,,,,,,,,,,,,,,,,,,,,,,,,,,,,,,,,,,,,,,,,,,,,,,,,,,,,,,,,,,,,,,,,,,,,,,,,
1702631090,1702631090,126,0,4432.05127,4530.256348,4406.282227,4502.05127,4253.974121,4268.077148,4213.717773,4222.692383,4163.333496,4249.358887,4564.743652,4262.820313,5015.128418,4575,5958,4,80,,,,0,4,4,4,4,4,4,4,4,4,4,4,4,4,4,100,,,,,,,,,,,,,,,,,,,,,,,,,,,,,,,,,,,,,,,,,,,,,,,,,,,,,,,,,,,,,,,,,,,,,,,,,,,,,,,,,,,,,,,,,,,,,,,,,,,,,,,,,,,,,,,,,,,,,,,,,,,,,,,,,,,,,,
1702631090,1702631090,127,0,4415.512695,4536.153809,4387.692383,4471.153809,4226.025879,4249.615234,4198.589844,4196.025879,4133.077148,4228.077148,4529.102539,4243.077148,4977.563965,4549.487305,80,4,80,,,,0,4,4,4,4,4,4,4,4,4,4,4,4,4,4,100,,,,,,,,,,,,,,,,,,,,,,,,,,,,,,,,,,,,,,,,,,,,,,,,,,,,,,,,,,,,,,,,,,,,,,,,,,,,,,,,,,,,,,,,,,,,,,,,,,,,,,,,,,,,,,,,,,,,,,,,,,,,,,,,,,,,,,
1702631090,1702631090,0,0,4416.666504,4496.538574,4384.230957,4485.384766,4223.333496,4254.230957,4208.974121,4202.179688,4139.230957,4223.461426,4535.512695,4250.769043,4976.410156,4558.205078,4752,4,80,,,,0,4,4,4,4,4,4,4,4,4,4,4,4,4,4,100,,,,,,,,,,,,,,,,,0,0,0.192655,-0.683777,-0.002014,-0.703796,0.972775,-0.195825,0.022952,-11.396069,-6.599149,91.545883,,,,,,,,,,,,,,,,,,,,,,,,,,,,,,,,,,,,,,,,,,,,,,,,,,,,,,,,,,,,,,,,,,,,,,,,,,,,,,,,,,,,,,,,,,,,,,,,,,,,,,,,,,
1702631090,1702631090,1,0,4432.692383,4472.820313,4390,4515,4246.153809,4269.615234,4223.717773,4225.128418,4163.717773,4238.077148,4563.461426,4268.461426,4986.666504,4588.589844,5624,4,80,,,,0,4,4,4,4,4,4,4,4,4,4,4,4,4,4,100,,,,,,,,,,,,,,,,,,,,,,,,,,,,,,,,,,,,,,,,,,,,,,,,,,,,,,,,,,,,,,,,,,,,,,,,,,,,,,,,,,,,,,,,,,,,,,,,,,,,,,,,,,,,,,,,,,,,,,,,,,,,,,,,,,,,,,
1702631090,1702631090,2,0,4425.897461,4503.077148,4389.102539,4498.333496,4243.077148,4259.358887,4211.922852,4212.692383,4152.692383,4235.512695,4534.487305,4253.589844,4953.333496,4583.333496,5465,4,80,,,,0,4,4,4,4,4,4,4,4,4,4,4,4,4,4,100,,,,,,,,,,,,,,,,,,,,,,,,,,,,,,,,,,,,,,,,,,,,,,,,,,,,,,,,,,,,,,,,,,,,,,,,,,,,,,,,,,,,,,,,,,,,,,,,,,,,,,,,,,,,,,,,,,,,,,,,,,,,,,,,,,,,,,
1702631090,1702631090,3,0,4426.410156,4485.256348,4390.641113,4516.153809,4248.077148,4260.769043,4215,4209.102539,4148.077148,4240.769043,4518.205078,4254.487305,4935.641113,4584.358887,5432,4,80,,,,0,4,4,4,4,4,4,4,4,4,4,4,4,4,4,100,,,,,,,,,,,,,,,,,,,,,,,,,,,,,,,,,,,,,,,,,,,,,,,,,,,,,,,,,,,,,,,,,,,,,,,,,,,,,,,,,,,,,,,,,,,,,,,,,,,,,,,,,,,,,,,,,,,,,,,,,,,,,,,,,,,,,,
1702631090,1702631090,4,0,4444.871582,4437.94873,4393.846191,4573.077148,4284.358887,4285.384766,4237.05127,4234.871582,4173.846191,4258.717773,4554.102539,4282.563965,4955,4617.436035,5422,4,80,,,,0,4,4,4,4,4,4,4,4,4,4,4,4,4,4,100,,,,,,,,,,,,,,,,,1,0,0.19334,-0.684204,-0.003723,-0.703186,0.95666,-0.20315,0.01465,-11.323128,-6.522568,91.524628,,,,,,,,,,,,,,,,,,,,,,,,,,,,,,,,,,,,,,,,,,,,,,,,,,,,,,,,,,,,,,,,,,,,,,,,,,,,,,,,,,,,,,,,,,,,,,,,,,,,,,,,,,
1702631090,1702631090,5,0,4423.589844,4488.846191,4380.897461,4545.128418,4271.538574,4272.563965,4220.128418,4224.358887,4167.692383,4236.025879,4530.641113,4268.717773,4920,4602.563965,5292,4,80,,,,0,4,4,4,4,4,4,4,4,4,4,4,4,4,4,100,,,,,,,,,,,,,,,,,,,,,,,,,,,,,,,,,,,,,,,,,,,,,,,,,,,,,,,,,,,,,,,,,7.038366,2.532452,1.178606,1.109601,0.870337,9.247747,2.159156,2.688738,2.358689,3.220768,1.953671,0.960603,1.289455,0.465054,0.510566,11.343562,4.822431,1.613256,2.677167,4.094621,8.369221,1.601459,0.706432,0.681406,0.956404,3.927845,0.948138,0.330241,0.418362,0.647351,3.300804,0.793175,0.256353,0.456139,0.602081,5.220793,1.698587,1.038346,0.688397,0.928962,6.689031,2.113142,1.524073,0.82572,1.106364,40.296967,7.677845,3.42427,1.898815,1.121356,7.864056,4.312921,1.675797,1.380195,1.540244,8.289293,1.402255,0.81483,0.665264,0.731722,52.214695,18.881956,2.919869,3.533654,1.47061,10.614227,2.029374,1.899374,1.230665,1.147634
1702631090,1702631090,6,0,4397.820313,4548.717773,4374.487305,4497.820313,4230.512695,4250.128418,4201.025879,4202.692383,4147.820313,4217.820313,4491.794922,4248.333496,4878.461426,4571.025879,3969,4,80,,,,0,4,4,4,4,4,4,4,4,4,4,4,4,4,4,100,,,,,,,,,,,,,,,,,,,,,,,,,,,,,,,,,,,,,,,,,,,,,,,,,,,,,,,,,,,,,,,,,,,,,,,,,,,,,,,,,,,,,,,,,,,,,,,,,,,,,,,,,,,,,,,,,,,,,,,,,,,,,,,,,,,,,,
1702631090,1702631090,7,0,4417.692383,4519.487305,4387.94873,4527.94873,4237.94873,4262.563965,4215.128418,4213.333496,4157.563965,4238.974121,4518.717773,4262.692383,4897.05127,4588.717773,4978,4,80,,,,0,4,4,4,4,4,4,4,4,4,4,4,4,4,4,100,,,,,,,,,,,,,,,,,,,,,,,,,,,,,,,,,,,,,,,,,,,,,,,,,,,,,,,,,,,,,,,,,,,,,,,,,,,,,,,,,,,,,,,,,,,,,,,,,,,,,,,,,,,,,,,,,,,,,,,,,,,,,,,,,,,,,,
1702631090,1702631090,8,0,4428.461426,4498.974121,4396.794922,4551.410156,4258.589844,4267.563965,4219.743652,4219.230957,4164.102539,4245,4532.563965,4269.102539,4898.974121,4600.128418,5452,4,80,,,,0,4,4,4,4,4,4,4,4,4,4,4,4,4,4,100,,,,,,,,,,,,,,,,,2,0,0.194809,-0.684143,-0.00647,-0.70282,0.963985,-0.22659,0.019534,-11.324148,-6.486978,91.572166,,,,,,,,,,,,,,,,,,,,,,,,,,,,,,,,,,,,,,,,,,,,,,,,,,,,,,,,,,,,,,,,,,,,,,,,,,,,,,,,,,,,,,,,,,,,,,,,,,,,,,,,,,
1702631090,1702631090,9,0,4431.153809,4531.538574,4408.974121,4553.461426,4266.538574,4265.897461,4221.922852,4223.846191,4172.94873,4251.282227,4532.94873,4275.641113,4883.717773,4605.769043,5464,4,80,,,,0,4,4,4,4,4,4,4,4,4,4,4,4,4,4,100,,,,,,,,,,,,,,,,,,,,,,,,,,,,,,,,,,,,,,,,,,,,,,,,,,,,,,,,,,,,,,,,,,,,,,,,,,,,,,,,,,,,,,,,,,,,,,,,,,,,,,,,,,,,,,,,,,,,,,,,,,,,,,,,,,,,,,
1702631090,1702631090,10,0,4447.563965,4539.743652,4418.974121,4570.897461,4280.384766,4280.384766,4237.179688,4241.538574,4190,4277.436035,4555.128418,4293.974121,4889.230957,4625.384766,6038,4,80,,,,0,4,4,4,4,4,4,4,4,4,4,4,4,4,4,100,,,,,,,,,,,,,,,,,,,,,,,,,,,,,,,,,,,,,,,,,,,,,,,,,,,,,,,,,,,,,,,,,,,,,,,,,,,,,,,,,,,,,,,,,,,,,,,,,,,,,,,,,,,,,,,,,,,,,,,,,,,,,,,,,,,,,,
1702631090,1702631090,11,0,4432.307617,4523.846191,4406.538574,4546.153809,4278.205078,4280.897461,4234.358887,4233.974121,4179.615234,4268.077148,4536.922852,4285.128418,4863.077148,4603.974121,6277,4,80,,,,0,4,4,4,4,4,4,4,4,4,4,4,4,4,4,100,,,,,,,,,,,,,,,,,,,,,,,,,,,,,,,,,,,,,,,,,,,,,,,,,,,,,,,,,,,,,,,,,,,,,,,,,,,,,,,,,,,,,,,,,,,,,,,,,,,,,,,,,,,,,,,,,,,,,,,,,,,,,,,,,,,,,,
1702631090,1702631090,12,0,4412.307617,4505.384766,4401.410156,4521.025879,4274.102539,4273.205078,4226.922852,4224.358887,4169.230957,4246.538574,4517.179688,4278.205078,4834.102539,4583.974121,6835,4,80,,,,0,4,4,4,4,4,4,4,4,4,4,4,4,4,4,100,,,,,,,,,,,,,,,,,3,0,0.195836,-0.68396,-0.007935,-0.702698,0.962031,-0.241729,0.028812,-11.3084,-6.504946,91.581612,,,,,,,,,,,,,,,,,,,,,,,,,,,,,,,,,,,,,,,,,,,,,,,,,,,,,,,,,,,,,,,,,,,,,,,,,,,,,,,,,,,,,,,,,,,,,,,,,,,,,,,,,,
1702631090,1702631090,13,0,4428.974121,4481.794922,4411.922852,4542.436035,4291.153809,4282.436035,4238.333496,4245.897461,4189.743652,4264.871582,4548.974121,4298.974121,4850.897461,4612.307617,4697,4,80,,,,0,4,4,4,4,4,4,4,4,4,4,4,4,4,4,100,,,,,,,,,,,,,,,,,,,,,,,,,,,,,,,,,,,,,,,,,,,,,,,,,,,,,,,,,,,,,,,,,,,,,,,,,,,,,,,,,,,,,,,,,,,,,,,,,,,,,,,,,,,,,,,,,,,,,,,,,,,,,,,,,,,,,,
1702631090,1702631090,14,0,4419.487305,4485,4403.077148,4507.563965,4285.512695,4278.974121,4234.615234,4247.94873,4191.922852,4270.769043,4540.897461,4292.94873,4824.615234,4602.820313,6038,4,80,,,,0,4,4,4,4,4,4,4,4,4,4,4,4,4,4,100,,,,,,,,,,,,,,,,,,,,,,,,,,,,,,,,,,,,,,,,,,,,,,,,,,,,,,,,,,,,,,,,,,,,,,,,,,,,,,,,,,,,,,,,,,,,,,,,,,,,,,,,,,,,,,,,,,,,,,,,,,,,,,,,,,,,,,
1702631090,1702631090,15,0,4389.743652,4500.256348,4391.538574,4443.461426,4269.871582,4270.641113,4223.589844,4234.358887,4178.205078,4261.794922,4509.102539,4281.410156,4775.641113,4567.692383,6277,4,80,,,,0,4,4,4,4,4,4,4,4,4,4,4,4,4,4,100,,,,,,,,,,,,,,,,,,,,,,,,,,,,,,,,,,,,,,,,,,,,,,,,,,,,,,,,,,,,,,,,,,,,,,,,,,,,,,,,,,,,,,,,,,,,,,,,,,,,,,,,,,,,,,,,,,,,,,,,,,,,,,,,,,,,,,
1702631090,1702631090,16,0,4395.256348,4495.769043,4397.05127,4448.461426,4281.410156,4278.717773,4230.128418,4244.615234,4186.922852,4277.692383,4521.153809,4300.897461,4779.102539,4580.256348,0,4,80,,,,0,4,4,4,4,4,4,4,4,4,4,4,4,4,4,100,,,,,,,,,,,,,,,,,4,0,0.197665,-0.683594,-0.010071,-0.702515,0.97131,-0.240752,0.031254,-11.344227,-6.437785,91.590118,,,,,,,,,,,,,,,,,,,,,,,,,,,,,,,,,,,,,,,,,,,,,,,,,,,,,,,,,,,,,,,,,,,,,,,,,,,,,,,,,,,,,,,,,,,,,,,,,,,,,,,,,,
1702631090,1702631090,17,0,4396.153809,4484.871582,4395,4456.410156,4290.769043,4281.794922,4234.358887,4251.538574,4190.897461,4288.205078,4520.256348,4309.102539,4770.641113,4584.358887,0,4,80,,,,0,4,4,4,4,4,4,4,4,4,4,4,4,4,4,100,,,,,,,,,,,,,,,,,,,,,,,,,,,,,,,,,,,,,,,,,,,,,,,,,,,,,,,,,,,,,,,,,,,,,,,,,,,,,,,,,,,,,,,,,,,,,,,,,,,,,,,,,,,,,,,,,,,,,,,,,,,,,,,,,,,,,,
1702631090,1702631090,18,0,4373.461426,4472.820313,4383.589844,4425.384766,4285.384766,4279.358887,4233.333496,4241.922852,4184.743652,4271.410156,4495.384766,4299.487305,4716.410156,4553.589844,0,4,80,,,,0,4,4,4,4,4,4,4,4,4,4,4,4,4,4,100,,,,,,,,,,,,,,,,,,,,,,,,,,,,,,,,,,,,,,,,,,,,,,,,,,,,,,,,,,,,,,,,,,,,,,,,,,,,,,,,,,,,,,,,,,,,,,,,,,,,,,,,,,,,,,,,,,,,,,,,,,,,,,,,,,,,,,
1702631090,1702631090,19,0,4373.717773,4435.384766,4378.974121,4423.333496,4300.769043,4294.871582,4244.487305,4251.282227,4199.358887,4269.615234,4502.820313,4309.230957,4683.589844,4553.077148,0,4,80,,,,0,4,4,4,4,4,4,4,4,4,4,4,4,4,4,100,,,,,,,,,,,,,,,,,,,,,,,,,,,,,,,,,,,,,,,,,,,,,,,,,,,,,,,,,,,,,,,,,,,,,,,,,,,,,,,,,,,,,,,,,,,,,,,,,,,,,,,,,,,,,,,,,,,,,,,,,,,,,,,,,,,,,,
1702631090,1702631090,20,0,4386.025879,4410,4375.641113,4430.512695,4327.307617,4311.922852,4254.230957,4273.461426,4218.846191,4309.358887,4527.307617,4323.717773,4683.846191,4574.487305,0,4,80,,,,0,4,4,4,4,4,4,4,4,4,4,4,4,4,4,100,,,,,,,,,,,,,,,,,5,0,0.198652,-0.683594,-0.01178,-0.702209,0.972287,-0.256379,0.025882,-11.226471,-6.52734,91.464439,,,,,,,,,,,,,,,,,,,,,,,,,,,,,,,,,,,,,,,,,,,,,,,,,,,,,,,,,,,,,,,,,,,,,,,,,,,,,,,,,,,,,,,,,,,,,,,,,,,,,,,,,,
1702631090,1702631090,21,0,4379.358887,4445.897461,4373.205078,4397.436035,4316.666504,4304.743652,4244.871582,4271.666504,4218.846191,4336.153809,4525.641113,4317.436035,4668.461426,4571.153809,0,4,80,,,,0,4,4,4,4,4,4,4,4,4,4,4,4,4,4,100,1,0,4,1,1,0,4,4,4,4,4,0,3,1,0,1,,,,,,,,,,,,,,,,,,,,,,,,,,,,,,,,,,,,,,,,,,,,,,,,,7.424508,2.227771,1.007769,1.296472,0.948801,9.880795,2.183579,2.928602,2.49227,3.788795,1.852669,0.776479,1.089003,0.520359,0.558017,11.275995,4.211764,1.460827,3.109451,4.982894,8.512005,1.467625,0.576712,0.84357,1.15803,3.877586,0.889057,0.277544,0.51582,0.75587,3.161977,0.844788,0.212635,0.550251,0.715676,5.284627,1.502666,0.881114,0.833582,1.08856,6.772688,1.895267,1.23275,1.01291,1.273646,35.559673,11.421848,5.489019,2.636458,1.545112,6.944034,3.922019,1.437718,1.671656,1.766038,8.548889,1.679387,0.866219,0.799608,0.849648,48.61129,21.527618,5.172721,4.400769,1.917957,10.853436,2.062283,1.939637,1.466722,1.339193
1702631090,1702631090,22,0,4365,4461.025879,4374.871582,4361.538574,4293.333496,4297.692383,4239.743652,4263.077148,4214.358887,4314.871582,4505.769043,4312.820313,4628.589844,4552.05127,0,4,80,,,,0,4,4,4,4,4,4,4,4,4,4,4,4,4,4,100,,,,,,,,,,,,,,,,,,,,,,,,,,,,,,,,,,,,,,,,,,,,,,,,,,,,,,,,,,,,,,,,,,,,,,,,,,,,,,,,,,,,,,,,,,,,,,,,,,,,,,,,,,,,,,,,,,,,,,,,,,,,,,,,,,,,,,
1702631090,1702631090,23,0,4353.589844,4429.871582,4376.282227,4339.615234,4305.641113,4307.820313,4245.641113,4268.461426,4215.641113,4293.974121,4500.769043,4318.974121,4584.358887,4533.846191,0,4,80,,,,0,4,4,4,4,4,4,4,4,4,4,4,4,4,4,100,,,,,,,,,,,,,,,,,,,,,,,,,,,,,,,,,,,,,,,,,,,,,,,,,,,,,,,,,,,,,,,,,,,,,,,,,,,,,,,,,,,,,,,,,,,,,,,,,,,,,,,,,,,,,,,,,,,,,,,,,,,,,,,,,,,,,,
1702631090,1702631090,24,0,4349.871582,4423.589844,4378.461426,4323.717773,4325.512695,4316.794922,4250.384766,4277.563965,4217.563965,4315.256348,4511.666504,4325.256348,4561.666504,4525.641113,0,4,80,,,,0,4,4,4,4,4,4,4,4,4,4,4,4,4,4,100,,,,,,,,,,,,,,,,,6,0,0.198669,-0.684326,-0.012573,-0.701477,0.966915,-0.256867,0.022464,-11.287157,-6.407939,91.434662,,,,,,,,,,,,,,,,,,,,,,,,,,,,,,,,,,,,,,,,,,,,,,,,,,,,,,,,,,,,,,,,,,,,,,,,,,,,,,,,,,,,,,,,,,,,,,,,,,,,,,,,,,
1702631090,1702631090,25,0,4355.512695,4444.487305,4379.871582,4309.487305,4322.05127,4316.922852,4256.153809,4283.589844,4225.512695,4346.282227,4510.512695,4331.025879,4549.743652,4531.025879,0,4,80,,,,0,4,4,4,4,4,4,4,4,4,4,4,4,4,4,100,,,,,,,,,,,,,,,,,,,,,,,,,,,,,,,,,,,,,,,,,,,,,,,,,,,,,,,,,,,,,,,,,,,,,,,,,,,,,,,,,,,,,,,,,,,,,,,,,,,,,,,,,,,,,,,,,,,,,,,,,,,,,,,,,,,,,,
1702631090,1702631090,26,0,4358.974121,4461.538574,4379.615234,4283.974121,4321.794922,4320.769043,4261.153809,4290.384766,4236.922852,4372.05127,4507.05127,4346.282227,4546.282227,4547.05127,0,4,80,,,,0,4,4,4,4,4,4,4,4,4,4,4,4,4,4,100,,,,,,,,,,,,,,,,,,,,,,,,,,,,,,,,,,,,,,,,,,,,,,,,,,,,,,,,,,,,,,,,,,,,,,,,,,,,,,,,,,,,,,,,,,,,,,,,,,,,,,,,,,,,,,,,,,,,,,,,,,,,,,,,,,,,,,
1702631090,1702631090,27,0,4361.153809,4467.05127,4388.846191,4273.717773,4340.128418,4335.897461,4267.692383,4302.436035,4249.230957,4408.333496,4528.461426,4369.102539,4547.179688,4565.256348,0,4,80,,,,0,4,4,4,4,4,4,4,4,4,4,4,4,4,4,100,,,,,,,,,,,,,,,,,,,,,,,,,,,,,,,,,,,,,,,,,,,,,,,,,,,,,,,,,,,,,,,,,,,,,,,,,,,,,,,,,,,,,,,,,,,,,,,,,,,,,,,,,,,,,,,,,,,,,,,,,,,,,,,,,,,,,,
1702631090,1702631090,28,0,4362.563965,4444.871582,4395.897461,4289.230957,4348.589844,4348.589844,4276.025879,4310.897461,4259.102539,4428.846191,4553.717773,4380.256348,4501.282227,4570.897461,0,4,80,,,,0,4,4,4,4,4,4,4,4,4,4,4,4,4,4,100,,,,,,,,,,,,,,,,,7,0,0.19815,-0.685425,-0.011963,-0.700562,0.913197,-0.245635,0.038579,-11.591775,-6.417145,91.40786,,,,,,,,,,,,,,,,,,,,,,,,,,,,,,,,,,,,,,,,,,,,,,,,,,,,,,,,,,,,,,,,,,,,,,,,,,,,,,,,,,,,,,,,,,,,,,,,,,,,,,,,,,
1702631090,1702631090,29,0,4362.563965,4418.974121,4386.666504,4293.846191,4346.025879,4352.307617,4282.563965,4307.820313,4258.717773,4438.205078,4555.384766,4385.897461,4443.461426,4574.615234,0,4,80,,,,0,4,4,4,4,4,4,4,4,4,4,4,4,4,4,100,,,,,,,,,,,,,,,,,,,,,,,,,,,,,,,,,,,,,,,,,,,,,,,,,,,,,,,,,,,,,,,,,,,,,,,,,,,,,,,,,,,,,,,,,,,,,,,,,,,,,,,,,,,,,,,,,,,,,,,,,,,,,,,,,,,,,,
1702631090,1702631090,30,0,4364.230957,4418.461426,4376.282227,4286.794922,4355,4354.487305,4281.538574,4310,4264.358887,4453.846191,4542.05127,4396.538574,4426.025879,4588.589844,0,4,80,,,,0,4,4,4,4,4,4,4,4,4,4,4,4,4,4,100,,,,,,,,,,,,,,,,,,,,,,,,,,,,,,,,,,,,,,,,,,,,,,,,,,,,,,,,,,,,,,,,,,,,,,,,,,,,,,,,,,,,,,,,,,,,,,,,,,,,,,,,,,,,,,,,,,,,,,,,,,,,,,,,,,,,,,
1702631090,1702631090,31,0,4353.461426,4417.05127,4369.615234,4271.410156,4356.922852,4345.128418,4271.538574,4315.512695,4272.563965,4458.205078,4526.282227,4392.436035,4399.743652,4585,0,4,80,,,,0,4,4,4,4,4,4,4,4,4,4,4,4,4,4,100,,,,,,,,,,,,,,,,,,,,,,,,,,,,,,,,,,,,,,,,,,,,,,,,,,,,,,,,,,,,,,,,,,,,,,,,,,,,,,,,,,,,,,,,,,,,,,,,,,,,,,,,,,,,,,,,,,,,,,,,,,,,,,,,,,,,,,
