Timestamp,OriginalTimestamp,EEG.Counter,EEG.Interpolated,EEG.AF3,EEG.F7,EEG.F3,EEG.FC5,EEG.T7,EEG.P7,EEG.O1,EEG.O2,EEG.P8,EEG.T8,EEG.FC6,EEG.F4,EEG.F8,EEG.AF4,EEG.RawCq,EEG.Battery,EEG.BatteryPercent,MarkerIndex,MarkerType,MarkerValueInt,EEG.MarkerHardware,CQ.AF3,CQ.F7,CQ.F3,CQ.FC5,CQ.T7,CQ.P7,CQ.O1,CQ.O2,CQ.P8,CQ.T8,CQ.FC6,CQ.F4,CQ.F8,CQ.AF4,CQ.Overall,EQ.SampleRateQuality,EQ.OVERALL,EQ.AF3,EQ.F7,EQ.F3,EQ.FC5,EQ.T7,EQ.P7,EQ.O1,EQ.O2,EQ.P8,EQ.T8,EQ.FC6,EQ.F4,EQ.F8,EQ.AF4,MOT.CounterMems,MOT.InterpolatedMems,MOT.Q0,MOT.Q1,MOT.Q2,MOT.Q3,MOT.AccX,MOT.AccY,MOT.AccZ,MOT.MagX,MOT.MagY,MOT.MagZ,PM.Attention.IsActive,PM.Attention.Scaled,PM.Attention.Raw,PM.Attention.Min,PM.Attention.Max,PM.Engagement.IsActive,PM.Engagement.Scaled,PM.Engagement.Raw,PM.Engagement.Min,PM.Engagement.Max,PM.Excitement.IsActive,PM.Excitement.Scaled,PM.Excitement.Raw,PM.Excitement.Min,PM.Excitement.Max,PM.LongTermExcitement,PM.Stress.IsActive,PM.Stress.Scaled,PM.Stress.Raw,PM.Stress.Min,PM.Stress.Max,PM.Relaxation.IsActive,PM.Relaxation.Scaled,PM.Relaxation.Raw,PM.Relaxation.Min,PM.Relaxation.Max,PM.Interest.IsActive,PM.Interest.Scaled,PM.Interest.Raw,PM.Interest.Min,PM.Interest.Max,PM.Focus.IsActive,PM.Focus.Scaled,PM.Focus.Raw,PM.Focus.Min,PM.Focus.Max,POW.AF3.Theta,POW.AF3.Alpha,POW.AF3.BetaL,POW.AF3.BetaH,POW.AF3.Gamma,POW.F7.Theta,POW.F7.Alpha,POW.F7.BetaL,POW.F7.BetaH,POW.F7.Gamma,POW.F3.Theta,POW.F3.Alpha,POW.F3.BetaL,POW.F3.BetaH,POW.F3.Gamma,POW.FC5.Theta,POW.FC5.Alpha,POW.FC5.BetaL,POW.FC5.BetaH,POW.FC5.Gamma,POW.T7.Theta,POW.T7.Alpha,POW.T7.BetaL,POW.T7.BetaH,POW.T7.Gamma,POW.P7.Theta,POW.P7.Alpha,POW.P7.BetaL,POW.P7.BetaH,POW.P7.Gamma,POW.O1.Theta,POW.O1.Alpha,POW.O1.BetaL,POW.O1.BetaH,POW.O1.Gamma,POW.O2.Theta,POW.O2.Alpha,POW.O2.BetaL,POW.O2.BetaH,POW.O2.Gamma,POW.P8.Theta,POW.P8.Alpha,POW.P8.BetaL,POW.P8.BetaH,POW.P8.Gamma,POW.T8.Theta,POW.T8.Alpha,POW.T8.BetaL,POW.T8.BetaH,POW.T8.Gamma,POW.FC6.Theta,POW.FC6.Alpha,POW.FC6.BetaL,POW.FC6.BetaH,POW.FC6.Gamma,POW.F4.Theta,POW.F4.Alpha,POW.F4.BetaL,POW.F4.BetaH,POW.F4.Gamma,POW.F8.Theta,POW.F8.Alpha,POW.F8.BetaL,POW.F8.BetaH,POW.F8.Gamma,POW.AF4.Theta,POW.AF4.Alpha,POW.AF4.BetaL,POW.AF4.BetaH,POW.AF4.Gamma
,,,,,,,,,,,,,,,,,,,,,,,,,,,,,,,,,,,,,,,,,,,,,,,,,,,,,,,,,,,,,,,,,,,,,,,,,,,,,,,,,,,,,,,,,,,,,,,,,,,,,,,,,,,,,,,,,,,,,,,,,,,,,,,,,,,,,,,,,,,,,,,,,,,,,,,,,,,,,,,,,,,,,,,,,,,,,
1702547332,1702547332,88,0,4453.846191,4696.282227,4466.410156,4522.563965,4420.641113,4183.974121,4362.94873,4309.358887,4097.436035,4466.282227,4350.128418,4546.025879,4469.230957,4584.102539,6519,3,70,,,,0,4,4,4,4,4,4,4,4,4,4,4,4,4,4,100,,,,,,,,,,,,,,,,,22,0,0.687991,-0.473083,-0.394775,-0.383423,0.923941,-0.298865,0.194848,-10.691494,-7.231215,96.763428,,,,,,,,,,,,,,,,,,,,,,,,,,,,,,,,,,,,,,,,,,,,,,,,,,,,,,,,,,,,,,,,,,,,,,,,,,,,,,,,,,,,,,,,,,,,,,,,,,,,,,,,,,
1702547332,1702547332,89,0,4461.666504,4713.717773,4476.410156,4525.256348,4425.384766,4174.743652,4361.025879,4309.615234,4131.538574,4482.94873,4373.717773,4550.769043,4478.333496,4586.794922,4452,3,70,,,,0,4,4,4,4,4,4,4,4,4,4,4,4,4,4,100,,,,,,,,,,,,,,,,,,,,,,,,,,,,,,,,,,,,,,,,,,,,,,,,,,,,,,,,,,,,,,,,,,,,,,,,,,,,,,,,,,,,,,,,,,,,,,,,,,,,,,,,,,,,,,,,,,,,,,,,,,,,,,,,,,,,,,
1702547332,1702547332,90,0,4466.410156,4721.410156,4481.282227,4527.692383,4456.794922,4178.077148,4361.153809,4309.358887,4171.410156,4472.692383,4388.717773,4550.641113,4475.256348,4584.615234,5983,3,70,,,,0,4,4,4,4,4,4,4,4,4,4,4,4,4,4,100,,,,,,,,,,,,,,,,,,,,,,,,,,,,,,,,,,,,,,,,,,,,,,,,,,,,,,,,,,,,,,,,,,,,,,,,,,,,,,,,,,,,,,,,,,,,,,,,,,,,,,,,,,,,,,,,,,,,,,,,,,,,,,,,,,,,,,
1702547332,1702547332,91,0,4477.692383,4736.794922,4493.333496,4540.384766,4446.025879,4197.436035,4367.820313,4312.820313,4228.205078,4469.871582,4412.820313,4557.692383,4489.487305,4596.666504,6080,3,70,,,,0,4,4,4,4,4,4,4,4,4,4,4,4,4,4,100,,,,,,,,,,,,,,,,,,,,,,,,,,,,,,,,,,,,,,,,,,,,,,,,,,,,,,,,,,,,,,,,,,,,,,,,,,,,,,,,,,,,,,,,,,,,,,,,,,,,,,,,,,,,,,,,,,,,,,,,,,,,,,,,,,,,,,
1702547332,1702547332,92,0,4477.563965,4742.692383,4496.153809,4536.410156,4411.410156,4207.692383,4362.94873,4311.410156,4256.794922,4476.538574,4428.974121,4557.563965,4496.666504,4595.897461,6519,3,70,,,,0,4,4,4,4,4,4,4,4,4,4,4,4,4,4,100,,,,,,,,,,,,,,,,,23,0,0.687785,-0.473083,-0.394897,-0.383667,0.924429,-0.305701,0.194848,-10.655679,-7.224761,96.787086,,,,,,,,,,,,,,,,,,,,,,,,,,,,,,,,,,,,,,,,,,,,,,,,,,,,,,,,,,,,,,,,,,,,,,,,,,,,,,,,,,,,,,,,,,,,,,,,,,,,,,,,,,
1702547332,1702547332,93,0,4460.384766,4737.307617,4488.589844,4520.128418,4430.897461,4217.436035,4357.692383,4309.871582,4250.512695,4466.922852,4432.820313,4550.256348,4492.307617,4577.05127,4452,3,70,,,,0,4,4,4,4,4,4,4,4,4,4,4,4,4,4,100,,,,,,,,,,,,,,,,,,,,,,,,,,,,,,,,,,,,,,,,,,,,,,,,,,,,,,,,,,,,,,,,,,,,,,,,,,,,,,,,,,,,,,,,,,,,,,,,,,,,,,,,,,,,,,,,,,,,,,,,,,,,,,,,,,,,,,
1702547332,1702547332,94,0,4460.128418,4749.871582,4488.461426,4520.769043,4456.282227,4229.230957,4363.589844,4313.717773,4289.230957,4462.820313,4450.384766,4554.871582,4491.538574,4576.666504,5983,3,70,,,,0,4,4,4,4,4,4,4,4,4,4,4,4,4,4,100,1,16.666666,1,1,1,1,1,1,1,3,1,1,0,3,1,1,,,,,,,,,,,,,,,,,,,,,,,,,,,,,,,,,,,,,,,,,,,,,,,,,51.516613,4.981723,3.598356,1.856711,1.533365,126.398209,9.424751,3.146809,1.55606,1.196018,23.400826,2.843127,3.245103,1.603012,1.227378,39.708031,3.644089,3.398041,1.992652,1.485467,5.045839,1.270694,1.86056,1.205333,1.940305,30.379892,2.831237,4.061329,0.812497,0.599385,3.585838,1.209884,1.52286,0.699925,0.714165,2.055361,0.6676,1.080051,0.41333,0.378166,105.094315,57.746647,20.953739,13.758259,4.143467,9.357743,2.345892,3.847799,1.903371,1.60809,19.723558,8.366708,6.084119,2.997263,2.245536,9.043432,1.747038,2.333111,0.968578,0.876971,28.213234,4.235374,4.956203,2.591254,1.663425,48.665062,5.059686,5.671484,3.345335,2.033295
1702547332,1702547332,95,0,4474.487305,4767.05127,4496.153809,4527.436035,4441.922852,4241.794922,4365,4317.307617,4328.717773,4474.743652,4473.077148,4563.333496,4491.538574,4591.153809,6080,3,70,,,,0,4,4,4,4,4,4,4,4,4,4,4,4,4,4,100,,,,,,,,,,,,,,,,,,,,,,,,,,,,,,,,,,,,,,,,,,,,,,,,,,,,,,,,,,,,,,,,,,,,,,,,,,,,,,,,,,,,,,,,,,,,,,,,,,,,,,,,,,,,,,,,,,,,,,,,,,,,,,,,,,,,,,
1702547332,1702547332,96,0,4468.717773,4767.307617,4500.384766,4522.820313,4432.179688,4251.410156,4355.769043,4314.871582,4353.974121,4480.897461,4473.589844,4558.461426,4483.589844,4595.128418,6519,3,70,,,,0,4,4,4,4,4,4,4,4,4,4,4,4,4,4,100,,,,,,,,,,,,,,,,,24,0,0.687723,-0.473022,-0.394958,-0.383789,0.918081,-0.304725,0.190453,-10.656777,-7.252285,96.891708,,,,,,,,,,,,,,,,,,,,,,,,,,,,,,,,,,,,,,,,,,,,,,,,,,,,,,,,,,,,,,,,,,,,,,,,,,,,,,,,,,,,,,,,,,,,,,,,,,,,,,,,,,
1702547332,1702547332,97,0,4459.871582,4770.256348,4501.794922,4524.615234,4426.538574,4259.487305,4355.641113,4314.487305,4621.794922,4482.692383,4474.487305,4553.333496,4439.615234,4622.05127,4452,3,70,,,,0,4,4,4,4,4,4,4,4,4,4,4,4,4,4,100,,,,,,,,,,,,,,,,,,,,,,,,,,,,,,,,,,,,,,,,,,,,,,,,,,,,,,,,,,,,,,,,,,,,,,,,,,,,,,,,,,,,,,,,,,,,,,,,,,,,,,,,,,,,,,,,,,,,,,,,,,,,,,,,,,,,,,
1702547332,1702547332,98,0,4480.256348,4791.282227,4513.205078,4545.384766,4429.102539,4279.358887,4374.615234,4327.436035,5063.846191,4499.358887,4505.897461,4567.179688,4363.205078,4689.102539,5983,3,70,,,,0,4,4,4,4,4,4,4,4,4,4,4,4,4,4,100,,,,,,,,,,,,,,,,,,,,,,,,,,,,,,,,,,,,,,,,,,,,,,,,,,,,,,,,,,,,,,,,,,,,,,,,,,,,,,,,,,,,,,,,,,,,,,,,,,,,,,,,,,,,,,,,,,,,,,,,,,,,,,,,,,,,,,
1702547332,1702547332,99,0,4497.563965,4805.897461,4527.05127,4559.358887,4450.641113,4302.692383,4381.922852,4338.205078,5249.102539,4516.922852,4538.461426,4576.538574,4306.794922,4728.461426,6080,3,70,,,,0,4,4,4,4,4,4,4,4,4,4,4,4,4,4,100,,,,,,,,,,,,,,,,,,,,,,,,,,,,,,,,,,,,,,,,,,,,,,,,,,,,,,,,,,,,,,,,,,,,,,,,,,,,,,,,,,,,,,,,,,,,,,,,,,,,,,,,,,,,,,,,,,,,,,,,,,,,,,,,,,,,,,
1702547332,1702547332,100,0,4474.102539,4792.179688,4517.94873,4544.102539,4451.922852,4306.666504,4365.769043,4328.846191,5179.871582,4501.922852,4540.512695,4562.692383,4274.487305,4703.589844,6519,3,70,,,,0,4,4,4,4,4,4,4,4,4,4,4,4,4,4,100,,,,,,,,,,,,,,,,,25,0,0.687766,-0.472961,-0.394897,-0.38385,0.915639,-0.30619,0.189965,-10.691099,-7.143723,96.919205,,,,,,,,,,,,,,,,,,,,,,,,,,,,,,,,,,,,,,,,,,,,,,,,,,,,,,,,,,,,,,,,,,,,,,,,,,,,,,,,,,,,,,,,,,,,,,,,,,,,,,,,,,
1702547332,1702547332,101,0,4450.128418,4778.333496,4501.282227,4526.538574,4445.512695,4307.692383,4361.410156,4321.153809,5160.128418,4471.666504,4533.717773,4550.769043,4239.743652,4675.128418,4452,3,70,,,,0,4,4,4,4,4,4,4,4,4,4,4,4,4,4,100,,,,,,,,,,,,,,,,,,,,,,,,,,,,,,,,,,,,,,,,,,,,,,,,,,,,,,,,,,,,,,,,,,,,,,,,,,,,,,,,,,,,,,,,,,,,,,,,,,,,,,,,,,,,,,,,,,,,,,,,,,,,,,,,,,,,,,
1702547332,1702547333,102,0,4466.666504,4795.897461,4513.717773,4542.179688,4462.307617,4328.077148,4380.384766,4336.410156,5180.897461,4474.743652,4554.230957,4561.538574,4240.897461,4689.487305,5983,3,70,,,,0,4,4,4,4,4,4,4,4,4,4,4,4,4,4,100,,,,,,,,,,,,,,,,,,,,,,,,,,,,,,,,,,,,,,,,,,,,,,,,,,,,,,,,,,,,,,,,,,,,,,,,,,,,,,,,,,,,,,,,,,,,,,,,,,,,,,,,,,,,,,,,,,,,,,,,,,,,,,,,,,,,,,
1702547332,1702547333,103,0,4484.871582,4818.205078,4535.769043,4558.205078,4459.102539,4343.717773,4385.641113,4349.358887,5141.666504,4502.94873,4579.102539,4571.538574,4264.230957,4706.282227,6080,3,70,,,,0,4,4,4,4,4,4,4,4,4,4,4,4,4,4,100,,,,,,,,,,,,,,,,,,,,,,,,,,,,,,,,,,,,,,,,,,,,,,,,,,,,,,,,,,,,,,,,,,,,,,,,,,,,,,,,,,,,,,,,,,,,,,,,,,,,,,,,,,,,,,,,,,,,,,,,,,,,,,,,,,,,,,
1702547332,1702547333,104,0,4478.717773,4809.102539,4535.641113,4547.179688,4439.487305,4340.128418,4373.717773,4341.410156,5113.461426,4513.077148,4580,4566.666504,4250.384766,4694.871582,6519,3,70,,,,0,4,4,4,4,4,4,4,4,4,4,4,4,4,4,100,,,,,,,,,,,,,,,,,26,0,0.68774,-0.4729,-0.394897,-0.383972,0.923941,-0.314492,0.194848,-10.655323,-7.146017,96.727287,,,,,,,,,,,,,,,,,,,,,,,,,,,,,,,,,,,,,,,,,,,,,,,,,,,,,,,,,,,,,,,,,,,,,,,,,,,,,,,,,,,,,,,,,,,,,,,,,,,,,,,,,,
1702547332,1702547333,105,0,4471.025879,4796.794922,4528.461426,4536.282227,4456.666504,4344.615234,4370.769043,4336.282227,5113.205078,4507.436035,4572.692383,4563.717773,4229.487305,4682.436035,4452,3,70,,,,0,4,4,4,4,4,4,4,4,4,4,4,4,4,4,100,,,,,,,,,,,,,,,,,,,,,,,,,,,,,,,,,,,,,,,,,,,,,,,,,,,,,,,,,,,,,,,,,,,,,,,,,,,,,,,,,,,,,,,,,,,,,,,,,,,,,,,,,,,,,,,,,,,,,,,,,,,,,,,,,,,,,,
1702547332,1702547333,106,0,4463.205078,4796.666504,4522.179688,4527.05127,4462.307617,4353.205078,4366.666504,4335,5115.897461,4482.436035,4560,4558.717773,4215.128418,4677.179688,5983,3,70,,,,0,4,4,4,4,4,4,4,4,4,4,4,4,4,4,100,,,,,,,,,,,,,,,,,,,,,,,,,,,,,,,,,,,,,,,,,,,,,,,,,,,,,,,,,,,,,,,,,,,,,,,,,,,,,,,,,,,,,,,,,,,,,,,,,,,,,,,,,,,,,,,,,,,,,,,,,,,,,,,,,,,,,,
1702547332,1702547333,107,0,4455.256348,4787.820313,4520.897461,4513.589844,4431.794922,4353.589844,4359.230957,4333.077148,5118.077148,4451.666504,4545,4555.256348,4193.589844,4672.563965,6080,3,70,,,,0,4,4,4,4,4,4,4,4,4,4,4,4,4,4,100,,,,,,,,,,,,,,,,,,,,,,,,,,,,,,,,,,,,,,,,,,,,,,,,,,,,,,,,,,,,,,,,,,,,,,,,,,,,,,,,,,,,,,,,,,,,,,,,,,,,,,,,,,,,,,,,,,,,,,,,,,,,,,,,,,,,,,
1702547332,1702547333,108,0,4470.512695,4791.410156,4543.077148,4526.410156,4427.820313,4365.769043,4369.871582,4341.538574,5120.256348,4467.05127,4560.256348,4572.820313,4199.230957,4689.487305,6519,3,70,,,,0,4,4,4,4,4,4,4,4,4,4,4,4,4,4,100,,,,,,,,,,,,,,,,,27,0,0.687763,-0.473022,-0.394592,-0.384094,0.915151,-0.310585,0.188011,-10.639791,-7.164749,96.687889,,,,,,,,,,,,,,,,,,,,,,,,,,,,,,,,,,,,,,,,,,,,,,,,,,,,,,,,,,,,,,,,,,,,,,,,,,,,,,,,,,,,,,,,,,,,,,,,,,,,,,,,,,
1702547332,1702547333,109,0,4484.358887,4802.692383,4558.846191,4540,4443.589844,4381.410156,4375.256348,4347.307617,5120.128418,4498.589844,4580.128418,4582.94873,4209.615234,4706.410156,4452,3,70,,,,0,4,4,4,4,4,4,4,4,4,4,4,4,4,4,100,,,,,,,,,,,,,,,,,,,,,,,,,,,,,,,,,,,,,,,,,,,,,,,,,,,,,,,,,,,,,,,,,,,,,,,,,,,,,,,,,,,,,,,,,,,,,,,,,,,,,,,,,,,,,,,,,,,,,,,,,,,,,,,,,,,,,,
1702547332,1702547333,110,0,4467.692383,4787.820313,4537.692383,4514.743652,4450,4383.846191,4361.922852,4339.743652,5102.820313,4488.589844,4558.589844,4561.410156,4184.358887,4684.358887,5983,3,70,,,,0,4,4,4,4,4,4,4,4,4,4,4,4,4,4,100,,,,,,,,,,,,,,,,,,,,,,,,,,,,,,,,,,,,,,,,,,,,,,,,,,,,,,,,,,,,,,,,,78.227936,5.944458,3.405272,1.788099,1.359955,201.000015,12.423061,3.317946,1.433882,1.110578,28.558676,2.748802,3.082322,1.435445,1.072436,59.306999,4.315939,3.33512,1.798276,1.294037,4.354058,1.129407,1.907922,1.054301,1.823248,33.206501,3.193485,4.823343,0.880476,0.598319,3.416967,1.037223,1.367778,0.651293,0.608368,1.96624,0.547768,0.993769,0.391856,0.358156,132.123627,47.717583,14.743202,11.194088,3.492803,8.442312,1.82954,3.658853,1.917124,1.330413,24.259649,7.000014,5.323184,2.879622,1.829273,9.86985,1.509195,2.181803,0.845789,0.793893,42.38871,4.114447,4.987021,2.462607,1.494782,70.140198,5.456704,5.82428,3.237921,1.746495
1702547332,1702547333,111,0,4457.05127,4773.589844,4524.871582,4497.94873,4460,4395.256348,4360,4337.820313,5090.512695,4463.461426,4544.743652,4546.794922,4171.153809,4666.282227,6080,3,70,,,,0,4,4,4,4,4,4,4,4,4,4,4,4,4,4,100,,,,,,,,,,,,,,,,,,,,,,,,,,,,,,,,,,,,,,,,,,,,,,,,,,,,,,,,,,,,,,,,,,,,,,,,,,,,,,,,,,,,,,,,,,,,,,,,,,,,,,,,,,,,,,,,,,,,,,,,,,,,,,,,,,,,,,
1702547332,1702547333,112,0,4465.769043,4782.436035,4540.641113,4512.05127,4465.128418,4414.615234,4370.897461,4343.717773,5088.461426,4468.461426,4567.94873,4559.871582,4191.666504,4680,6519,3,70,,,,0,4,4,4,4,4,4,4,4,4,4,4,4,4,4,100,,,,,,,,,,,,,,,,,28,0,0.687559,-0.473022,-0.394592,-0.38446,0.920523,-0.308631,0.1885,-10.692478,-7.081607,96.752434,,,,,,,,,,,,,,,,,,,,,,,,,,,,,,,,,,,,,,,,,,,,,,,,,,,,,,,,,,,,,,,,,,,,,,,,,,,,,,,,,,,,,,,,,,,,,,,,,,,,,,,,,,
1702547332,1702547333,113,0,4462.820313,4776.666504,4536.538574,4506.538574,4441.025879,4415.384766,4367.179688,4342.94873,5073.846191,4479.615234,4571.538574,4564.230957,4192.179688,4674.487305,4452,3,70,,,,0,4,4,4,4,4,4,4,4,4,4,4,4,4,4,100,,,,,,,,,,,,,,,,,,,,,,,,,,,,,,,,,,,,,,,,,,,,,,,,,,,,,,,,,,,,,,,,,,,,,,,,,,,,,,,,,,,,,,,,,,,,,,,,,,,,,,,,,,,,,,,,,,,,,,,,,,,,,,,,,,,,,,
1702547332,1702547333,114,0,4455.641113,4756.922852,4521.538574,4490,4423.461426,4416.410156,4358.077148,4343.077148,5058.974121,4471.410156,4558.717773,4555.769043,4183.205078,4653.077148,5983,3,70,,,,0,4,4,4,4,4,4,4,4,4,4,4,4,4,4,100,,,,,,,,,,,,,,,,,,,,,,,,,,,,,,,,,,,,,,,,,,,,,,,,,,,,,,,,,,,,,,,,,,,,,,,,,,,,,,,,,,,,,,,,,,,,,,,,,,,,,,,,,,,,,,,,,,,,,,,,,,,,,,,,,,,,,,
1702547332,1702547333,115,0,4456.666504,4751.153809,4524.871582,4488.846191,4439.487305,4427.179688,4357.307617,4345,5054.487305,4469.358887,4563.077148,4554.743652,4193.717773,4653.974121,6080,3,70,,,,0,4,4,4,4,4,4,4,4,4,4,4,4,4,4,100,,,,,,,,,,,,,,,,,,,,,,,,,,,,,,,,,,,,,,,,,,,,,,,,,,,,,,,,,,,,,,,,,,,,,,,,,,,,,,,,,,,,,,,,,,,,,,,,,,,,,,,,,,,,,,,,,,,,,,,,,,,,,,,,,,,,,,
1702547332,1702547333,116,0,4446.922852,4740.384766,4520.384766,4478.974121,4442.563965,4427.820313,4355.512695,4341.666504,5039.615234,4472.179688,4558.974121,4552.820313,4195.641113,4646.794922,6519,3,70,,,,0,4,4,4,4,4,4,4,4,4,4,4,4,4,4,100,,,,,,,,,,,,,,,,,29,0,0.68754,-0.4729,-0.394592,-0.384644,0.931266,-0.309608,0.20901,-10.656564,-7.090113,96.89386,,,,,,,,,,,,,,,,,,,,,,,,,,,,,,,,,,,,,,,,,,,,,,,,,,,,,,,,,,,,,,,,,,,,,,,,,,,,,,,,,,,,,,,,,,,,,,,,,,,,,,,,,,
1702547332,1702547333,117,0,4431.410156,4721.666504,4505.897461,4460.897461,4424.230957,4431.538574,4351.153809,4335.769043,5009.487305,4457.179688,4534.871582,4542.94873,4184.871582,4620.128418,4452,3,70,,,,0,4,4,4,4,4,4,4,4,4,4,4,4,4,4,100,,,,,,,,,,,,,,,,,,,,,,,,,,,,,,,,,,,,,,,,,,,,,,,,,,,,,,,,,,,,,,,,,,,,,,,,,,,,,,,,,,,,,,,,,,,,,,,,,,,,,,,,,,,,,,,,,,,,,,,,,,,,,,,,,,,,,,
1702547332,1702547333,118,0,4426.794922,4710.897461,4501.282227,4455.256348,4429.615234,4440.897461,4345.256348,4329.871582,4978.846191,4435.897461,4516.794922,4534.358887,4181.410156,4608.589844,5983,3,70,,,,0,4,4,4,4,4,4,4,4,4,4,4,4,4,4,100,,,,,,,,,,,,,,,,,,,,,,,,,,,,,,,,,,,,,,,,,,,,,,,,,,,,,,,,,,,,,,,,,,,,,,,,,,,,,,,,,,,,,,,,,,,,,,,,,,,,,,,,,,,,,,,,,,,,,,,,,,,,,,,,,,,,,,
1702547332,1702547333,119,0,4435,4709.358887,4511.025879,4465.128418,4439.102539,4449.102539,4349.871582,4336.025879,4961.538574,4443.333496,4525.641113,4547.563965,4195.384766,4621.282227,6080,3,70,,,,0,4,4,4,4,4,4,4,4,4,4,4,4,4,4,100,,,,,,,,,,,,,,,,,,,,,,,,,,,,,,,,,,,,,,,,,,,,,,,,,,,,,,,,,,,,,,,,,,,,,,,,,,,,,,,,,,,,,,,,,,,,,,,,,,,,,,,,,,,,,,,,,,,,,,,,,,,,,,,,,,,,,,
1702547332,1702547333,120,0,4452.307617,4712.307617,4531.538574,4483.333496,4416.922852,4454.102539,4361.282227,4350.384766,4952.692383,4465.128418,4545.897461,4569.102539,4222.05127,4638.333496,6519,3,70,,,,0,4,4,4,4,4,4,4,4,4,4,4,4,4,4,100,,,,,,,,,,,,,,,,,30,0,0.687499,-0.472961,-0.394531,-0.384705,0.925406,-0.313515,0.194848,-10.690907,-7.114435,96.837807,,,,,,,,,,,,,,,,,,,,,,,,,,,,,,,,,,,,,,,,,,,,,,,,,,,,,,,,,,,,,,,,,,,,,,,,,,,,,,,,,,,,,,,,,,,,,,,,,,,,,,,,,,
1702547332,1702547333,121,0,4450,4704.230957,4527.563965,4478.461426,4411.794922,4451.538574,4350.384766,4347.563965,4930.512695,4459.487305,4528.205078,4558.205078,4224.102539,4627.307617,4452,3,70,,,,0,4,4,4,4,4,4,4,4,4,4,4,4,4,4,100,,,,,,,,,,,,,,,,,,,,,,,,,,,,,,,,,,,,,,,,,,,,,,,,,,,,,,,,,,,,,,,,,,,,,,,,,,,,,,,,,,,,,,,,,,,,,,,,,,,,,,,,,,,,,,,,,,,,,,,,,,,,,,,,,,,,,,
1702547332,1702547333,122,0,4424.230957,4667.94873,4496.538574,4445.512695,4433.333496,4451.282227,4336.538574,4338.333496,4900.512695,4442.692383,4479.743652,4535.512695,4197.94873,4595,5983,3,70,,,,0,4,4,4,4,4,4,4,4,4,4,4,4,4,4,100,,,,,,,,,,,,,,,,,,,,,,,,,,,,,,,,,,,,,,,,,,,,,,,,,,,,,,,,,,,,,,,,,,,,,,,,,,,,,,,,,,,,,,,,,,,,,,,,,,,,,,,,,,,,,,,,,,,,,,,,,,,,,,,,,,,,,,
1702547332,1702547333,123,0,4415,4634.743652,4486.282227,4431.282227,4427.820313,4460.384766,4343.205078,4342.179688,4884.358887,4430,4457.692383,4538.205078,4195.641113,4579.743652,6080,3,70,,,,0,4,4,4,4,4,4,4,4,4,4,4,4,4,4,100,,,,,,,,,,,,,,,,,,,,,,,,,,,,,,,,,,,,,,,,,,,,,,,,,,,,,,,,,,,,,,,,,,,,,,,,,,,,,,,,,,,,,,,,,,,,,,,,,,,,,,,,,,,,,,,,,,,,,,,,,,,,,,,,,,,,,,
1702547332,1702547333,124,0,4423.461426,4647.179688,4492.563965,4445,4387.563965,4466.666504,4347.94873,4343.333496,4863.461426,4419.615234,4452.94873,4542.563965,4220.128418,4579.358887,6519,3,70,,,,0,4,4,4,4,4,4,4,4,4,4,4,4,4,4,100,,,,,,,,,,,,,,,,,31,0,0.687341,-0.473145,-0.394409,-0.384888,0.932243,-0.307166,0.199243,-10.655149,-7.069658,96.770691,,,,,,,,,,,,,,,,,,,,,,,,,,,,,,,,,,,,,,,,,,,,,,,,,,,,,,,,,,,,,,,,,,,,,,,,,,,,,,,,,,,,,,,,,,,,,,,,,,,,,,,,,,
1702547332,1702547333,125,0,4424.102539,4667.05127,4484.487305,4448.461426,4370.512695,4462.307617,4340.769043,4338.717773,4813.974121,4423.461426,4430.512695,4530.769043,4217.307617,4566.025879,4452,3,70,,,,0,4,4,4,4,4,4,4,4,4,4,4,4,4,4,100,,,,,,,,,,,,,,,,,,,,,,,,,,,,,,,,,,,,,,,,,,,,,,,,,,,,,,,,,,,,,,,,,,,,,,,,,,,,,,,,,,,,,,,,,,,,,,,,,,,,,,,,,,,,,,,,,,,,,,,,,,,,,,,,,,,,,,
1702547332,1702547333,126,0,4404.871582,4648.974121,4462.820313,4430.128418,4400.128418,4451.538574,4327.692383,4328.333496,4756.410156,4417.692383,4394.358887,4518.077148,4189.487305,4532.179688,5983,3,70,,,,0,4,4,4,4,4,4,4,4,4,4,4,4,4,4,100,,,,,,,,,,,,,,,,,,,,,,,,,,,,,,,,,,,,,,,,,,,,,,,,,,,,,,,,,,,,,,,,,104.639282,6.713677,3.237015,1.850089,1.201531,278.586212,14.698523,3.616638,1.51879,1.059882,33.259327,2.537549,2.89132,1.367277,0.956063,78.16877,4.722706,3.229126,1.718166,1.14366,3.290745,0.928339,1.888521,1.012104,1.674576,37.069878,3.845142,5.406862,0.94607,0.612721,3.067731,0.831192,1.198615,0.624595,0.530042,1.785375,0.429087,0.864707,0.384233,0.357825,185.239609,48.449772,12.96556,11.467463,3.468422,6.901683,1.342399,3.467313,2.064253,1.103517,32.517506,7.707087,4.350156,2.886025,1.503825,10.179642,1.248804,1.977398,0.786428,0.738452,58.580318,4.087583,4.985381,2.433266,1.356125,90.811729,5.801977,5.838563,3.32281,1.515257
1702547332,1702547333,127,0,4378.077148,4625.128418,4436.410156,4401.410156,4416.538574,4440.512695,4307.563965,4310.641113,4714.871582,4375.897461,4357.307617,4500.512695,4172.94873,4494.487305,70,3,70,,,,0,4,4,4,4,4,4,4,4,4,4,4,4,4,4,100,,,,,,,,,,,,,,,,,,,,,,,,,,,,,,,,,,,,,,,,,,,,,,,,,,,,,,,,,,,,,,,,,,,,,,,,,,,,,,,,,,,,,,,,,,,,,,,,,,,,,,,,,,,,,,,,,,,,,,,,,,,,,,,,,,,,,,
1702547332,1702547333,0,0,4372.307617,4622.307617,4425.897461,4384.102539,4394.358887,4441.282227,4305.641113,4313.846191,4678.461426,4350,4348.589844,4490.128418,4183.717773,4482.563965,5430,3,70,,,,0,4,4,4,4,4,4,4,4,4,4,4,4,4,4,100,,,,,,,,,,,,,,,,,0,0,0.687334,-0.473206,-0.394348,-0.384888,0.916127,-0.305701,0.199243,-10.872969,-7.029359,96.710289,,,,,,,,,,,,,,,,,,,,,,,,,,,,,,,,,,,,,,,,,,,,,,,,,,,,,,,,,,,,,,,,,,,,,,,,,,,,,,,,,,,,,,,,,,,,,,,,,,,,,,,,,,
1702547332,1702547333,1,0,4368.717773,4600.256348,4426.410156,4370.128418,4372.307617,4445,4313.589844,4323.461426,4617.179688,4360.641113,4354.871582,4492.563965,4199.102539,4478.333496,5738,3,70,,,,0,4,4,4,4,4,4,4,4,4,4,4,4,4,4,100,,,,,,,,,,,,,,,,,,,,,,,,,,,,,,,,,,,,,,,,,,,,,,,,,,,,,,,,,,,,,,,,,,,,,,,,,,,,,,,,,,,,,,,,,,,,,,,,,,,,,,,,,,,,,,,,,,,,,,,,,,,,,,,,,,,,,,
1702547332,1702547333,2,0,4347.94873,4561.282227,4409.743652,4346.922852,4366.666504,4441.282227,4301.538574,4312.436035,4542.307617,4355.641113,4336.666504,4484.871582,4200.641113,4449.871582,5659,3,70,,,,0,4,4,4,4,4,4,4,4,4,4,4,4,4,4,100,,,,,,,,,,,,,,,,,,,,,,,,,,,,,,,,,,,,,,,,,,,,,,,,,,,,,,,,,,,,,,,,,,,,,,,,,,,,,,,,,,,,,,,,,,,,,,,,,,,,,,,,,,,,,,,,,,,,,,,,,,,,,,,,,,,,,,
1702547332,1702547333,3,0,4343.974121,4548.077148,4398.333496,4336.922852,4353.974121,4442.436035,4295.512695,4310,4501.025879,4339.487305,4324.615234,4481.153809,4212.436035,4435.256348,5571,3,70,,,,0,4,4,4,4,4,4,4,4,4,4,4,4,4,4,100,,,,,,,,,,,,,,,,,,,,,,,,,,,,,,,,,,,,,,,,,,,,,,,,,,,,,,,,,,,,,,,,,,,,,,,,,,,,,,,,,,,,,,,,,,,,,,,,,,,,,,,,,,,,,,,,,,,,,,,,,,,,,,,,,,,,,,
1702547332,1702547333,4,0,4356.666504,4542.563965,4407.05127,4335.769043,4345.641113,4445.512695,4305.384766,4325,4487.307617,4345.769043,4338.589844,4487.94873,4242.05127,4444.358887,4228,3,70,,,,0,4,4,4,4,4,4,4,4,4,4,4,4,4,4,100,,,,,,,,,,,,,,,,,1,0,0.687348,-0.473083,-0.394409,-0.384949,0.914662,-0.311561,0.18557,-11.002338,-7.009757,96.839264,,,,,,,,,,,,,,,,,,,,,,,,,,,,,,,,,,,,,,,,,,,,,,,,,,,,,,,,,,,,,,,,,,,,,,,,,,,,,,,,,,,,,,,,,,,,,,,,,,,,,,,,,,
1702547332,1702547333,5,0,4347.563965,4515.769043,4397.94873,4318.077148,4360.512695,4443.846191,4299.358887,4320.897461,4466.410156,4350,4335.384766,4478.589844,4253.205078,4427.179688,3139,3,70,,,,0,4,4,4,4,4,4,4,4,4,4,4,4,4,4,100,,,,,,,,,,,,,,,,,,,,,,,,,,,,,,,,,,,,,,,,,,,,,,,,,,,,,,,,,,,,,,,,,,,,,,,,,,,,,,,,,,,,,,,,,,,,,,,,,,,,,,,,,,,,,,,,,,,,,,,,,,,,,,,,,,,,,,
1702547332,1702547333,6,0,4334.615234,4491.282227,4384.615234,4303.974121,4365.256348,4444.230957,4289.358887,4308.205078,4452.307617,4332.307617,4327.05127,4471.153809,4244.615234,4406.410156,4191,3,70,,,,0,4,4,4,4,4,4,4,4,4,4,4,4,4,4,100,,,,,,,,,,,,,,,,,,,,,,,,,,,,,,,,,,,,,,,,,,,,,,,,,,,,,,,,,,,,,,,,,,,,,,,,,,,,,,,,,,,,,,,,,,,,,,,,,,,,,,,,,,,,,,,,,,,,,,,,,,,,,,,,,,,,,,
1702547332,1702547333,7,0,4335.769043,4485.128418,4389.102539,4303.077148,4348.717773,4446.666504,4294.487305,4310.897461,4456.538574,4315.384766,4340.897461,4477.436035,4251.666504,4413.077148,3044,3,70,,,,0,4,4,4,4,4,4,4,4,4,4,4,4,4,4,100,,,,,,,,,,,,,,,,,,,,,,,,,,,,,,,,,,,,,,,,,,,,,,,,,,,,,,,,,,,,,,,,,,,,,,,,,,,,,,,,,,,,,,,,,,,,,,,,,,,,,,,,,,,,,,,,,,,,,,,,,,,,,,,,,,,,,,
1702547332,1702547333,8,0,4318.077148,4463.717773,4376.922852,4288.717773,4341.282227,4444.358887,4289.615234,4311.666504,4452.692383,4321.794922,4331.410156,4465,4257.179688,4401.666504,2703,3,70,,,,0,4,4,4,4,4,4,4,4,4,4,4,4,4,4,100,,,,,,,,,,,,,,,,,2,0,0.687404,-0.473206,-0.394226,-0.384888,0.923941,-0.30033,0.195336,-11.002104,-7.158781,96.955338,,,,,,,,,,,,,,,,,,,,,,,,,,,,,,,,,,,,,,,,,,,,,,,,,,,,,,,,,,,,,,,,,,,,,,,,,,,,,,,,,,,,,,,,,,,,,,,,,,,,,,,,,,
1702547332,1702547333,9,0,4295.512695,4429.230957,4358.974121,4274.102539,4338.333496,4441.153809,4277.179688,4304.871582,4440.641113,4329.743652,4308.205078,4450.641113,4248.846191,4376.538574,5502,3,70,,,,0,4,4,4,4,4,4,4,4,4,4,4,4,4,4,100,,,,,,,,,,,,,,,,,,,,,,,,,,,,,,,,,,,,,,,,,,,,,,,,,,,,,,,,,,,,,,,,,,,,,,,,,,,,,,,,,,,,,,,,,,,,,,,,,,,,,,,,,,,,,,,,,,,,,,,,,,,,,,,,,,,,,,
1702547332,1702547333,10,0,4298.717773,4421.538574,4367.307617,4277.820313,4317.436035,4440.769043,4282.563965,4303.077148,4439.615234,4316.922852,4324.615234,4462.563965,4257.563965,4382.179688,6010,3,70,,,,0,4,4,4,4,4,4,4,4,4,4,4,4,4,4,100,,,,,,,,,,,,,,,,,,,,,,,,,,,,,,,,,,,,,,,,,,,,,,,,,,,,,,,,,,,,,,,,,,,,,,,,,,,,,,,,,,,,,,,,,,,,,,,,,,,,,,,,,,,,,,,,,,,,,,,,,,,,,,,,,,,,,,
1702547332,1702547333,11,0,4308.974121,4427.307617,4375.256348,4279.615234,4311.410156,4442.692383,4291.282227,4306.153809,4443.333496,4308.846191,4348.717773,4470.897461,4268.846191,4390.897461,6108,3,70,,,,0,4,4,4,4,4,4,4,4,4,4,4,4,4,4,100,,,,,,,,,,,,,,,,,,,,,,,,,,,,,,,,,,,,,,,,,,,,,,,,,,,,,,,,,,,,,,,,,,,,,,,,,,,,,,,,,,,,,,,,,,,,,,,,,,,,,,,,,,,,,,,,,,,,,,,,,,,,,,,,,,,,,,
1702547332,1702547333,12,0,4315,4416.922852,4373.333496,4280,4337.820313,4451.666504,4295.641113,4313.205078,4443.974121,4321.922852,4361.666504,4468.974121,4274.102539,4389.230957,6543,3,70,,,,0,4,4,4,4,4,4,4,4,4,4,4,4,4,4,100,,,,,,,,,,,,,,,,,3,0,0.68739,-0.473328,-0.394104,-0.384888,0.924918,-0.313515,0.191918,-11.085227,-7.176236,96.943138,,,,,,,,,,,,,,,,,,,,,,,,,,,,,,,,,,,,,,,,,,,,,,,,,,,,,,,,,,,,,,,,,,,,,,,,,,,,,,,,,,,,,,,,,,,,,,,,,,,,,,,,,,
1702547332,1702547333,13,0,4307.563965,4396.282227,4368.846191,4276.794922,4349.230957,4460.256348,4295.128418,4313.333496,4438.717773,4320.641113,4368.205078,4466.922852,4277.692383,4384.743652,4467,3,70,,,,0,4,4,4,4,4,4,4,4,4,4,4,4,4,4,100,,,,,,,,,,,,,,,,,,,,,,,,,,,,,,,,,,,,,,,,,,,,,,,,,,,,,,,,,,,,,,,,,,,,,,,,,,,,,,,,,,,,,,,,,,,,,,,,,,,,,,,,,,,,,,,,,,,,,,,,,,,,,,,,,,,,,,
1702547332,1702547333,14,0,4270.897461,4367.820313,4341.025879,4248.974121,4324.358887,4459.102539,4280.897461,4296.666504,4422.820313,4288.461426,4341.282227,4443.846191,4253.589844,4352.94873,6010,3,70,,,,0,4,4,4,4,4,4,4,4,4,4,4,4,4,4,100,,,,,,,,,,,,,,,,,,,,,,,,,,,,,,,,,,,,,,,,,,,,,,,,,,,,,,,,,,,,,,,,,124.403877,6.917186,3.030595,1.994919,1.086374,342.238098,15.424475,3.89078,1.725771,1.033927,36.940166,2.211137,2.626004,1.389307,0.89263,92.875496,4.680251,3.07978,1.734859,1.058614,2.337275,0.730558,1.807501,1.062834,1.503652,42.255692,5.134534,5.825313,1.038283,0.657279,2.638559,0.644102,1.01812,0.621061,0.497835,1.538009,0.339276,0.711098,0.382321,0.379308,259.183502,59.933578,18.975227,14.756599,4.133037,5.470716,0.976824,3.304482,2.285351,0.973903,42.026852,9.203745,3.325402,3.036437,1.311403,9.951741,0.982588,1.729038,0.797743,0.7221,71.036118,4.407582,4.926131,2.501819,1.262969,107.140335,5.891571,5.72391,3.579139,1.370993
1702547332,1702547333,15,0,4252.307617,4347.307617,4322.563965,4231.666504,4307.307617,4458.461426,4275.641113,4292.563965,4413.589844,4270.641113,4322.05127,4429.487305,4237.820313,4329.230957,6108,3,70,,,,0,4,4,4,4,4,4,4,4,4,4,4,4,4,4,100,,,,,,,,,,,,,,,,,,,,,,,,,,,,,,,,,,,,,,,,,,,,,,,,,,,,,,,,,,,,,,,,,,,,,,,,,,,,,,,,,,,,,,,,,,,,,,,,,,,,,,,,,,,,,,,,,,,,,,,,,,,,,,,,,,,,,,
1702547332,1702547333,16,0,4291.153809,4362.179688,4353.974121,4261.410156,4328.077148,4464.487305,4292.05127,4312.563965,4427.179688,4293.077148,4362.820313,4460.128418,4278.846191,4364.615234,0,3,70,,,,0,4,4,4,4,4,4,4,4,4,4,4,4,4,4,100,,,,,,,,,,,,,,,,,4,0,0.687197,-0.473511,-0.393982,-0.385132,0.940056,-0.305701,0.195336,-11.143372,-7.125279,97.115486,,,,,,,,,,,,,,,,,,,,,,,,,,,,,,,,,,,,,,,,,,,,,,,,,,,,,,,,,,,,,,,,,,,,,,,,,,,,,,,,,,,,,,,,,,,,,,,,,,,,,,,,,,
1702547332,1702547333,17,0,4317.05127,4375.256348,4379.743652,4279.358887,4336.025879,4461.666504,4291.025879,4314.487305,4443.077148,4313.461426,4388.974121,4476.153809,4306.153809,4396.153809,0,3,70,,,,0,4,4,4,4,4,4,4,4,4,4,4,4,4,4,100,,,,,,,,,,,,,,,,,,,,,,,,,,,,,,,,,,,,,,,,,,,,,,,,,,,,,,,,,,,,,,,,,,,,,,,,,,,,,,,,,,,,,,,,,,,,,,,,,,,,,,,,,,,,,,,,,,,,,,,,,,,,,,,,,,,,,,
1702547332,1702547333,18,0,4287.307617,4349.102539,4361.538574,4250.769043,4315.897461,4455.641113,4267.05127,4293.333496,4440.641113,4295,4353.589844,4450.512695,4277.94873,4370.897461,0,3,70,,,,0,4,4,4,4,4,4,4,4,4,4,4,4,4,4,100,,,,,,,,,,,,,,,,,,,,,,,,,,,,,,,,,,,,,,,,,,,,,,,,,,,,,,,,,,,,,,,,,,,,,,,,,,,,,,,,,,,,,,,,,,,,,,,,,,,,,,,,,,,,,,,,,,,,,,,,,,,,,,,,,,,,,,
1702547332,1702547333,19,0,4262.820313,4321.025879,4346.282227,4233.589844,4311.922852,4459.102539,4261.794922,4291.922852,4458.717773,4270.897461,4325.769043,4437.820313,4254.871582,4352.436035,0,3,70,,,,0,4,4,4,4,4,4,4,4,4,4,4,4,4,4,100,,,,,,,,,,,,,,,,,,,,,,,,,,,,,,,,,,,,,,,,,,,,,,,,,,,,,,,,,,,,,,,,,,,,,,,,,,,,,,,,,,,,,,,,,,,,,,,,,,,,,,,,,,,,,,,,,,,,,,,,,,,,,,,,,,,,,,
1702547332,1702547333,20,0,4251.794922,4298.974121,4351.538574,4227.436035,4303.205078,4455.128418,4267.436035,4298.846191,4547.179688,4266.922852,4313.205078,4437.94873,4231.538574,4358.077148,0,3,70,,,,0,4,4,4,4,4,4,4,4,4,4,4,4,4,4,100,,,,,,,,,,,,,,,,,5,0,0.687155,-0.473572,-0.393982,-0.385132,0.920034,-0.319863,0.200708,-11.045701,-7.229418,97.03727,,,,,,,,,,,,,,,,,,,,,,,,,,,,,,,,,,,,,,,,,,,,,,,,,,,,,,,,,,,,,,,,,,,,,,,,,,,,,,,,,,,,,,,,,,,,,,,,,,,,,,,,,,
1702547332,1702547333,21,0,4220.256348,4259.102539,4356.153809,4200,4272.820313,4446.282227,4260.384766,4285.769043,4654.230957,4254.871582,4276.153809,4422.05127,4185.897461,4348.333496,0,3,70,,,,0,4,4,4,4,4,4,4,4,4,4,4,4,4,4,100,,,,,,,,,,,,,,,,,,,,,,,,,,,,,,,,,,,,,,,,,,,,,,,,,,,,,,,,,,,,,,,,,,,,,,,,,,,,,,,,,,,,,,,,,,,,,,,,,,,,,,,,,,,,,,,,,,,,,,,,,,,,,,,,,,,,,,
1702547332,1702547333,22,0,4198.846191,4236.410156,4362.436035,4188.974121,4271.025879,4451.794922,4257.692383,4277.692383,4702.563965,4244.615234,4240.769043,4411.538574,4157.94873,4338.077148,0,3,70,,,,0,4,4,4,4,4,4,4,4,4,4,4,4,4,4,100,,,,,,,,,,,,,,,,,,,,,,,,,,,,,,,,,,,,,,,,,,,,,,,,,,,,,,,,,,,,,,,,,,,,,,,,,,,,,,,,,,,,,,,,,,,,,,,,,,,,,,,,,,,,,,,,,,,,,,,,,,,,,,,,,,,,,,
1702547333,1702547333,23,0,4202.563965,4241.666504,4366.538574,4197.179688,4294.358887,4461.666504,4264.102539,4285.384766,4718.846191,4249.358887,4230.256348,4412.94873,4148.077148,4342.307617,0,3,70,,,,0,4,4,4,4,4,4,4,4,4,4,4,4,4,4,100,,,,,,,,,,,,,,,,,,,,,,,,,,,,,,,,,,,,,,,,,,,,,,,,,,,,,,,,,,,,,,,,,,,,,,,,,,,,,,,,,,,,,,,,,,,,,,,,,,,,,,,,,,,,,,,,,,,,,,,,,,,,,,,,,,,,,,
1702547333,1702547333,24,0,4196.922852,4232.692383,4356.153809,4185.769043,4299.615234,4457.94873,4261.538574,4288.846191,4740.641113,4246.025879,4219.871582,4404.743652,4131.794922,4335.897461,0,3,70,,,,0,4,4,4,4,4,4,4,4,4,4,4,4,4,4,100,,,,,,,,,,,,,,,,,6,0,0.687155,-0.473572,-0.393921,-0.385193,0.907337,-0.303748,0.187035,-11.041131,-7.156476,97.166878,,,,,,,,,,,,,,,,,,,,,,,,,,,,,,,,,,,,,,,,,,,,,,,,,,,,,,,,,,,,,,,,,,,,,,,,,,,,,,,,,,,,,,,,,,,,,,,,,,,,,,,,,,
1702547333,1702547333,25,0,4192.436035,4223.205078,4354.102539,4184.230957,4280.256348,4458.461426,4261.025879,4289.358887,4749.487305,4231.922852,4217.05127,4403.846191,4129.358887,4330.769043,0,3,70,,,,0,4,4,4,4,4,4,4,4,4,4,4,4,4,4,100,,,,,,,,,,,,,,,,,,,,,,,,,,,,,,,,,,,,,,,,,,,,,,,,,,,,,,,,,,,,,,,,,,,,,,,,,,,,,,,,,,,,,,,,,,,,,,,,,,,,,,,,,,,,,,,,,,,,,,,,,,,,,,,,,,,,,,
1702547333,1702547333,26,0,4213.205078,4238.461426,4375,4214.230957,4264.102539,4471.410156,4274.102539,4297.94873,4740,4230.256348,4242.692383,4421.666504,4143.846191,4352.179688,0,3,70,,,,0,4,4,4,4,4,4,4,4,4,4,4,4,4,4,100,,,,,,,,,,,,,,,,,,,,,,,,,,,,,,,,,,,,,,,,,,,,,,,,,,,,,,,,,,,,,,,,,,,,,,,,,,,,,,,,,,,,,,,,,,,,,,,,,,,,,,,,,,,,,,,,,,,,,,,,,,,,,,,,,,,,,,
1702547333,1702547333,27,0,4231.153809,4242.563965,4386.794922,4231.025879,4286.153809,4477.94873,4281.153809,4304.487305,4726.922852,4253.974121,4270.769043,4432.307617,4150.897461,4366.153809,0,3,70,,,,0,4,4,4,4,4,4,4,4,4,4,4,4,4,4,100,,,,,,,,,,,,,,,,,,,,,,,,,,,,,,,,,,,,,,,,,,,,,,,,,,,,,,,,,,,,,,,,,,,,,,,,,,,,,,,,,,,,,,,,,,,,,,,,,,,,,,,,,,,,,,,,,,,,,,,,,,,,,,,,,,,,,,
1702547333,1702547333,28,0,4230.128418,4229.615234,4379.871582,4228.461426,4319.871582,4477.179688,4279.487305,4304.487305,4710.769043,4279.615234,4287.179688,4435.256348,4157.563965,4359.871582,0,3,70,,,,0,4,4,4,4,4,4,4,4,4,4,4,4,4,4,100,,,,,,,,,,,,,,,,,7,0,0.687134,-0.473755,-0.393738,-0.385193,0.919057,-0.308143,0.190453,-11.103684,-7.157495,97.183525,,,,,,,,,,,,,,,,,,,,,,,,,,,,,,,,,,,,,,,,,,,,,,,,,,,,,,,,,,,,,,,,,,,,,,,,,,,,,,,,,,,,,,,,,,,,,,,,,,,,,,,,,,
1702547333,1702547333,29,0,4229.743652,4231.025879,4377.436035,4229.871582,4311.794922,4478.205078,4279.615234,4307.05127,4693.077148,4284.743652,4297.05127,4439.743652,4169.230957,4356.538574,0,3,70,,,,0,4,4,4,4,4,4,4,4,4,4,4,4,4,4,100,,,,,,,,,,,,,,,,,,,,,,,,,,,,,,,,,,,,,,,,,,,,,,,,,,,,,,,,,,,,,,,,,,,,,,,,,,,,,,,,,,,,,,,,,,,,,,,,,,,,,,,,,,,,,,,,,,,,,,,,,,,,,,,,,,,,,,
1702547333,1702547333,30,0,4227.436035,4233.333496,4372.436035,4229.743652,4293.589844,4482.179688,4279.102539,4308.077148,4674.871582,4271.025879,4292.307617,4433.846191,4165,4349.871582,0,3,70,,,,0,4,4,4,4,4,4,4,4,4,4,4,4,4,4,100,1,0,1,1,1,0,1,0,1,3,0,1,0,3,1,1,,,,,,,,,,,,,,,,,,,,,,,,,,,,,,,,,,,,,,,,,,,,,,,,,129.065384,6.399912,2.789409,2.147538,1.029608,364.17337,14.316082,4.010636,1.952904,1.017367,37.402504,1.853214,2.314349,1.470789,0.87952,96.279877,4.178285,2.929576,1.812882,1.037022,1.461311,0.598367,1.734976,1.204051,1.339177,48.517838,7.161647,6.14763,1.183355,0.731895,2.124962,0.516402,0.848944,0.637632,0.5099,1.270939,0.301438,0.57189,0.380686,0.413974,347.670868,80.025131,34.529949,20.245394,5.342982,4.042442,0.811251,3.230484,2.529503,0.951401,49.080437,10.219027,2.526436,3.264897,1.253264,8.925417,0.747145,1.479622,0.864231,0.739467,78.552536,5.401571,4.984615,2.648346,1.220044,111.984314,5.719025,5.631372,3.904304,1.323915
1702547333,1702547333,31,0,4229.230957,4234.487305,4372.563965,4237.820313,4295.897461,4488.717773,4285.256348,4311.282227,4660.128418,4277.563965,4296.538574,4432.05127,4167.179688,4350.769043,0,3,70,,,,0,4,4,4,4,4,4,4,4,4,4,4,4,4,4,100,,,,,,,,,,,,,,,,,,,,,,,,,,,,,,,,,,,,,,,,,,,,,,,,,,,,,,,,,,,,,,,,,,,,,,,,,,,,,,,,,,,,,,,,,,,,,,,,,,,,,,,,,,,,,,,,,,,,,,,,,,,,,,,,,,,,,,
1702547333,1702547333,32,0,4251.538574,4253.974121,4393.846191,4262.05127,4297.307617,4496.922852,4297.307617,4321.153809,4651.410156,4304.615234,4329.487305,4453.846191,4202.307617,4380.897461,0,3,70,,,,0,4,4,4,4,4,4,4,4,4,4,4,4,4,4,100,,,,,,,,,,,,,,,,,8,0,0.687113,-0.473938,-0.393555,-0.385193,0.931266,-0.300818,0.180686,-11.059982,-7.191746,97.198502,,,,,,,,,,,,,,,,,,,,,,,,,,,,,,,,,,,,,,,,,,,,,,,,,,,,,,,,,,,,,,,,,,,,,,,,,,,,,,,,,,,,,,,,,,,,,,,,,,,,,,,,,,
1702547333,1702547333,33,0,4267.05127,4271.794922,4404.102539,4274.102539,4308.333496,4496.153809,4297.05127,4320.769043,4635.384766,4301.538574,4346.153809,4465.384766,4222.820313,4400.128418,0,3,70,,,,0,4,4,4,4,4,4,4,4,4,4,4,4,4,4,100,,,,,,,,,,,,,,,,,,,,,,,,,,,,,,,,,,,,,,,,,,,,,,,,,,,,,,,,,,,,,,,,,,,,,,,,,,,,,,,,,,,,,,,,,,,,,,,,,,,,,,,,,,,,,,,,,,,,,,,,,,,,,,,,,,,,,,
1702547333,1702547333,34,0,4267.94873,4276.282227,4400.384766,4275,4334.871582,4494.358887,4297.179688,4315,4620.256348,4297.94873,4338.077148,4458.589844,4218.333496,4395,0,3,70,,,,0,4,4,4,4,4,4,4,4,4,4,4,4,4,4,100,,,,,,,,,,,,,,,,,,,,,,,,,,,,,,,,,,,,,,,,,,,,,,,,,,,,,,,,,,,,,,,,,,,,,,,,,,,,,,,,,,,,,,,,,,,,,,,,,,,,,,,,,,,,,,,,,,,,,,,,,,,,,,,,,,,,,,
1702547333,1702547333,35,0,4269.102539,4276.794922,4404.743652,4279.230957,4337.692383,4496.025879,4305.384766,4318.717773,4622.05127,4317.436035,4337.05127,4457.563965,4223.589844,4391.410156,0,3,70,,,,0,4,4,4,4,4,4,4,4,4,4,4,4,4,4,100,,,,,,,,,,,,,,,,,,,,,,,,,,,,,,,,,,,,,,,,,,,,,,,,,,,,,,,,,,,,,,,,,,,,,,,,,,,,,,,,,,,,,,,,,,,,,,,,,,,,,,,,,,,,,,,,,,,,,,,,,,,,,,,,,,,,,,
1702547333,1702547333,36,0,4279.487305,4288.205078,4414.871582,4291.410156,4323.589844,4497.563965,4309.871582,4326.794922,4649.230957,4327.307617,4348.974121,4468.589844,4237.94873,4400.897461,0,3,70,,,,0,4,4,4,4,4,4,4,4,4,4,4,4,4,4,100,,,,,,,,,,,,,,,,,9,0,0.687141,-0.473999,-0.393433,-0.385193,0.933219,-0.301795,0.192895,-10.903984,-6.972571,96.978653,,,,,,,,,,,,,,,,,,,,,,,,,,,,,,,,,,,,,,,,,,,,,,,,,,,,,,,,,,,,,,,,,,,,,,,,,,,,,,,,,,,,,,,,,,,,,,,,,,,,,,,,,,
1702547333,1702547333,37,0,4301.025879,4316.922852,4428.589844,4315.128418,4329.230957,4505.256348,4316.794922,4330.256348,4653.333496,4330.897461,4366.153809,4481.410156,4259.102539,4419.615234,0,3,70,,,,0,4,4,4,4,4,4,4,4,4,4,4,4,4,4,100,,,,,,,,,,,,,,,,,,,,,,,,,,,,,,,,,,,,,,,,,,,,,,,,,,,,,,,,,,,,,,,,,,,,,,,,,,,,,,,,,,,,,,,,,,,,,,,,,,,,,,,,,,,,,,,,,,,,,,,,,,,,,,,,,,,,,,
1702547333,1702547333,38,0,4303.846191,4326.153809,4427.563965,4319.871582,4344.487305,4507.307617,4315.384766,4326.794922,4637.179688,4325.897461,4361.794922,4476.410156,4263.461426,4419.871582,0,3,70,,,,0,4,4,4,4,4,4,4,4,4,4,4,4,4,4,100,,,,,,,,,,,,,,,,,,,,,,,,,,,,,,,,,,,,,,,,,,,,,,,,,,,,,,,,,,,,,,,,,,,,,,,,,,,,,,,,,,,,,,,,,,,,,,,,,,,,,,,,,,,,,,,,,,,,,,,,,,,,,,,,,,,,,,
1702547333,1702547333,39,0,4290.512695,4312.94873,4415.128418,4306.666504,4349.871582,4502.436035,4306.282227,4325.384766,4743.846191,4310.769043,4344.743652,4465.256348,4232.820313,4415.769043,0,3,70,,,,0,4,4,4,4,4,4,4,4,4,4,4,4,4,4,100,,,,,,,,,,,,,,,,,,,,,,,,,,,,,,,,,,,,,,,,,,,,,,,,,,,,,,,,,,,,,,,,,,,,,,,,,,,,,,,,,,,,,,,,,,,,,,,,,,,,,,,,,,,,,,,,,,,,,,,,,,,,,,,,,,,,,,
1702547333,1702547333,40,0,4307.307617,4331.282227,4434.615234,4326.410156,4356.025879,4513.077148,4320.641113,4338.461426,4909.358887,4329.102539,4358.846191,4480.769043,4217.692383,4451.538574,0,3,70,,,,0,4,4,4,4,4,4,4,4,4,4,4,4,4,4,100,,,,,,,,,,,,,,,,,10,0,0.687118,-0.474182,-0.393372,-0.385071,0.933219,-0.314492,0.193871,-10.946919,-7.008647,97.047455,,,,,,,,,,,,,,,,,,,,,,,,,,,,,,,,,,,,,,,,,,,,,,,,,,,,,,,,,,,,,,,,,,,,,,,,,,,,,,,,,,,,,,,,,,,,,,,,,,,,,,,,,,
1702547333,1702547333,41,0,4342.307617,4368.077148,4469.615234,4361.538574,4363.077148,4529.487305,4344.615234,4349.871582,4891.025879,4380.641113,4384.230957,4506.025879,4247.436035,4487.05127,0,3,70,,,,0,4,4,4,4,4,4,4,4,4,4,4,4,4,4,100,,,,,,,,,,,,,,,,,,,,,,,,,,,,,,,,,,,,,,,,,,,,,,,,,,,,,,,,,,,,,,,,,,,,,,,,,,,,,,,,,,,,,,,,,,,,,,,,,,,,,,,,,,,,,,,,,,,,,,,,,,,,,,,,,,,,,,
1702547333,1702547333,42,0,4343.077148,4370.897461,4466.410156,4357.692383,4363.077148,4525.641113,4337.94873,4345.256348,4752.436035,4388.333496,4375.256348,4502.692383,4269.743652,4467.563965,0,3,70,,,,0,4,4,4,4,4,4,4,4,4,4,4,4,4,4,100,,,,,,,,,,,,,,,,,,,,,,,,,,,,,,,,,,,,,,,,,,,,,,,,,,,,,,,,,,,,,,,,,,,,,,,,,,,,,,,,,,,,,,,,,,,,,,,,,,,,,,,,,,,,,,,,,,,,,,,,,,,,,,,,,,,,,,
1702547333,1702547333,43,0,4328.974121,4360.384766,4452.307617,4344.358887,4363.717773,4516.410156,4322.94873,4341.538574,4698.461426,4355.384766,4338.461426,4493.333496,4266.410156,4440.512695,0,3,70,,,,0,4,4,4,4,4,4,4,4,4,4,4,4,4,4,100,,,,,,,,,,,,,,,,,,,,,,,,,,,,,,,,,,,,,,,,,,,,,,,,,,,,,,,,,,,,,,,,,,,,,,,,,,,,,,,,,,,,,,,,,,,,,,,,,,,,,,,,,,,,,,,,,,,,,,,,,,,,,,,,,,,,,,
1702547333,1702547333,44,0,4338.333496,4370.769043,4460.897461,4360.128418,4362.179688,4524.230957,4331.410156,4347.94873,4694.615234,4354.487305,4297.94873,4505,4282.436035,4450.769043,0,3,70,,,,0,4,4,4,4,4,4,4,4,4,4,4,4,4,4,100,,,,,,,,,,,,,,,,,11,0,0.687075,-0.474243,-0.393433,-0.38501,0.928336,-0.303748,0.202661,-10.968894,-6.891116,97.159378,,,,,,,,,,,,,,,,,,,,,,,,,,,,,,,,,,,,,,,,,,,,,,,,,,,,,,,,,,,,,,,,,,,,,,,,,,,,,,,,,,,,,,,,,,,,,,,,,,,,,,,,,,
1702547333,1702547333,45,0,4349.743652,4377.436035,4463.974121,4368.846191,4362.436035,4531.794922,4339.615234,4350.641113,4667.179688,4379.615234,4255.641113,4513.333496,4315.897461,4459.230957,0,3,70,,,,0,4,4,4,4,4,4,4,4,4,4,4,4,4,4,100,,,,,,,,,,,,,,,,,,,,,,,,,,,,,,,,,,,,,,,,,,,,,,,,,,,,,,,,,,,,,,,,,,,,,,,,,,,,,,,,,,,,,,,,,,,,,,,,,,,,,,,,,,,,,,,,,,,,,,,,,,,,,,,,,,,,,,
1702547333,1702547333,46,0,4347.307617,4365.256348,4457.692383,4356.410156,4379.230957,4530,4334.102539,4349.102539,4649.230957,4389.102539,4224.615234,4511.666504,4339.615234,4454.743652,0,3,70,,,,0,4,4,4,4,4,4,4,4,4,4,4,4,4,4,100,,,,,,,,,,,,,,,,,,,,,,,,,,,,,,,,,,,,,,,,,,,,,,,,,,,,,,,,,,,,,,,,,118.03447,5.327053,2.575445,2.250969,1.030926,342.388062,11.705707,3.953193,2.136082,1.003838,34.655987,1.589303,2.020376,1.57012,0.904613,88.307045,3.400384,2.830208,1.91494,1.059798,0.923065,0.55832,1.750723,1.423366,1.221568,54.956871,9.580353,6.420183,1.377235,0.817892,1.641602,0.455509,0.722997,0.662748,0.549011,1.037256,0.324689,0.486995,0.376839,0.449023,439.695221,104.724014,57.894833,26.411734,6.800593,3.122043,0.870524,3.286007,2.749612,1.016672,51.895512,10.285867,2.159473,3.449707,1.300944,7.41264,0.598184,1.279857,0.957068,0.775531,79.156403,7.168602,5.403828,2.829058,1.218929,104.640472,5.47277,5.683762,4.161381,1.359851
1702547333,1702547333,47,0,4354.615234,4365.384766,4465.128418,4358.205078,4385.128418,4529.230957,4332.820313,4351.282227,4638.077148,4388.717773,4216.666504,4514.743652,4365,4467.436035,0,3,70,,,,0,4,4,4,4,4,4,4,4,4,4,4,4,4,4,100,,,,,,,,,,,,,,,,,,,,,,,,,,,,,,,,,,,,,,,,,,,,,,,,,,,,,,,,,,,,,,,,,,,,,,,,,,,,,,,,,,,,,,,,,,,,,,,,,,,,,,,,,,,,,,,,,,,,,,,,,,,,,,,,,,,,,,
1702547333,1702547333,48,0,4389.743652,4400.641113,4488.461426,4388.846191,4368.205078,4537.179688,4346.794922,4360.769043,4635.384766,4404.487305,4229.871582,4532.307617,4406.025879,4502.820313,0,3,70,,,,0,4,4,4,4,4,4,4,4,4,4,4,4,4,4,100,,,,,,,,,,,,,,,,,12,0,0.687075,-0.474243,-0.393433,-0.38501,0.916127,-0.305213,0.1885,-11.072004,-6.835338,97.226776,,,,,,,,,,,,,,,,,,,,,,,,,,,,,,,,,,,,,,,,,,,,,,,,,,,,,,,,,,,,,,,,,,,,,,,,,,,,,,,,,,,,,,,,,,,,,,,,,,,,,,,,,,
1702547333,1702547333,49,0,4405.769043,4416.538574,4495.512695,4401.922852,4375.512695,4548.461426,4356.666504,4367.563965,4637.179688,4414.230957,4235,4542.94873,4425.256348,4517.94873,0,3,70,,,,0,4,4,4,4,4,4,4,4,4,4,4,4,4,4,100,,,,,,,,,,,,,,,,,,,,,,,,,,,,,,,,,,,,,,,,,,,,,,,,,,,,,,,,,,,,,,,,,,,,,,,,,,,,,,,,,,,,,,,,,,,,,,,,,,,,,,,,,,,,,,,,,,,,,,,,,,,,,,,,,,,,,,
1702547333,1702547333,50,0,4390.769043,4396.922852,4483.974121,4386.282227,4406.794922,4552.94873,4356.282227,4364.743652,4628.205078,4412.179688,4226.666504,4541.538574,4413.205078,4505,0,3,70,,,,0,4,4,4,4,4,4,4,4,4,4,4,4,4,4,100,,,,,,,,,,,,,,,,,,,,,,,,,,,,,,,,,,,,,,,,,,,,,,,,,,,,,,,,,,,,,,,,,,,,,,,,,,,,,,,,,,,,,,,,,,,,,,,,,,,,,,,,,,,,,,,,,,,,,,,,,,,,,,,,,,,,,,
1702547333,1702547333,51,0,4391.282227,4403.077148,4485,4386.794922,4414.871582,4556.922852,4361.666504,4368.205078,4629.230957,4425.641113,4235.641113,4546.025879,4418.974121,4505.641113,0,3,70,,,,0,4,4,4,4,4,4,4,4,4,4,4,4,4,4,100,,,,,,,,,,,,,,,,,,,,,,,,,,,,,,,,,,,,,,,,,,,,,,,,,,,,,,,,,,,,,,,,,,,,,,,,,,,,,,,,,,,,,,,,,,,,,,,,,,,,,,,,,,,,,,,,,,,,,,,,,,,,,,,,,,,,,,
1702547333,1702547333,52,0,4404.358887,4429.743652,4494.743652,4401.153809,4406.666504,4563.974121,4367.94873,4376.538574,4636.922852,4438.974121,4250.512695,4552.307617,4443.205078,4516.025879,0,3,70,,,,0,4,4,4,4,4,4,4,4,4,4,4,4,4,4,100,,,,,,,,,,,,,,,,,13,0,0.687041,-0.474243,-0.393433,-0.385071,0.913197,-0.316445,0.186546,-11.231471,-7.001804,97.27076,,,,,,,,,,,,,,,,,,,,,,,,,,,,,,,,,,,,,,,,,,,,,,,,,,,,,,,,,,,,,,,,,,,,,,,,,,,,,,,,,,,,,,,,,,,,,,,,,,,,,,,,,,
1702547333,1702547333,53,0,4402.179688,4430.897461,4492.94873,4401.025879,4410.128418,4568.846191,4365.769043,4375.641113,4628.461426,4436.282227,4251.153809,4551.282227,4446.282227,4511.025879,0,3,70,,,,0,4,4,4,4,4,4,4,4,4,4,4,4,4,4,100,,,,,,,,,,,,,,,,,,,,,,,,,,,,,,,,,,,,,,,,,,,,,,,,,,,,,,,,,,,,,,,,,,,,,,,,,,,,,,,,,,,,,,,,,,,,,,,,,,,,,,,,,,,,,,,,,,,,,,,,,,,,,,,,,,,,,,
1702547333,1702547333,54,0,4392.563965,4424.102539,4485.384766,4395.512695,4411.538574,4565.641113,4363.461426,4371.410156,4614.102539,4431.666504,4255.128418,4548.333496,4433.461426,4502.05127,0,3,70,,,,0,4,4,4,4,4,4,4,4,4,4,4,4,4,4,100,,,,,,,,,,,,,,,,,,,,,,,,,,,,,,,,,,,,,,,,,,,,,,,,,,,,,,,,,,,,,,,,,,,,,,,,,,,,,,,,,,,,,,,,,,,,,,,,,,,,,,,,,,,,,,,,,,,,,,,,,,,,,,,,,,,,,,
1702547333,1702547333,55,0,4390.384766,4433.333496,4487.05127,4398.333496,4398.974121,4558.589844,4366.410156,4371.538574,4600.512695,4426.410156,4255,4550.512695,4431.282227,4502.179688,0,3,70,,,,0,4,4,4,4,4,4,4,4,4,4,4,4,4,4,100,,,,,,,,,,,,,,,,,,,,,,,,,,,,,,,,,,,,,,,,,,,,,,,,,,,,,,,,,,,,,,,,,,,,,,,,,,,,,,,,,,,,,,,,,,,,,,,,,,,,,,,,,,,,,,,,,,,,,,,,,,,,,,,,,,,,,,
1702547333,1702547333,56,0,4392.820313,4437.692383,4488.077148,4396.794922,4386.538574,4559.230957,4363.974121,4370,4588.846191,4428.205078,4230.769043,4550.128418,4440,4502.05127,0,3,70,,,,0,4,4,4,4,4,4,4,4,4,4,4,4,4,4,100,,,,,,,,,,,,,,,,,14,0,0.687182,-0.474243,-0.393066,-0.385193,0.915639,-0.311561,0.210963,-11.058324,-7.051623,97.410355,,,,,,,,,,,,,,,,,,,,,,,,,,,,,,,,,,,,,,,,,,,,,,,,,,,,,,,,,,,,,,,,,,,,,,,,,,,,,,,,,,,,,,,,,,,,,,,,,,,,,,,,,,
1702547333,1702547333,57,0,4400.384766,4443.846191,4487.563965,4397.436035,4389.487305,4567.820313,4363.333496,4370.769043,4588.589844,4438.333496,4216.153809,4550.256348,4449.487305,4504.230957,0,3,70,,,,0,4,4,4,4,4,4,4,4,4,4,4,4,4,4,100,,,,,,,,,,,,,,,,,,,,,,,,,,,,,,,,,,,,,,,,,,,,,,,,,,,,,,,,,,,,,,,,,,,,,,,,,,,,,,,,,,,,,,,,,,,,,,,,,,,,,,,,,,,,,,,,,,,,,,,,,,,,,,,,,,,,,,
1702547333,1702547333,58,0,4412.05127,4466.666504,4499.230957,4417.179688,4415,4576.282227,4377.307617,4383.077148,4583.589844,4446.538574,4244.102539,4564.871582,4471.025879,4526.025879,0,3,70,,,,0,4,4,4,4,4,4,4,4,4,4,4,4,4,4,100,,,,,,,,,,,,,,,,,,,,,,,,,,,,,,,,,,,,,,,,,,,,,,,,,,,,,,,,,,,,,,,,,,,,,,,,,,,,,,,,,,,,,,,,,,,,,,,,,,,,,,,,,,,,,,,,,,,,,,,,,,,,,,,,,,,,,,
1702547333,1702547333,59,0,4419.743652,4482.179688,4507.307617,4432.307617,4435.512695,4575,4386.282227,4388.333496,4551.410156,4457.820313,4265.256348,4573.717773,4492.820313,4543.974121,0,3,70,,,,0,4,4,4,4,4,4,4,4,4,4,4,4,4,4,100,,,,,,,,,,,,,,,,,,,,,,,,,,,,,,,,,,,,,,,,,,,,,,,,,,,,,,,,,,,,,,,,,,,,,,,,,,,,,,,,,,,,,,,,,,,,,,,,,,,,,,,,,,,,,,,,,,,,,,,,,,,,,,,,,,,,,,
1702547333,1702547333,60,0,4414.871582,4479.230957,4497.307617,4423.205078,4421.282227,4570.641113,4378.461426,4376.794922,4514.102539,4452.94873,4250.897461,4564.743652,4484.487305,4530.769043,0,3,70,,,,0,4,4,4,4,4,4,4,4,4,4,4,4,4,4,100,,,,,,,,,,,,,,,,,15,0,0.687215,-0.474548,-0.3927,-0.385132,0.917592,-0.308143,0.202173,-11.052491,-6.996461,97.219315,,,,,,,,,,,,,,,,,,,,,,,,,,,,,,,,,,,,,,,,,,,,,,,,,,,,,,,,,,,,,,,,,,,,,,,,,,,,,,,,,,,,,,,,,,,,,,,,,,,,,,,,,,
1702547333,1702547333,61,0,4397.94873,4468.589844,4483.205078,4410.769043,4405.769043,4566.794922,4370,4369.358887,4492.436035,4424.487305,4238.205078,4554.358887,4463.333496,4510.384766,0,3,70,,,,0,4,4,4,4,4,4,4,4,4,4,4,4,4,4,100,,,,,,,,,,,,,,,,,,,,,,,,,,,,,,,,,,,,,,,,,,,,,,,,,,,,,,,,,,,,,,,,,,,,,,,,,,,,,,,,,,,,,,,,,,,,,,,,,,,,,,,,,,,,,,,,,,,,,,,,,,,,,,,,,,,,,,
1702547333,1702547333,62,0,4388.333496,4466.538574,4484.743652,4411.922852,4415.641113,4560.384766,4371.410156,4376.025879,4470.641113,4416.153809,4244.871582,4554.615234,4459.230957,4505.384766,0,3,70,,,,0,4,4,4,4,4,4,4,4,4,4,4,4,4,4,100,,,,,,,,,,,,,,,,,,,,,,,,,,,,,,,,,,,,,,,,,,,,,,,,,,,,,,,,,,,,,,,,,93.617485,4.072597,2.418544,2.283097,1.07668,277.404846,8.418675,3.748277,2.234002,0.996474,28.129097,1.492904,1.778819,1.645514,0.953847,70.329407,2.628596,2.772191,1.994242,1.100691,0.631588,0.612848,1.859101,1.689503,1.180817,59.147411,11.713595,6.588169,1.559956,0.884,1.285453,0.447921,0.652764,0.672939,0.592823,0.891065,0.397423,0.466627,0.36642,0.474161,522.39563,128.919205,84.059006,31.777109,8.177429,2.743884,1.084485,3.388829,2.893007,1.136935,51.064545,9.600465,2.212058,3.484235,1.414798,5.651365,0.56765,1.143222,1.042305,0.814511,75.460701,9.410901,6.178825,2.977161,1.245056,86.437996,5.319352,5.821429,4.233608,1.448466
1702547333,1702547333,63,0,4389.487305,4473.205078,4489.487305,4412.05127,4423.461426,4555.769043,4369.230957,4376.282227,4446.410156,4420.512695,4253.205078,4554.487305,4463.589844,4502.05127,0,3,70,,,,0,4,4,4,4,4,4,4,4,4,4,4,4,4,4,100,,,,,,,,,,,,,,,,,,,,,,,,,,,,,,,,,,,,,,,,,,,,,,,,,,,,,,,,,,,,,,,,,,,,,,,,,,,,,,,,,,,,,,,,,,,,,,,,,,,,,,,,,,,,,,,,,,,,,,,,,,,,,,,,,,,,,,
1702547333,1702547333,64,0,4388.846191,4474.230957,4486.922852,4406.025879,4402.94873,4554.487305,4361.666504,4364.615234,4437.179688,4409.743652,4257.692383,4550.256348,4458.846191,4491.153809,5419,3,70,,,,0,4,4,4,4,4,4,4,4,4,4,4,4,4,4,100,,,,,,,,,,,,,,,,,16,0,0.68718,-0.474548,-0.392761,-0.385132,0.921011,-0.298376,0.181174,-11.063909,-7.013482,97.164055,,,,,,,,,,,,,,,,,,,,,,,,,,,,,,,,,,,,,,,,,,,,,,,,,,,,,,,,,,,,,,,,,,,,,,,,,,,,,,,,,,,,,,,,,,,,,,,,,,,,,,,,,,
1702547333,1702547333,65,0,4389.615234,4477.436035,4494.230957,4414.230957,4390.641113,4553.205078,4362.820313,4366.794922,4434.487305,4427.179688,4273.589844,4552.94873,4458.205078,4488.205078,5726,3,70,,,,0,4,4,4,4,4,4,4,4,4,4,4,4,4,4,100,,,,,,,,,,,,,,,,,,,,,,,,,,,,,,,,,,,,,,,,,,,,,,,,,,,,,,,,,,,,,,,,,,,,,,,,,,,,,,,,,,,,,,,,,,,,,,,,,,,,,,,,,,,,,,,,,,,,,,,,,,,,,,,,,,,,,,
1702547333,1702547333,66,0,4398.333496,4496.410156,4505.512695,4428.205078,4395.641113,4547.05127,4365.769043,4375.641113,4423.974121,4452.820313,4299.230957,4559.743652,4471.666504,4495.384766,5644,3,70,,,,0,4,4,4,4,4,4,4,4,4,4,4,4,4,4,100,,,,,,,,,,,,,,,,,,,,,,,,,,,,,,,,,,,,,,,,,,,,,,,,,,,,,,,,,,,,,,,,,,,,,,,,,,,,,,,,,,,,,,,,,,,,,,,,,,,,,,,,,,,,,,,,,,,,,,,,,,,,,,,,,,,,,,
1702547333,1702547333,67,0,4398.077148,4510.897461,4500.641113,4426.666504,4391.410156,4541.153809,4359.743652,4368.333496,4424.487305,4427.05127,4318.717773,4560.897461,4474.230957,4497.307617,5564,3,70,,,,0,4,4,4,4,4,4,4,4,4,4,4,4,4,4,100,,,,,,,,,,,,,,,,,,,,,,,,,,,,,,,,,,,,,,,,,,,,,,,,,,,,,,,,,,,,,,,,,,,,,,,,,,,,,,,,,,,,,,,,,,,,,,,,,,,,,,,,,,,,,,,,,,,,,,,,,,,,,,,,,,,,,,
1702547333,1702547333,68,0,4386.666504,4504.102539,4489.871582,4421.538574,4395.641113,4538.717773,4358.846191,4365.128418,4457.692383,4411.922852,4336.025879,4557.820313,4463.589844,4491.794922,4203,3,70,,,,0,4,4,4,4,4,4,4,4,4,4,4,4,4,4,100,,,,,,,,,,,,,,,,,17,0,0.687223,-0.474487,-0.392639,-0.385254,0.926383,-0.332072,0.20022,-11.074184,-6.945467,97.23098,,,,,,,,,,,,,,,,,,,,,,,,,,,,,,,,,,,,,,,,,,,,,,,,,,,,,,,,,,,,,,,,,,,,,,,,,,,,,,,,,,,,,,,,,,,,,,,,,,,,,,,,,,
1702547333,1702547333,69,0,4386.922852,4503.717773,4492.179688,4426.282227,4410.384766,4539.358887,4373.333496,4377.179688,4497.820313,4432.94873,4367.692383,4558.461426,4466.282227,4488.333496,3117,3,70,,,,0,4,4,4,4,4,4,4,4,4,4,4,4,4,4,100,,,,,,,,,,,,,,,,,,,,,,,,,,,,,,,,,,,,,,,,,,,,,,,,,,,,,,,,,,,,,,,,,,,,,,,,,,,,,,,,,,,,,,,,,,,,,,,,,,,,,,,,,,,,,,,,,,,,,,,,,,,,,,,,,,,,,,
1702547333,1702547333,70,0,4397.94873,4519.102539,4502.94873,4431.410156,4413.077148,4539.743652,4381.410156,4381.282227,4514.102539,4430.641113,4414.230957,4560.897461,4479.487305,4494.871582,4181,3,70,,,,0,4,4,4,4,4,4,4,4,4,4,4,4,4,4,100,,,,,,,,,,,,,,,,,,,,,,,,,,,,,,,,,,,,,,,,,,,,,,,,,,,,,,,,,,,,,,,,,,,,,,,,,,,,,,,,,,,,,,,,,,,,,,,,,,,,,,,,,,,,,,,,,,,,,,,,,,,,,,,,,,,,,,
1702547333,1702547333,71,0,4399.487305,4522.05127,4506.153809,4433.077148,4412.692383,4540.769043,4376.922852,4378.077148,4509.615234,4420.384766,4454.487305,4562.179688,4480.384766,4502.563965,3031,3,70,,,,0,4,4,4,4,4,4,4,4,4,4,4,4,4,4,100,,,,,,,,,,,,,,,,,,,,,,,,,,,,,,,,,,,,,,,,,,,,,,,,,,,,,,,,,,,,,,,,,,,,,,,,,,,,,,,,,,,,,,,,,,,,,,,,,,,,,,,,,,,,,,,,,,,,,,,,,,,,,,,,,,,,,,
1702547333,1702547333,72,0,4389.358887,4510.256348,4498.461426,4428.333496,4410.769043,4535.256348,4374.102539,4379.102539,4491.538574,4430.641113,4474.230957,4561.794922,4475.256348,4495.769043,2717,3,70,,,,0,4,4,4,4,4,4,4,4,4,4,4,4,4,4,100,,,,,,,,,,,,,,,,,18,0,0.687224,-0.474487,-0.392578,-0.385315,0.933219,-0.31205,0.207057,-11.000099,-7.00092,97.241219,,,,,,,,,,,,,,,,,,,,,,,,,,,,,,,,,,,,,,,,,,,,,,,,,,,,,,,,,,,,,,,,,,,,,,,,,,,,,,,,,,,,,,,,,,,,,,,,,,,,,,,,,,
1702547333,1702547333,73,0,4383.974121,4504.743652,4494.615234,4418.717773,4396.538574,4522.94873,4373.974121,4379.615234,4484.102539,4431.410156,4487.436035,4559.743652,4476.410156,4486.025879,5495,3,70,,,,0,4,4,4,4,4,4,4,4,4,4,4,4,4,4,100,,,,,,,,,,,,,,,,,,,,,,,,,,,,,,,,,,,,,,,,,,,,,,,,,,,,,,,,,,,,,,,,,,,,,,,,,,,,,,,,,,,,,,,,,,,,,,,,,,,,,,,,,,,,,,,,,,,,,,,,,,,,,,,,,,,,,,
1702547333,1702547333,74,0,4388.205078,4507.94873,4499.615234,4418.846191,4387.820313,4518.205078,4371.282227,4378.205078,4507.436035,4423.717773,4512.05127,4560,4474.487305,4492.179688,5946,3,70,,,,0,4,4,4,4,4,4,4,4,4,4,4,4,4,4,100,,,,,,,,,,,,,,,,,,,,,,,,,,,,,,,,,,,,,,,,,,,,,,,,,,,,,,,,,,,,,,,,,,,,,,,,,,,,,,,,,,,,,,,,,,,,,,,,,,,,,,,,,,,,,,,,,,,,,,,,,,,,,,,,,,,,,,
1702547333,1702547333,75,0,4398.077148,4514.358887,4504.871582,4431.025879,4399.102539,4522.179688,4374.615234,4380.512695,4502.563965,4428.846191,4546.025879,4565.769043,4479.230957,4507.820313,6085,3,70,,,,0,4,4,4,4,4,4,4,4,4,4,4,4,4,4,100,,,,,,,,,,,,,,,,,,,,,,,,,,,,,,,,,,,,,,,,,,,,,,,,,,,,,,,,,,,,,,,,,,,,,,,,,,,,,,,,,,,,,,,,,,,,,,,,,,,,,,,,,,,,,,,,,,,,,,,,,,,,,,,,,,,,,,
1702547333,1702547333,76,0,4400.641113,4517.307617,4501.282227,4431.922852,4416.025879,4524.230957,4379.487305,4380.769043,4463.974121,4434.743652,4568.589844,4567.692383,4485.384766,4505.769043,6513,3,70,,,,0,4,4,4,4,4,4,4,4,4,4,4,4,4,4,100,,,,,,,,,,,,,,,,,19,0,0.687099,-0.47467,-0.392456,-0.385437,0.924429,-0.314003,0.187523,-10.966756,-6.800828,97.217094,,,,,,,,,,,,,,,,,,,,,,,,,,,,,,,,,,,,,,,,,,,,,,,,,,,,,,,,,,,,,,,,,,,,,,,,,,,,,,,,,,,,,,,,,,,,,,,,,,,,,,,,,,
1702547333,1702547333,77,0,4388.205078,4512.563965,4488.717773,4419.743652,4413.205078,4522.94873,4368.205078,4374.743652,4553.333496,4424.615234,4573.846191,4557.05127,4455.256348,4498.077148,4437,3,70,,,,0,4,4,4,4,4,4,4,4,4,4,4,4,4,4,100,,,,,,,,,,,,,,,,,,,,,,,,,,,,,,,,,,,,,,,,,,,,,,,,,,,,,,,,,,,,,,,,,,,,,,,,,,,,,,,,,,,,,,,,,,,,,,,,,,,,,,,,,,,,,,,,,,,,,,,,,,,,,,,,,,,,,,
1702547333,1702547333,78,0,4378.077148,4502.05127,4475.897461,4415.384766,4382.94873,4520.512695,4355.512695,4368.461426,4740.512695,4417.05127,4580.897461,4548.077148,4401.538574,4511.410156,5946,3,70,,,,0,4,4,4,4,4,4,4,4,4,4,4,4,4,4,100,,,,,,,,,,,,,,,,,,,,,,,,,,,,,,,,,,,,,,,,,,,,,,,,,,,,,,,,,,,,,,,,,65.342491,3.068735,2.318075,2.27368,1.143735,196.108063,5.37972,3.443862,2.243473,1.002873,20.860134,1.576838,1.575082,1.680987,1.014382,49.391541,2.10646,2.692919,2.023008,1.138372,0.70485,0.752994,1.97614,1.959647,1.217596,59.704376,12.686982,6.49122,1.645559,0.898387,1.16803,0.476549,0.620823,0.648628,0.623962,0.852214,0.498122,0.487359,0.348676,0.484887,573.589294,147.855942,105.730911,35.05228,9.184352,3.148233,1.355317,3.397661,2.92816,1.279081,50.809002,8.792329,2.487037,3.35899,1.551176,4.401673,0.659803,1.048688,1.10034,0.84536,71.249138,11.634499,7.116587,3.039895,1.284796,64.08297,5.33336,5.851614,4.101079,1.554346
1702547333,1702547333,79,0,4380.769043,4503.846191,4475.256348,4423.333496,4380.641113,4520.256348,4359.102539,4369.615234,4781.794922,4421.153809,4595.384766,4550.128418,4381.794922,4522.307617,6085,3,70,,,,0,4,4,4,4,4,4,4,4,4,4,4,4,4,4,100,,,,,,,,,,,,,,,,,,,,,,,,,,,,,,,,,,,,,,,,,,,,,,,,,,,,,,,,,,,,,,,,,,,,,,,,,,,,,,,,,,,,,,,,,,,,,,,,,,,,,,,,,,,,,,,,,,,,,,,,,,,,,,,,,,,,,,
1702547333,1702547333,80,0,4385.256348,4518.461426,4481.538574,4432.179688,4411.922852,4526.410156,4369.230957,4375.769043,4688.974121,4421.410156,4612.307617,4556.153809,4398.461426,4516.666504,6513,3,70,,,,0,4,4,4,4,4,4,4,4,4,4,4,4,4,4,100,,,,,,,,,,,,,,,,,20,0,0.68698,-0.474792,-0.392456,-0.385498,0.914662,-0.292516,0.187523,-10.92008,-6.804079,97.295387,,,,,,,,,,,,,,,,,,,,,,,,,,,,,,,,,,,,,,,,,,,,,,,,,,,,,,,,,,,,,,,,,,,,,,,,,,,,,,,,,,,,,,,,,,,,,,,,,,,,,,,,,,
1702547333,1702547333,81,0,4382.563965,4518.846191,4478.717773,4428.077148,4411.025879,4524.102539,4367.692383,4374.615234,4647.94873,4416.666504,4624.358887,4555.769043,4396.282227,4505.897461,4437,3,70,,,,0,4,4,4,4,4,4,4,4,4,4,4,4,4,4,100,,,,,,,,,,,,,,,,,,,,,,,,,,,,,,,,,,,,,,,,,,,,,,,,,,,,,,,,,,,,,,,,,,,,,,,,,,,,,,,,,,,,,,,,,,,,,,,,,,,,,,,,,,,,,,,,,,,,,,,,,,,,,,,,,,,,,,
1702547333,1702547333,82,0,4377.692383,4503.717773,4473.717773,4413.846191,4385.512695,4508.846191,4358.333496,4370.128418,4648.205078,4413.205078,4626.153809,4549.102539,4373.974121,4495.897461,5946,3,70,,,,0,4,4,4,4,4,4,4,4,4,4,4,4,4,4,100,,,,,,,,,,,,,,,,,,,,,,,,,,,,,,,,,,,,,,,,,,,,,,,,,,,,,,,,,,,,,,,,,,,,,,,,,,,,,,,,,,,,,,,,,,,,,,,,,,,,,,,,,,,,,,,,,,,,,,,,,,,,,,,,,,,,,,
1702547333,1702547333,83,0,4381.666504,4503.589844,4478.846191,4418.461426,4395.897461,4506.025879,4363.205078,4376.025879,4626.410156,4415.512695,4634.358887,4550.641113,4373.589844,4497.94873,6085,3,70,,,,0,4,4,4,4,4,4,4,4,4,4,4,4,4,4,100,,,,,,,,,,,,,,,,,,,,,,,,,,,,,,,,,,,,,,,,,,,,,,,,,,,,,,,,,,,,,,,,,,,,,,,,,,,,,,,,,,,,,,,,,,,,,,,,,,,,,,,,,,,,,,,,,,,,,,,,,,,,,,,,,,,,,,
1702547333,1702547333,84,0,4384.358887,4513.717773,4480.512695,4430.641113,4404.743652,4511.794922,4373.077148,4382.307617,4631.794922,4414.230957,4649.358887,4553.717773,4374.102539,4503.846191,6513,3,70,,,,0,4,4,4,4,4,4,4,4,4,4,4,4,4,4,100,,,,,,,,,,,,,,,,,21,0,0.686709,-0.474731,-0.392883,-0.38562,0.910756,-0.314492,0.190453,-10.861406,-6.757004,97.232513,,,,,,,,,,,,,,,,,,,,,,,,,,,,,,,,,,,,,,,,,,,,,,,,,,,,,,,,,,,,,,,,,,,,,,,,,,,,,,,,,,,,,,,,,,,,,,,,,,,,,,,,,,
1702547333,1702547333,85,0,4366.666504,4493.205078,4461.410156,4412.692383,4360,4507.307617,4364.871582,4373.589844,4645.512695,4398.461426,4638.589844,4542.436035,4340.512695,4481.025879,4437,3,70,,,,0,4,4,4,4,4,4,4,4,4,4,4,4,4,4,100,,,,,,,,,,,,,,,,,,,,,,,,,,,,,,,,,,,,,,,,,,,,,,,,,,,,,,,,,,,,,,,,,,,,,,,,,,,,,,,,,,,,,,,,,,,,,,,,,,,,,,,,,,,,,,,,,,,,,,,,,,,,,,,,,,,,,,
1702547333,1702547333,86,0,4347.179688,4469.871582,4447.05127,4392.820313,4344.615234,4501.538574,4354.871582,4366.410156,4621.538574,4387.05127,4617.436035,4532.05127,4312.05127,4454.487305,5946,3,70,,,,0,4,4,4,4,4,4,4,4,4,4,4,4,4,4,100,,,,,,,,,,,,,,,,,,,,,,,,,,,,,,,,,,,,,,,,,,,,,,,,,,,,,,,,,,,,,,,,,,,,,,,,,,,,,,,,,,,,,,,,,,,,,,,,,,,,,,,,,,,,,,,,,,,,,,,,,,,,,,,,,,,,,,
1702547333,1702547333,87,0,4353.461426,4482.820313,4454.358887,4405.897461,4395.641113,4500.128418,4361.025879,4375.384766,4601.410156,4392.94873,4630.897461,4537.436035,4327.307617,4464.102539,6085,3,70,,,,0,4,4,4,4,4,4,4,4,4,4,4,4,4,4,100,,,,,,,,,,,,,,,,,,,,,,,,,,,,,,,,,,,,,,,,,,,,,,,,,,,,,,,,,,,,,,,,,,,,,,,,,,,,,,,,,,,,,,,,,,,,,,,,,,,,,,,,,,,,,,,,,,,,,,,,,,,,,,,,,,,,,,
1702547333,1702547333,88,0,4358.974121,4486.922852,4456.538574,4409.102539,4408.974121,4494.743652,4365.384766,4376.794922,4610.384766,4397.820313,4646.153809,4539.358887,4340.512695,4469.487305,6513,3,70,,,,0,4,4,4,4,4,4,4,4,4,4,4,4,4,4,100,,,,,,,,,,,,,,,,,22,0,0.686837,-0.474548,-0.392822,-0.385681,0.940544,-0.319375,0.196801,-10.841932,-6.79797,97.209259,,,,,,,,,,,,,,,,,,,,,,,,,,,,,,,,,,,,,,,,,,,,,,,,,,,,,,,,,,,,,,,,,,,,,,,,,,,,,,,,,,,,,,,,,,,,,,,,,,,,,,,,,,
1702547333,1702547333,89,0,4350,4467.307617,4451.410156,4391.410156,4369.743652,4490.769043,4360,4369.102539,4618.205078,4389.102539,4630.641113,4537.05127,4330.512695,4454.358887,4437,3,70,,,,0,4,4,4,4,4,4,4,4,4,4,4,4,4,4,100,,,,,,,,,,,,,,,,,,,,,,,,,,,,,,,,,,,,,,,,,,,,,,,,,,,,,,,,,,,,,,,,,,,,,,,,,,,,,,,,,,,,,,,,,,,,,,,,,,,,,,,,,,,,,,,,,,,,,,,,,,,,,,,,,,,,,,
1702547333,1702547333,90,0,4356.153809,4473.205078,4458.846191,4399.230957,4364.230957,4492.94873,4358.717773,4372.307617,4614.102539,4377.820313,4626.666504,4545.641113,4337.563965,4460.384766,5946,3,70,,,,0,4,4,4,4,4,4,4,4,4,4,4,4,4,4,100,,,,,,,,,,,,,,,,,,,,,,,,,,,,,,,,,,,,,,,,,,,,,,,,,,,,,,,,,,,,,,,,,,,,,,,,,,,,,,,,,,,,,,,,,,,,,,,,,,,,,,,,,,,,,,,,,,,,,,,,,,,,,,,,,,,,,,
1702547333,1702547333,91,0,4373.461426,4495.512695,4466.794922,4419.871582,4389.230957,4494.358887,4361.410156,4377.05127,4612.820313,4383.077148,4647.05127,4551.153809,4361.282227,4478.589844,6085,3,70,,,,0,4,4,4,4,4,4,4,4,4,4,4,4,4,4,100,,,,,,,,,,,,,,,,,,,,,,,,,,,,,,,,,,,,,,,,,,,,,,,,,,,,,,,,,,,,,,,,,,,,,,,,,,,,,,,,,,,,,,,,,,,,,,,,,,,,,,,,,,,,,,,,,,,,,,,,,,,,,,,,,,,,,,
1702547333,1702547333,92,0,4365.897461,4484.871582,4452.307617,4412.692383,4386.153809,4492.05127,4355.641113,4368.077148,4598.077148,4405.128418,4652.563965,4541.410156,4362.94873,4473.461426,6513,3,70,,,,0,4,4,4,4,4,4,4,4,4,4,4,4,4,4,100,,,,,,,,,,,,,,,,,23,0,0.686816,-0.474731,-0.392517,-0.385803,0.917592,-0.319863,0.201685,-10.891072,-6.768173,97.121666,,,,,,,,,,,,,,,,,,,,,,,,,,,,,,,,,,,,,,,,,,,,,,,,,,,,,,,,,,,,,,,,,,,,,,,,,,,,,,,,,,,,,,,,,,,,,,,,,,,,,,,,,,
1702547333,1702547333,93,0,4348.077148,4469.871582,4432.94873,4399.615234,4376.666504,4491.282227,4346.538574,4360.641113,4571.794922,4400.641113,4646.025879,4532.820313,4353.077148,4454.487305,4437,3,70,,,,0,4,4,4,4,4,4,4,4,4,4,4,4,4,4,100,,,,,,,,,,,,,,,,,,,,,,,,,,,,,,,,,,,,,,,,,,,,,,,,,,,,,,,,,,,,,,,,,,,,,,,,,,,,,,,,,,,,,,,,,,,,,,,,,,,,,,,,,,,,,,,,,,,,,,,,,,,,,,,,,,,,,,
1702547333,1702547333,94,0,4349.743652,4475.256348,4427.563965,4403.333496,4379.102539,4491.666504,4345.769043,4362.436035,4552.05127,4362.436035,4644.487305,4528.846191,4350.384766,4447.05127,5946,3,70,,,,0,4,4,4,4,4,4,4,4,4,4,4,4,4,4,100,1,0,1,1,1,0,1,0,1,3,0,1,0,3,1,1,,,,,,,,,,,,,,,,,,,,,,,,,,,,,,,,,,,,,,,,,,,,,,,,,39.125492,2.575984,2.262674,2.273312,1.20314,115.536697,3.266997,3.107631,2.189818,1.024575,13.245902,1.755429,1.378335,1.687791,1.068338,30.109968,1.918546,2.535258,2.000057,1.159774,0.93399,0.945128,2.016124,2.192817,1.300127,53.971703,12.08368,5.977158,1.568282,0.842101,1.194155,0.521802,0.599317,0.588842,0.632228,0.860939,0.596778,0.510106,0.326719,0.480804,584.349854,158.370041,116.281052,35.338791,9.617386,3.893811,1.577816,3.187705,2.868694,1.40954,54.648449,8.568175,2.828634,3.169619,1.663324,3.505454,0.829925,0.967691,1.12954,0.859651,65.946854,13.335019,7.857634,2.995768,1.321102,42.006355,5.426282,5.624335,3.832659,1.639477
1702547333,1702547333,95,0,4349.358887,4464.743652,4421.025879,4397.563965,4367.692383,4489.102539,4343.846191,4360.512695,4526.153809,4346.538574,4627.820313,4519.487305,4336.153809,4439.358887,6085,3,70,,,,0,4,4,4,4,4,4,4,4,4,4,4,4,4,4,100,,,,,,,,,,,,,,,,,,,,,,,,,,,,,,,,,,,,,,,,,,,,,,,,,,,,,,,,,,,,,,,,,,,,,,,,,,,,,,,,,,,,,,,,,,,,,,,,,,,,,,,,,,,,,,,,,,,,,,,,,,,,,,,,,,,,,,
1702547333,1702547333,96,0,4330.641113,4437.820313,4404.487305,4375.769043,4354.230957,4486.282227,4335.512695,4353.846191,4502.436035,4358.461426,4605.897461,4511.410156,4324.743652,4422.94873,6513,3,70,,,,0,4,4,4,4,4,4,4,4,4,4,4,4,4,4,100,,,,,,,,,,,,,,,,,24,0,0.686727,-0.474915,-0.392212,-0.386047,0.923453,-0.308143,0.194848,-10.851965,-6.774689,97.092834,,,,,,,,,,,,,,,,,,,,,,,,,,,,,,,,,,,,,,,,,,,,,,,,,,,,,,,,,,,,,,,,,,,,,,,,,,,,,,,,,,,,,,,,,,,,,,,,,,,,,,,,,,
1702547333,1702547333,97,0,4331.666504,4441.282227,4407.05127,4380.769043,4360,4490.384766,4342.692383,4360.897461,4508.717773,4367.05127,4621.153809,4519.743652,4343.461426,4426.538574,4437,3,70,,,,0,4,4,4,4,4,4,4,4,4,4,4,4,4,4,100,,,,,,,,,,,,,,,,,,,,,,,,,,,,,,,,,,,,,,,,,,,,,,,,,,,,,,,,,,,,,,,,,,,,,,,,,,,,,,,,,,,,,,,,,,,,,,,,,,,,,,,,,,,,,,,,,,,,,,,,,,,,,,,,,,,,,,
1702547333,1702547333,98,0,4346.538574,4455.128418,4418.974121,4398.846191,4372.692383,4493.205078,4350.769043,4369.615234,4512.692383,4346.922852,4636.538574,4526.922852,4355.128418,4439.743652,5946,3,70,,,,0,4,4,4,4,4,4,4,4,4,4,4,4,4,4,100,,,,,,,,,,,,,,,,,,,,,,,,,,,,,,,,,,,,,,,,,,,,,,,,,,,,,,,,,,,,,,,,,,,,,,,,,,,,,,,,,,,,,,,,,,,,,,,,,,,,,,,,,,,,,,,,,,,,,,,,,,,,,,,,,,,,,,
1702547333,1702547333,99,0,4331.922852,4434.102539,4404.615234,4384.743652,4356.922852,4488.205078,4335.512695,4359.487305,4486.025879,4320.769043,4611.666504,4512.94873,4338.974121,4422.179688,6085,3,70,,,,0,4,4,4,4,4,4,4,4,4,4,4,4,4,4,100,,,,,,,,,,,,,,,,,,,,,,,,,,,,,,,,,,,,,,,,,,,,,,,,,,,,,,,,,,,,,,,,,,,,,,,,,,,,,,,,,,,,,,,,,,,,,,,,,,,,,,,,,,,,,,,,,,,,,,,,,,,,,,,,,,,,,,
1702547333,1702547333,100,0,4324.102539,4424.230957,4399.615234,4376.666504,4342.820313,4488.589844,4335.128418,4357.820313,4475.256348,4351.282227,4611.282227,4511.410156,4342.94873,4409.487305,6513,3,70,,,,0,4,4,4,4,4,4,4,4,4,4,4,4,4,4,100,,,,,,,,,,,,,,,,,25,0,0.686604,-0.474792,-0.392273,-0.386353,0.923453,-0.305213,0.189965,-10.933435,-6.897221,97.116882,,,,,,,,,,,,,,,,,,,,,,,,,,,,,,,,,,,,,,,,,,,,,,,,,,,,,,,,,,,,,,,,,,,,,,,,,,,,,,,,,,,,,,,,,,,,,,,,,,,,,,,,,,
1702547333,1702547333,101,0,4347.692383,4443.205078,4423.333496,4397.563965,4366.922852,4493.205078,4353.846191,4372.820313,4481.153809,4402.563965,4650.769043,4530.512695,4364.743652,4432.05127,4437,3,70,,,,0,4,4,4,4,4,4,4,4,4,4,4,4,4,4,100,,,,,,,,,,,,,,,,,,,,,,,,,,,,,,,,,,,,,,,,,,,,,,,,,,,,,,,,,,,,,,,,,,,,,,,,,,,,,,,,,,,,,,,,,,,,,,,,,,,,,,,,,,,,,,,,,,,,,,,,,,,,,,,,,,,,,,
1702547333,1702547334,102,0,4355.641113,4440.769043,4430,4401.538574,4382.179688,4493.333496,4352.692383,4371.666504,4446.538574,4396.538574,4663.846191,4532.179688,4364.615234,4437.563965,5946,3,70,,,,0,4,4,4,4,4,4,4,4,4,4,4,4,4,4,100,,,,,,,,,,,,,,,,,,,,,,,,,,,,,,,,,,,,,,,,,,,,,,,,,,,,,,,,,,,,,,,,,,,,,,,,,,,,,,,,,,,,,,,,,,,,,,,,,,,,,,,,,,,,,,,,,,,,,,,,,,,,,,,,,,,,,,
1702547333,1702547334,103,0,4339.102539,4419.871582,4410,4381.666504,4369.358887,4493.205078,4337.563965,4357.94873,4405.641113,4348.205078,4647.436035,4515.512695,4355.512695,4411.410156,6085,3,70,,,,0,4,4,4,4,4,4,4,4,4,4,4,4,4,4,100,,,,,,,,,,,,,,,,,,,,,,,,,,,,,,,,,,,,,,,,,,,,,,,,,,,,,,,,,,,,,,,,,,,,,,,,,,,,,,,,,,,,,,,,,,,,,,,,,,,,,,,,,,,,,,,,,,,,,,,,,,,,,,,,,,,,,,
1702547333,1702547334,104,0,4331.410156,4412.692383,4397.692383,4370.641113,4345.897461,4485.512695,4331.025879,4353.846191,4430.128418,4326.794922,4636.282227,4506.153809,4353.589844,4401.922852,6513,3,70,,,,0,4,4,4,4,4,4,4,4,4,4,4,4,4,4,100,,,,,,,,,,,,,,,,,26,0,0.68657,-0.474792,-0.392273,-0.386414,0.930778,-0.301306,0.196313,-11.023425,-6.824165,97.121864,,,,,,,,,,,,,,,,,,,,,,,,,,,,,,,,,,,,,,,,,,,,,,,,,,,,,,,,,,,,,,,,,,,,,,,,,,,,,,,,,,,,,,,,,,,,,,,,,,,,,,,,,,
1702547333,1702547334,105,0,4331.794922,4406.538574,4401.153809,4370.256348,4335.769043,4474.487305,4332.179688,4356.538574,4459.358887,4344.358887,4631.922852,4506.282227,4355.384766,4410.256348,4437,3,70,,,,0,4,4,4,4,4,4,4,4,4,4,4,4,4,4,100,,,,,,,,,,,,,,,,,,,,,,,,,,,,,,,,,,,,,,,,,,,,,,,,,,,,,,,,,,,,,,,,,,,,,,,,,,,,,,,,,,,,,,,,,,,,,,,,,,,,,,,,,,,,,,,,,,,,,,,,,,,,,,,,,,,,,,
1702547333,1702547334,106,0,4331.666504,4398.974121,4404.230957,4368.974121,4344.358887,4481.666504,4338.205078,4360.384766,4429.102539,4356.538574,4633.846191,4509.358887,4363.205078,4409.615234,5946,3,70,,,,0,4,4,4,4,4,4,4,4,4,4,4,4,4,4,100,,,,,,,,,,,,,,,,,,,,,,,,,,,,,,,,,,,,,,,,,,,,,,,,,,,,,,,,,,,,,,,,,,,,,,,,,,,,,,,,,,,,,,,,,,,,,,,,,,,,,,,,,,,,,,,,,,,,,,,,,,,,,,,,,,,,,,
1702547333,1702547334,107,0,4325.128418,4393.205078,4393.717773,4355.641113,4351.538574,4489.871582,4334.871582,4355,4415.256348,4340.641113,4631.410156,4505.256348,4357.94873,4397.179688,6085,3,70,,,,0,4,4,4,4,4,4,4,4,4,4,4,4,4,4,100,,,,,,,,,,,,,,,,,,,,,,,,,,,,,,,,,,,,,,,,,,,,,,,,,,,,,,,,,,,,,,,,,,,,,,,,,,,,,,,,,,,,,,,,,,,,,,,,,,,,,,,,,,,,,,,,,,,,,,,,,,,,,,,,,,,,,,
1702547333,1702547334,108,0,4317.94873,4378.717773,4385.384766,4336.538574,4346.153809,4479.743652,4323.846191,4347.563965,4436.025879,4317.563965,4630.128418,4502.05127,4351.922852,4388.461426,6513,3,70,,,,0,4,4,4,4,4,4,4,4,4,4,4,4,4,4,100,,,,,,,,,,,,,,,,,27,0,0.686494,-0.474854,-0.392273,-0.386475,0.915639,-0.311561,0.206568,-11.087749,-6.858415,97.10968,,,,,,,,,,,,,,,,,,,,,,,,,,,,,,,,,,,,,,,,,,,,,,,,,,,,,,,,,,,,,,,,,,,,,,,,,,,,,,,,,,,,,,,,,,,,,,,,,,,,,,,,,,
1702547333,1702547334,109,0,4334.230957,4381.538574,4403.717773,4345.769043,4343.589844,4473.589844,4331.282227,4360,4434.615234,4322.436035,4651.922852,4516.538574,4381.538574,4403.717773,4437,3,70,,,,0,4,4,4,4,4,4,4,4,4,4,4,4,4,4,100,,,,,,,,,,,,,,,,,,,,,,,,,,,,,,,,,,,,,,,,,,,,,,,,,,,,,,,,,,,,,,,,,,,,,,,,,,,,,,,,,,,,,,,,,,,,,,,,,,,,,,,,,,,,,,,,,,,,,,,,,,,,,,,,,,,,,,
1702547333,1702547334,110,0,4354.487305,4399.615234,4421.410156,4366.922852,4357.05127,4480.384766,4342.563965,4370.769043,4506.282227,4352.563965,4659.743652,4528.333496,4391.794922,4431.666504,5946,3,70,,,,0,4,4,4,4,4,4,4,4,4,4,4,4,4,4,100,,,,,,,,,,,,,,,,,,,,,,,,,,,,,,,,,,,,,,,,,,,,,,,,,,,,,,,,,,,,,,,,,21.476498,2.611552,2.288447,2.30385,1.231394,58.384579,2.245326,2.837172,2.099543,1.053137,7.910391,1.923777,1.194956,1.678177,1.095777,17.400734,2.00171,2.326442,1.9351,1.160431,1.330279,1.167413,1.971919,2.352793,1.380681,43.916393,10.055032,5.028844,1.325871,0.71891,1.392851,0.586722,0.57639,0.509577,0.61558,0.925985,0.677454,0.512298,0.303774,0.463979,547.308289,159.092804,113.153549,32.706825,9.45508,4.986449,1.718857,2.791372,2.740612,1.501365,63.244804,9.295098,3.186285,3.028482,1.715571,3.367224,1.026511,0.909722,1.13275,0.851203,61.295696,14.339668,8.133943,2.8656,1.342283,25.680786,5.401674,5.183459,3.516119,1.676635
1702547333,1702547334,111,0,4343.461426,4391.410156,4408.205078,4353.717773,4348.589844,4480.384766,4331.666504,4360.512695,4654.487305,4368.589844,4634.102539,4513.077148,4343.333496,4434.230957,6085,3,70,,,,0,4,4,4,4,4,4,4,4,4,4,4,4,4,4,100,,,,,,,,,,,,,,,,,,,,,,,,,,,,,,,,,,,,,,,,,,,,,,,,,,,,,,,,,,,,,,,,,,,,,,,,,,,,,,,,,,,,,,,,,,,,,,,,,,,,,,,,,,,,,,,,,,,,,,,,,,,,,,,,,,,,,,
1702547333,1702547334,112,0,4325.641113,4366.666504,4388.846191,4327.820313,4332.179688,4470.769043,4318.589844,4352.563965,4678.846191,4350,4617.307617,4498.717773,4310.512695,4416.538574,6513,3,70,,,,0,4,4,4,4,4,4,4,4,4,4,4,4,4,4,100,,,,,,,,,,,,,,,,,28,0,0.686532,-0.475098,-0.39209,-0.386292,0.922476,-0.308631,0.186546,-10.995641,-6.73924,97.115379,,,,,,,,,,,,,,,,,,,,,,,,,,,,,,,,,,,,,,,,,,,,,,,,,,,,,,,,,,,,,,,,,,,,,,,,,,,,,,,,,,,,,,,,,,,,,,,,,,,,,,,,,,
1702547333,1702547334,113,0,4321.922852,4356.282227,4384.487305,4322.563965,4331.282227,4461.410156,4319.615234,4353.205078,4585,4329.358887,4600,4500.128418,4323.205078,4406.153809,4437,3,70,,,,0,4,4,4,4,4,4,4,4,4,4,4,4,4,4,100,,,,,,,,,,,,,,,,,,,,,,,,,,,,,,,,,,,,,,,,,,,,,,,,,,,,,,,,,,,,,,,,,,,,,,,,,,,,,,,,,,,,,,,,,,,,,,,,,,,,,,,,,,,,,,,,,,,,,,,,,,,,,,,,,,,,,,
1702547333,1702547334,114,0,4317.692383,4352.94873,4379.615234,4319.743652,4324.743652,4459.615234,4320.256348,4351.538574,4539.871582,4328.461426,4570.256348,4497.179688,4335.641113,4399.743652,5946,3,70,,,,0,4,4,4,4,4,4,4,4,4,4,4,4,4,4,100,,,,,,,,,,,,,,,,,,,,,,,,,,,,,,,,,,,,,,,,,,,,,,,,,,,,,,,,,,,,,,,,,,,,,,,,,,,,,,,,,,,,,,,,,,,,,,,,,,,,,,,,,,,,,,,,,,,,,,,,,,,,,,,,,,,,,,
1702547333,1702547334,115,0,4302.307617,4337.820313,4361.410156,4300.897461,4317.94873,4457.563965,4314.358887,4348.205078,4505,4316.282227,4552.436035,4484.358887,4333.846191,4378.846191,6085,3,70,,,,0,4,4,4,4,4,4,4,4,4,4,4,4,4,4,100,,,,,,,,,,,,,,,,,,,,,,,,,,,,,,,,,,,,,,,,,,,,,,,,,,,,,,,,,,,,,,,,,,,,,,,,,,,,,,,,,,,,,,,,,,,,,,,,,,,,,,,,,,,,,,,,,,,,,,,,,,,,,,,,,,,,,,
1702547333,1702547334,116,0,4279.358887,4309.871582,4337.820313,4275.769043,4323.205078,4447.179688,4306.410156,4343.846191,4419.358887,4295.256348,4532.692383,4470,4329.743652,4341.153809,6513,3,70,,,,0,4,4,4,4,4,4,4,4,4,4,4,4,4,4,100,,,,,,,,,,,,,,,,,29,0,0.686447,-0.47522,-0.392212,-0.386169,0.925894,-0.317422,0.184593,-11.02941,-6.915316,97.170502,,,,,,,,,,,,,,,,,,,,,,,,,,,,,,,,,,,,,,,,,,,,,,,,,,,,,,,,,,,,,,,,,,,,,,,,,,,,,,,,,,,,,,,,,,,,,,,,,,,,,,,,,,
1702547333,1702547334,117,0,4274.487305,4300.128418,4334.615234,4270.897461,4327.179688,4447.307617,4310,4344.871582,4369.102539,4299.358887,4518.717773,4467.94873,4339.102539,4322.436035,4437,3,70,,,,0,4,4,4,4,4,4,4,4,4,4,4,4,4,4,100,,,,,,,,,,,,,,,,,,,,,,,,,,,,,,,,,,,,,,,,,,,,,,,,,,,,,,,,,,,,,,,,,,,,,,,,,,,,,,,,,,,,,,,,,,,,,,,,,,,,,,,,,,,,,,,,,,,,,,,,,,,,,,,,,,,,,,
1702547333,1702547334,118,0,4303.077148,4325.512695,4356.025879,4294.358887,4318.461426,4458.974121,4323.974121,4352.05127,4356.922852,4311.538574,4540.256348,4481.410156,4366.538574,4341.538574,5946,3,70,,,,0,4,4,4,4,4,4,4,4,4,4,4,4,4,4,100,,,,,,,,,,,,,,,,,,,,,,,,,,,,,,,,,,,,,,,,,,,,,,,,,,,,,,,,,,,,,,,,,,,,,,,,,,,,,,,,,,,,,,,,,,,,,,,,,,,,,,,,,,,,,,,,,,,,,,,,,,,,,,,,,,,,,,
1702547333,1702547334,119,0,4315,4333.589844,4365.512695,4303.589844,4313.846191,4461.666504,4322.94873,4348.461426,4332.692383,4301.666504,4560.384766,4486.538574,4378.974121,4353.974121,6085,3,70,,,,0,4,4,4,4,4,4,4,4,4,4,4,4,4,4,100,,,,,,,,,,,,,,,,,,,,,,,,,,,,,,,,,,,,,,,,,,,,,,,,,,,,,,,,,,,,,,,,,,,,,,,,,,,,,,,,,,,,,,,,,,,,,,,,,,,,,,,,,,,,,,,,,,,,,,,,,,,,,,,,,,,,,,
1702547333,1702547334,120,0,4297.563965,4309.871582,4355,4286.794922,4317.692383,4459.487305,4310.384766,4341.025879,4318.589844,4291.538574,4561.153809,4480.897461,4372.94873,4340.769043,6513,3,70,,,,0,4,4,4,4,4,4,4,4,4,4,4,4,4,4,100,,,,,,,,,,,,,,,,,30,0,0.686438,-0.475281,-0.392273,-0.386047,0.916127,-0.316445,0.191918,-11.026469,-6.957118,97.136787,,,,,,,,,,,,,,,,,,,,,,,,,,,,,,,,,,,,,,,,,,,,,,,,,,,,,,,,,,,,,,,,,,,,,,,,,,,,,,,,,,,,,,,,,,,,,,,,,,,,,,,,,,
1702547333,1702547334,121,0,4293.846191,4303.077148,4346.153809,4274.358887,4318.846191,4451.794922,4307.307617,4342.05127,4320,4299.871582,4570.256348,4477.307617,4376.153809,4332.436035,4437,3,70,,,,0,4,4,4,4,4,4,4,4,4,4,4,4,4,4,100,,,,,,,,,,,,,,,,,,,,,,,,,,,,,,,,,,,,,,,,,,,,,,,,,,,,,,,,,,,,,,,,,,,,,,,,,,,,,,,,,,,,,,,,,,,,,,,,,,,,,,,,,,,,,,,,,,,,,,,,,,,,,,,,,,,,,,
1702547333,1702547334,122,0,4304.102539,4311.794922,4348.461426,4271.025879,4323.717773,4441.922852,4307.307617,4340.897461,4327.692383,4308.461426,4583.077148,4476.922852,4386.794922,4334.871582,5946,3,70,,,,0,4,4,4,4,4,4,4,4,4,4,4,4,4,4,100,,,,,,,,,,,,,,,,,,,,,,,,,,,,,,,,,,,,,,,,,,,,,,,,,,,,,,,,,,,,,,,,,,,,,,,,,,,,,,,,,,,,,,,,,,,,,,,,,,,,,,,,,,,,,,,,,,,,,,,,,,,,,,,,,,,,,,
1702547333,1702547334,123,0,4310,4309.871582,4361.538574,4264.358887,4324.871582,4450.641113,4311.025879,4342.563965,4344.871582,4306.410156,4597.692383,4484.358887,4397.436035,4338.846191,6085,3,70,,,,0,4,4,4,4,4,4,4,4,4,4,4,4,4,4,100,,,,,,,,,,,,,,,,,,,,,,,,,,,,,,,,,,,,,,,,,,,,,,,,,,,,,,,,,,,,,,,,,,,,,,,,,,,,,,,,,,,,,,,,,,,,,,,,,,,,,,,,,,,,,,,,,,,,,,,,,,,,,,,,,,,,,,
1702547333,1702547334,124,0,4311.538574,4307.820313,4364.358887,4255.128418,4317.94873,4458.846191,4314.615234,4346.794922,4353.846191,4306.282227,4606.794922,4488.846191,4402.820313,4339.743652,6513,3,70,,,,0,4,4,4,4,4,4,4,4,4,4,4,4,4,4,100,,,,,,,,,,,,,,,,,31,0,0.686411,-0.47522,-0.392334,-0.386108,0.905872,-0.30619,0.185081,-11.107156,-7.028073,97.189774,,,,,,,,,,,,,,,,,,,,,,,,,,,,,,,,,,,,,,,,,,,,,,,,,,,,,,,,,,,,,,,,,,,,,,,,,,,,,,,,,,,,,,,,,,,,,,,,,,,,,,,,,,
1702547333,1702547334,125,0,4297.820313,4300.512695,4342.436035,4235.769043,4310.384766,4443.205078,4301.538574,4338.333496,4351.922852,4291.666504,4588.589844,4472.563965,4391.025879,4326.153809,4437,3,70,,,,0,4,4,4,4,4,4,4,4,4,4,4,4,4,4,100,,,,,,,,,,,,,,,,,,,,,,,,,,,,,,,,,,,,,,,,,,,,,,,,,,,,,,,,,,,,,,,,,,,,,,,,,,,,,,,,,,,,,,,,,,,,,,,,,,,,,,,,,,,,,,,,,,,,,,,,,,,,,,,,,,,,,,
1702547333,1702547334,126,0,4289.487305,4285,4338.461426,4221.025879,4316.666504,4442.05127,4299.358887,4340,4371.794922,4284.230957,4583.974121,4471.922852,4387.94873,4325.384766,5946,3,70,,,,0,4,4,4,4,4,4,4,4,4,4,4,4,4,4,100,,,,,,,,,,,,,,,,,,,,,,,,,,,,,,,,,,,,,,,,,,,,,,,,,,,,,,,,,,,,,,,,,12.022805,2.930986,2.431671,2.325999,1.214539,25.949203,2.025861,2.707729,1.972092,1.074313,4.542395,1.949624,1.078878,1.644724,1.080858,10.838342,2.161623,2.155018,1.82104,1.141712,1.681999,1.374365,1.91574,2.416033,1.432252,30.700491,7.224102,3.78822,0.980234,0.556199,1.56569,0.663832,0.560659,0.429467,0.579462,0.958688,0.725851,0.493573,0.278592,0.437318,474.223785,149.988113,99.051048,28.196564,8.865458,5.814974,1.759336,2.374803,2.548331,1.542501,74.291176,10.705928,3.652816,2.965306,1.688833,3.422944,1.17372,0.909652,1.10211,0.815288,55.967384,14.602686,7.909974,2.701256,1.345069,15.441267,5.074228,4.712866,3.183898,1.652235
1702547333,1702547334,127,0,4308.846191,4296.153809,4365.256348,4234.230957,4325.384766,4459.102539,4321.282227,4356.153809,4401.538574,4310.384766,4610,4496.666504,4409.358887,4349.230957,70,3,70,,,,0,4,4,4,4,4,4,4,4,4,4,4,4,4,4,100,,,,,,,,,,,,,,,,,,,,,,,,,,,,,,,,,,,,,,,,,,,,,,,,,,,,,,,,,,,,,,,,,,,,,,,,,,,,,,,,,,,,,,,,,,,,,,,,,,,,,,,,,,,,,,,,,,,,,,,,,,,,,,,,,,,,,,
1702547333,1702547334,0,0,4316.282227,4315.512695,4369.358887,4242.94873,4318.717773,4455.384766,4324.871582,4353.077148,4402.307617,4324.871582,4608.205078,4495.128418,4416.666504,4351.666504,5420,3,70,,,,0,4,4,4,4,4,4,4,4,4,4,4,4,4,4,100,,,,,,,,,,,,,,,,,0,0,0.68637,-0.475281,-0.392212,-0.38623,0.927848,-0.309608,0.199243,-11.113107,-6.991932,97.054131,,,,,,,,,,,,,,,,,,,,,,,,,,,,,,,,,,,,,,,,,,,,,,,,,,,,,,,,,,,,,,,,,,,,,,,,,,,,,,,,,,,,,,,,,,,,,,,,,,,,,,,,,,
1702547333,1702547334,1,0,4297.05127,4310.128418,4344.615234,4228.717773,4311.922852,4441.025879,4309.102539,4336.922852,4387.179688,4297.05127,4579.487305,4470.512695,4391.153809,4326.153809,5726,3,70,,,,0,4,4,4,4,4,4,4,4,4,4,4,4,4,4,100,,,,,,,,,,,,,,,,,,,,,,,,,,,,,,,,,,,,,,,,,,,,,,,,,,,,,,,,,,,,,,,,,,,,,,,,,,,,,,,,,,,,,,,,,,,,,,,,,,,,,,,,,,,,,,,,,,,,,,,,,,,,,,,,,,,,,,
1702547333,1702547334,2,0,4277.563965,4291.025879,4324.871582,4205.128418,4304.230957,4430.384766,4293.846191,4327.94873,4372.94873,4239.358887,4548.461426,4456.794922,4351.153809,4298.974121,5632,3,70,,,,0,4,4,4,4,4,4,4,4,4,4,4,4,4,4,100,,,,,,,,,,,,,,,,,,,,,,,,,,,,,,,,,,,,,,,,,,,,,,,,,,,,,,,,,,,,,,,,,,,,,,,,,,,,,,,,,,,,,,,,,,,,,,,,,,,,,,,,,,,,,,,,,,,,,,,,,,,,,,,,,,,,,,
1702547333,1702547334,3,0,4260.256348,4270.256348,4309.487305,4179.230957,4291.410156,4413.333496,4279.487305,4318.333496,4358.846191,4205.769043,4512.820313,4443.077148,4322.05127,4275.897461,5564,3,70,,,,0,4,4,4,4,4,4,4,4,4,4,4,4,4,4,100,,,,,,,,,,,,,,,,,,,,,,,,,,,,,,,,,,,,,,,,,,,,,,,,,,,,,,,,,,,,,,,,,,,,,,,,,,,,,,,,,,,,,,,,,,,,,,,,,,,,,,,,,,,,,,,,,,,,,,,,,,,,,,,,,,,,,,
1702547333,1702547334,4,0,4258.461426,4265,4303.846191,4172.820313,4292.179688,4412.436035,4282.94873,4317.820313,4357.307617,4236.153809,4510.641113,4437.436035,4331.282227,4278.717773,4226,3,70,,,,0,4,4,4,4,4,4,4,4,4,4,4,4,4,4,100,,,,,,,,,,,,,,,,,1,0,0.686295,-0.475342,-0.39209,-0.386414,0.916127,-0.305701,0.189476,-11.051796,-6.942739,97.14872,,,,,,,,,,,,,,,,,,,,,,,,,,,,,,,,,,,,,,,,,,,,,,,,,,,,,,,,,,,,,,,,,,,,,,,,,,,,,,,,,,,,,,,,,,,,,,,,,,,,,,,,,,
1702547333,1702547334,5,0,4279.102539,4279.871582,4320,4187.179688,4305.641113,4424.487305,4299.871582,4334.487305,4363.974121,4277.563965,4547.307617,4457.436035,4365.256348,4305.384766,3124,3,70,,,,0,4,4,4,4,4,4,4,4,4,4,4,4,4,4,100,,,,,,,,,,,,,,,,,,,,,,,,,,,,,,,,,,,,,,,,,,,,,,,,,,,,,,,,,,,,,,,,,,,,,,,,,,,,,,,,,,,,,,,,,,,,,,,,,,,,,,,,,,,,,,,,,,,,,,,,,,,,,,,,,,,,,,
1702547333,1702547334,6,0,4285.512695,4283.077148,4330,4183.461426,4310.641113,4413.461426,4300,4342.05127,4365.128418,4281.153809,4558.846191,4465.769043,4373.974121,4311.025879,4175,3,70,,,,0,4,4,4,4,4,4,4,4,4,4,4,4,4,4,100,,,,,,,,,,,,,,,,,,,,,,,,,,,,,,,,,,,,,,,,,,,,,,,,,,,,,,,,,,,,,,,,,,,,,,,,,,,,,,,,,,,,,,,,,,,,,,,,,,,,,,,,,,,,,,,,,,,,,,,,,,,,,,,,,,,,,,
1702547333,1702547334,7,0,4267.05127,4260.128418,4314.487305,4147.307617,4299.487305,4386.282227,4292.820313,4331.794922,4362.05127,4256.666504,4535.641113,4450.897461,4353.333496,4288.974121,3027,3,70,,,,0,4,4,4,4,4,4,4,4,4,4,4,4,4,4,100,,,,,,,,,,,,,,,,,,,,,,,,,,,,,,,,,,,,,,,,,,,,,,,,,,,,,,,,,,,,,,,,,,,,,,,,,,,,,,,,,,,,,,,,,,,,,,,,,,,,,,,,,,,,,,,,,,,,,,,,,,,,,,,,,,,,,,
1702547333,1702547334,8,0,4258.589844,4244.615234,4300.769043,4117.436035,4291.153809,4375.512695,4295,4326.666504,4377.05127,4236.794922,4523.589844,4446.538574,4339.487305,4279.230957,2702,3,70,,,,0,4,4,4,4,4,4,4,4,4,4,4,4,4,4,100,,,,,,,,,,,,,,,,,2,0,0.686218,-0.475403,-0.39209,-0.386475,0.919546,-0.319863,0.195336,-10.896616,-7.048465,97.050514,,,,,,,,,,,,,,,,,,,,,,,,,,,,,,,,,,,,,,,,,,,,,,,,,,,,,,,,,,,,,,,,,,,,,,,,,,,,,,,,,,,,,,,,,,,,,,,,,,,,,,,,,,
1702547333,1702547334,9,0,4264.615234,4246.282227,4305.641113,4110,4293.846191,4378.461426,4295.128418,4333.205078,4427.94873,4242.692383,4525.769043,4453.846191,4333.846191,4293.077148,5505,3,70,,,,0,4,4,4,4,4,4,4,4,4,4,4,4,4,4,100,,,,,,,,,,,,,,,,,,,,,,,,,,,,,,,,,,,,,,,,,,,,,,,,,,,,,,,,,,,,,,,,,,,,,,,,,,,,,,,,,,,,,,,,,,,,,,,,,,,,,,,,,,,,,,,,,,,,,,,,,,,,,,,,,,,,,,
1702547333,1702547334,10,0,4267.307617,4245.256348,4311.666504,4105.897461,4295.256348,4377.692383,4292.563965,4333.717773,4477.94873,4265.256348,4523.077148,4455.769043,4318.717773,4309.102539,5946,3,70,,,,0,4,4,4,4,4,4,4,4,4,4,4,4,4,4,100,,,,,,,,,,,,,,,,,,,,,,,,,,,,,,,,,,,,,,,,,,,,,,,,,,,,,,,,,,,,,,,,,,,,,,,,,,,,,,,,,,,,,,,,,,,,,,,,,,,,,,,,,,,,,,,,,,,,,,,,,,,,,,,,,,,,,,
1702547333,1702547334,11,0,4272.692383,4245.256348,4313.461426,4104.102539,4295.384766,4377.05127,4297.307617,4329.871582,4492.05127,4268.589844,4523.077148,4458.205078,4311.538574,4315.897461,6097,3,70,,,,0,4,4,4,4,4,4,4,4,4,4,4,4,4,4,100,,,,,,,,,,,,,,,,,,,,,,,,,,,,,,,,,,,,,,,,,,,,,,,,,,,,,,,,,,,,,,,,,,,,,,,,,,,,,,,,,,,,,,,,,,,,,,,,,,,,,,,,,,,,,,,,,,,,,,,,,,,,,,,,,,,,,,
1702547333,1702547334,12,0,4282.94873,4243.333496,4317.563965,4107.436035,4309.871582,4380.641113,4302.820313,4333.589844,4495.769043,4250.769043,4525.128418,4466.666504,4324.358887,4316.410156,6486,3,70,,,,0,4,4,4,4,4,4,4,4,4,4,4,4,4,4,100,,,,,,,,,,,,,,,,,3,0,0.686107,-0.475464,-0.392029,-0.386658,0.903431,-0.311073,0.20022,-10.940288,-7.110285,96.895462,,,,,,,,,,,,,,,,,,,,,,,,,,,,,,,,,,,,,,,,,,,,,,,,,,,,,,,,,,,,,,,,,,,,,,,,,,,,,,,,,,,,,,,,,,,,,,,,,,,,,,,,,,
1702547333,1702547334,13,0,4279.230957,4237.307617,4314.358887,4101.794922,4318.589844,4378.717773,4299.102539,4333.205078,4493.717773,4242.692383,4513.974121,4462.436035,4329.871582,4310.897461,4432,3,70,,,,0,4,4,4,4,4,4,4,4,4,4,4,4,4,4,100,,,,,,,,,,,,,,,,,,,,,,,,,,,,,,,,,,,,,,,,,,,,,,,,,,,,,,,,,,,,,,,,,,,,,,,,,,,,,,,,,,,,,,,,,,,,,,,,,,,,,,,,,,,,,,,,,,,,,,,,,,,,,,,,,,,,,,
1702547333,1702547334,14,0,4266.794922,4228.077148,4307.05127,4089.230713,4285.256348,4372.307617,4293.461426,4328.205078,4476.794922,4254.487305,4496.666504,4450.384766,4317.820313,4305,5946,3,70,,,,0,4,4,4,4,4,4,4,4,4,4,4,4,4,4,100,,,,,,,,,,,,,,,,,,,,,,,,,,,,,,,,,,,,,,,,,,,,,,,,,,,,,,,,,,,,,,,,,8.596717,3.185957,2.699274,2.270221,1.151677,13.72759,2.104061,2.743828,1.794216,1.078227,3.075388,1.771097,1.101587,1.571425,1.022597,8.533304,2.188415,2.103758,1.647479,1.109304,1.933093,1.508868,1.943964,2.37887,1.46215,18.558916,4.41589,2.520214,0.633755,0.394781,1.676716,0.735241,0.564299,0.362018,0.534228,0.976183,0.732613,0.464418,0.249084,0.404721,384.648529,132.396469,80.542015,23.42054,8.115038,6.27379,1.710458,2.141873,2.309309,1.554277,83.428719,11.978261,4.286141,2.922186,1.587644,3.537261,1.213721,0.990844,1.026455,0.752465,49.912056,14.118802,7.354814,2.549618,1.334529,10.411346,4.405788,4.444959,2.826796,1.571589
1702547333,1702547334,15,0,4265,4216.538574,4304.743652,4089.230713,4250.512695,4372.179688,4293.333496,4329.871582,4484.230957,4251.282227,4484.743652,4453.205078,4309.102539,4306.410156,6097,3,70,,,,0,4,4,4,4,4,4,4,4,4,4,4,4,4,4,100,,,,,,,,,,,,,,,,,,,,,,,,,,,,,,,,,,,,,,,,,,,,,,,,,,,,,,,,,,,,,,,,,,,,,,,,,,,,,,,,,,,,,,,,,,,,,,,,,,,,,,,,,,,,,,,,,,,,,,,,,,,,,,,,,,,,,,
1702547333,1702547334,16,0,4262.05127,4208.846191,4299.102539,4089.487061,4271.410156,4374.487305,4292.436035,4330.897461,4519.743652,4221.666504,4463.077148,4453.205078,4293.077148,4304.743652,0,3,70,,,,0,4,4,4,4,4,4,4,4,4,4,4,4,4,4,100,,,,,,,,,,,,,,,,,4,0,0.686046,-0.475403,-0.392029,-0.386841,0.919057,-0.320352,0.191918,-10.979592,-7.13259,96.689247,,,,,,,,,,,,,,,,,,,,,,,,,,,,,,,,,,,,,,,,,,,,,,,,,,,,,,,,,,,,,,,,,,,,,,,,,,,,,,,,,,,,,,,,,,,,,,,,,,,,,,,,,,
1702547333,1702547334,17,0,4262.94873,4213.589844,4300.384766,4090.384521,4312.94873,4376.538574,4295.641113,4332.307617,4539.487305,4229.102539,4443.974121,4449.487305,4275.128418,4304.615234,0,3,70,,,,0,4,4,4,4,4,4,4,4,4,4,4,4,4,4,100,,,,,,,,,,,,,,,,,,,,,,,,,,,,,,,,,,,,,,,,,,,,,,,,,,,,,,,,,,,,,,,,,,,,,,,,,,,,,,,,,,,,,,,,,,,,,,,,,,,,,,,,,,,,,,,,,,,,,,,,,,,,,,,,,,,,,,
1702547333,1702547334,18,0,4277.179688,4218.589844,4314.871582,4107.179688,4314.358887,4382.563965,4304.615234,4340.128418,4530.384766,4268.077148,4448.461426,4457.179688,4282.05127,4313.717773,0,3,70,,,,0,4,4,4,4,4,4,4,4,4,4,4,4,4,4,100,,,,,,,,,,,,,,,,,,,,,,,,,,,,,,,,,,,,,,,,,,,,,,,,,,,,,,,,,,,,,,,,,,,,,,,,,,,,,,,,,,,,,,,,,,,,,,,,,,,,,,,,,,,,,,,,,,,,,,,,,,,,,,,,,,,,,,
1702547333,1702547334,19,0,4270.256348,4202.563965,4306.538574,4105.512695,4276.153809,4376.922852,4295.128418,4332.820313,4490.256348,4248.717773,4436.794922,4449.615234,4285.769043,4304.615234,0,3,70,,,,0,4,4,4,4,4,4,4,4,4,4,4,4,4,4,100,,,,,,,,,,,,,,,,,,,,,,,,,,,,,,,,,,,,,,,,,,,,,,,,,,,,,,,,,,,,,,,,,,,,,,,,,,,,,,,,,,,,,,,,,,,,,,,,,,,,,,,,,,,,,,,,,,,,,,,,,,,,,,,,,,,,,,
1702547333,1702547334,20,0,4248.589844,4191.922852,4287.307617,4089.102539,4260.641113,4367.94873,4281.025879,4321.153809,4458.077148,4222.307617,4415.384766,4432.94873,4281.538574,4286.153809,0,3,70,,,,0,4,4,4,4,4,4,4,4,4,4,4,4,4,4,100,,,,,,,,,,,,,,,,,5,0,0.685935,-0.475464,-0.392029,-0.386963,0.926383,-0.310096,0.188011,-10.914967,-7.219331,96.686989,,,,,,,,,,,,,,,,,,,,,,,,,,,,,,,,,,,,,,,,,,,,,,,,,,,,,,,,,,,,,,,,,,,,,,,,,,,,,,,,,,,,,,,,,,,,,,,,,,,,,,,,,,
1702547333,1702547334,21,0,4259.358887,4205.641113,4296.282227,4101.922852,4292.820313,4377.94873,4290.897461,4333.333496,4464.615234,4251.025879,4430.897461,4444.615234,4302.692383,4295.256348,0,3,70,,,,0,4,4,4,4,4,4,4,4,4,4,4,4,4,4,100,,,,,,,,,,,,,,,,,,,,,,,,,,,,,,,,,,,,,,,,,,,,,,,,,,,,,,,,,,,,,,,,,,,,,,,,,,,,,,,,,,,,,,,,,,,,,,,,,,,,,,,,,,,,,,,,,,,,,,,,,,,,,,,,,,,,,,
1702547333,1702547334,22,0,4269.615234,4200.641113,4303.461426,4114.487305,4300.769043,4383.846191,4298.205078,4338.846191,4444.871582,4259.871582,4438.717773,4453.589844,4319.615234,4299.487305,0,3,70,,,,0,4,4,4,4,4,4,4,4,4,4,4,4,4,4,100,,,,,,,,,,,,,,,,,,,,,,,,,,,,,,,,,,,,,,,,,,,,,,,,,,,,,,,,,,,,,,,,,,,,,,,,,,,,,,,,,,,,,,,,,,,,,,,,,,,,,,,,,,,,,,,,,,,,,,,,,,,,,,,,,,,,,,
1702547334,1702547334,23,0,4245.641113,4173.974121,4286.410156,4099.871582,4270.512695,4374.230957,4287.05127,4323.333496,4453.461426,4228.205078,4411.282227,4434.615234,4296.794922,4283.333496,0,3,70,,,,0,4,4,4,4,4,4,4,4,4,4,4,4,4,4,100,,,,,,,,,,,,,,,,,,,,,,,,,,,,,,,,,,,,,,,,,,,,,,,,,,,,,,,,,,,,,,,,,,,,,,,,,,,,,,,,,,,,,,,,,,,,,,,,,,,,,,,,,,,,,,,,,,,,,,,,,,,,,,,,,,,,,,
1702547334,1702547334,24,0,4248.717773,4185,4288.589844,4110.256348,4287.820313,4379.358887,4292.820313,4327.692383,4574.230957,4215.769043,4416.538574,4437.820313,4280.128418,4303.461426,0,3,70,,,,0,4,4,4,4,4,4,4,4,4,4,4,4,4,4,100,,,,,,,,,,,,,,,,,6,0,0.685825,-0.475525,-0.391968,-0.387146,0.919057,-0.313026,0.19436,-10.72347,-7.214065,96.718292,,,,,,,,,,,,,,,,,,,,,,,,,,,,,,,,,,,,,,,,,,,,,,,,,,,,,,,,,,,,,,,,,,,,,,,,,,,,,,,,,,,,,,,,,,,,,,,,,,,,,,,,,,
1702547334,1702547334,25,0,4279.743652,4216.410156,4310.641113,4143.077148,4317.563965,4395,4309.743652,4344.615234,4667.05127,4236.794922,4455.256348,4459.487305,4286.282227,4344.102539,0,3,70,,,,0,4,4,4,4,4,4,4,4,4,4,4,4,4,4,100,,,,,,,,,,,,,,,,,,,,,,,,,,,,,,,,,,,,,,,,,,,,,,,,,,,,,,,,,,,,,,,,,,,,,,,,,,,,,,,,,,,,,,,,,,,,,,,,,,,,,,,,,,,,,,,,,,,,,,,,,,,,,,,,,,,,,,
1702547334,1702547334,26,0,4272.436035,4204.487305,4306.794922,4143.333496,4287.94873,4392.05127,4300.641113,4336.025879,4656.538574,4261.666504,4456.025879,4452.05127,4268.974121,4341.794922,0,3,70,,,,0,4,4,4,4,4,4,4,4,4,4,4,4,4,4,100,,,,,,,,,,,,,,,,,,,,,,,,,,,,,,,,,,,,,,,,,,,,,,,,,,,,,,,,,,,,,,,,,,,,,,,,,,,,,,,,,,,,,,,,,,,,,,,,,,,,,,,,,,,,,,,,,,,,,,,,,,,,,,,,,,,,,,
1702547334,1702547334,27,0,4256.025879,4187.820313,4298.461426,4139.230957,4274.230957,4388.589844,4291.666504,4330.128418,4676.666504,4260,4441.922852,4445.384766,4241.282227,4336.538574,0,3,70,,,,0,4,4,4,4,4,4,4,4,4,4,4,4,4,4,100,,,,,,,,,,,,,,,,,,,,,,,,,,,,,,,,,,,,,,,,,,,,,,,,,,,,,,,,,,,,,,,,,,,,,,,,,,,,,,,,,,,,,,,,,,,,,,,,,,,,,,,,,,,,,,,,,,,,,,,,,,,,,,,,,,,,,,
1702547334,1702547334,28,0,4283.846191,4215.128418,4320.641113,4165.512695,4308.846191,4405,4310.128418,4349.230957,4736.666504,4250.769043,4470.897461,4467.307617,4243.077148,4368.333496,0,3,70,,,,0,4,4,4,4,4,4,4,4,4,4,4,4,4,4,100,,,,,,,,,,,,,,,,,7,0,0.685768,-0.475708,-0.391785,-0.387207,0.918569,-0.326212,0.20022,-10.834456,-7.142658,96.729797,,,,,,,,,,,,,,,,,,,,,,,,,,,,,,,,,,,,,,,,,,,,,,,,,,,,,,,,,,,,,,,,,,,,,,,,,,,,,,,,,,,,,,,,,,,,,,,,,,,,,,,,,,
1702547334,1702547334,29,0,4303.846191,4228.077148,4335.384766,4181.282227,4320.897461,4410.384766,4313.846191,4350.512695,4729.102539,4263.205078,4498.974121,4473.205078,4248.589844,4380.256348,0,3,70,,,,0,4,4,4,4,4,4,4,4,4,4,4,4,4,4,100,,,,,,,,,,,,,,,,,,,,,,,,,,,,,,,,,,,,,,,,,,,,,,,,,,,,,,,,,,,,,,,,,,,,,,,,,,,,,,,,,,,,,,,,,,,,,,,,,,,,,,,,,,,,,,,,,,,,,,,,,,,,,,,,,,,,,,
1702547334,1702547334,30,0,4282.94873,4201.794922,4319.743652,4168.717773,4302.436035,4396.922852,4292.05127,4334.615234,4687.307617,4272.563965,4489.230957,4454.615234,4238.846191,4354.871582,0,3,70,,,,0,4,4,4,4,4,4,4,4,4,4,4,4,4,4,100,1,0,1,1,1,0,1,0,1,3,0,1,0,3,1,1,,,,,,,,,,,,,,,,,,,,,,,,,,,,,,,,,,,,,,,,,,,,,,,,,7.298139,3.144317,2.997831,2.082771,1.059276,10.115975,2.089754,2.865217,1.555372,1.068929,2.499771,1.450904,1.283823,1.444266,0.939284,7.366706,1.981393,2.187417,1.414839,1.073721,1.931249,1.52544,2.068725,2.25142,1.486451,8.948951,2.260073,1.501202,0.37852,0.272141,1.620922,0.775139,0.586504,0.313946,0.491638,0.908328,0.700239,0.435787,0.216253,0.370971,300.541534,111.571144,64.10836,19.879414,7.441827,6.064511,1.661378,2.190491,2.078609,1.576088,87.359756,12.386837,5.011018,2.797386,1.441586,3.338249,1.147219,1.132378,0.903823,0.672863,42.877075,13.025179,6.720965,2.417916,1.322511,8.332836,3.65604,4.440383,2.42493,1.456246
1702547334,1702547334,31,0,4278.205078,4196.153809,4314.487305,4170.256348,4282.179688,4392.94873,4290.641113,4337.436035,4666.153809,4263.333496,4495.256348,4455.256348,4241.666504,4350.384766,0,3,70,,,,0,4,4,4,4,4,4,4,4,4,4,4,4,4,4,100,,,,,,,,,,,,,,,,,,,,,,,,,,,,,,,,,,,,,,,,,,,,,,,,,,,,,,,,,,,,,,,,,,,,,,,,,,,,,,,,,,,,,,,,,,,,,,,,,,,,,,,,,,,,,,,,,,,,,,,,,,,,,,,,,,,,,,
1702547334,1702547334,32,0,4295.256348,4213.717773,4328.205078,4188.205078,4275.256348,4398.205078,4307.179688,4344.871582,4646.666504,4262.820313,4516.666504,4466.025879,4252.436035,4361.794922,0,3,70,,,,0,4,4,4,4,4,4,4,4,4,4,4,4,4,4,100,,,,,,,,,,,,,,,,,8,0,0.685726,-0.475769,-0.391724,-0.387268,0.912709,-0.308143,0.196801,-10.717677,-7.245059,96.74015,,,,,,,,,,,,,,,,,,,,,,,,,,,,,,,,,,,,,,,,,,,,,,,,,,,,,,,,,,,,,,,,,,,,,,,,,,,,,,,,,,,,,,,,,,,,,,,,,,,,,,,,,,
1702547334,1702547334,33,0,4290.128418,4213.974121,4324.615234,4192.179688,4290.256348,4397.179688,4305.256348,4340.641113,4620.641113,4253.077148,4498.717773,4457.820313,4247.307617,4353.717773,0,3,70,,,,0,4,4,4,4,4,4,4,4,4,4,4,4,4,4,100,,,,,,,,,,,,,,,,,,,,,,,,,,,,,,,,,,,,,,,,,,,,,,,,,,,,,,,,,,,,,,,,,,,,,,,,,,,,,,,,,,,,,,,,,,,,,,,,,,,,,,,,,,,,,,,,,,,,,,,,,,,,,,,,,,,,,,
1702547334,1702547334,34,0,4269.102539,4198.333496,4307.307617,4184.871582,4301.794922,4395,4292.05127,4338.077148,4588.333496,4226.666504,4468.589844,4446.666504,4240.512695,4337.179688,0,3,70,,,,0,4,4,4,4,4,4,4,4,4,4,4,4,4,4,100,,,,,,,,,,,,,,,,,,,,,,,,,,,,,,,,,,,,,,,,,,,,,,,,,,,,,,,,,,,,,,,,,,,,,,,,,,,,,,,,,,,,,,,,,,,,,,,,,,,,,,,,,,,,,,,,,,,,,,,,,,,,,,,,,,,,,,
1702547334,1702547334,35,0,4270.897461,4196.410156,4311.794922,4190,4297.563965,4399.230957,4297.436035,4341.538574,4568.333496,4243.846191,4475.128418,4453.846191,4251.922852,4339.358887,0,3,70,,,,0,4,4,4,4,4,4,4,4,4,4,4,4,4,4,100,,,,,,,,,,,,,,,,,,,,,,,,,,,,,,,,,,,,,,,,,,,,,,,,,,,,,,,,,,,,,,,,,,,,,,,,,,,,,,,,,,,,,,,,,,,,,,,,,,,,,,,,,,,,,,,,,,,,,,,,,,,,,,,,,,,,,,
1702547334,1702547334,36,0,4285.641113,4203.333496,4327.94873,4207.94873,4293.589844,4398.333496,4304.871582,4343.077148,4547.307617,4279.230957,4483.717773,4460.897461,4268.205078,4348.846191,0,3,70,,,,0,4,4,4,4,4,4,4,4,4,4,4,4,4,4,100,,,,,,,,,,,,,,,,,9,0,0.685714,-0.475586,-0.391846,-0.38739,0.924918,-0.299841,0.198755,-10.812576,-7.153886,96.766136,,,,,,,,,,,,,,,,,,,,,,,,,,,,,,,,,,,,,,,,,,,,,,,,,,,,,,,,,,,,,,,,,,,,,,,,,,,,,,,,,,,,,,,,,,,,,,,,,,,,,,,,,,
1702547334,1702547334,37,0,4286.025879,4203.077148,4326.922852,4218.589844,4296.282227,4395.128418,4298.717773,4340.641113,4515.769043,4269.102539,4467.94873,4456.794922,4273.717773,4347.436035,0,3,70,,,,0,4,4,4,4,4,4,4,4,4,4,4,4,4,4,100,,,,,,,,,,,,,,,,,,,,,,,,,,,,,,,,,,,,,,,,,,,,,,,,,,,,,,,,,,,,,,,,,,,,,,,,,,,,,,,,,,,,,,,,,,,,,,,,,,,,,,,,,,,,,,,,,,,,,,,,,,,,,,,,,,,,,,
1702547334,1702547334,38,0,4284.358887,4202.436035,4326.410156,4221.922852,4308.333496,4401.666504,4299.487305,4342.05127,4501.153809,4254.615234,4455.128418,4457.436035,4278.717773,4349.615234,0,3,70,,,,0,4,4,4,4,4,4,4,4,4,4,4,4,4,4,100,,,,,,,,,,,,,,,,,,,,,,,,,,,,,,,,,,,,,,,,,,,,,,,,,,,,,,,,,,,,,,,,,,,,,,,,,,,,,,,,,,,,,,,,,,,,,,,,,,,,,,,,,,,,,,,,,,,,,,,,,,,,,,,,,,,,,,
1702547334,1702547334,39,0,4284.358887,4203.461426,4330.512695,4216.666504,4306.922852,4402.179688,4302.179688,4341.410156,4501.410156,4260.128418,4433.077148,4456.666504,4281.666504,4349.743652,0,3,70,,,,0,4,4,4,4,4,4,4,4,4,4,4,4,4,4,100,,,,,,,,,,,,,,,,,,,,,,,,,,,,,,,,,,,,,,,,,,,,,,,,,,,,,,,,,,,,,,,,,,,,,,,,,,,,,,,,,,,,,,,,,,,,,,,,,,,,,,,,,,,,,,,,,,,,,,,,,,,,,,,,,,,,,,
1702547334,1702547334,40,0,4278.717773,4200.512695,4323.461426,4207.692383,4285.256348,4390,4295.384766,4336.922852,4509.358887,4253.461426,4404.871582,4450.512695,4278.717773,4342.94873,0,3,70,,,,0,4,4,4,4,4,4,4,4,4,4,4,4,4,4,100,,,,,,,,,,,,,,,,,10,0,0.685715,-0.475586,-0.391663,-0.387573,0.917104,-0.315957,0.1885,-10.897985,-7.238498,96.956184,,,,,,,,,,,,,,,,,,,,,,,,,,,,,,,,,,,,,,,,,,,,,,,,,,,,,,,,,,,,,,,,,,,,,,,,,,,,,,,,,,,,,,,,,,,,,,,,,,,,,,,,,,
1702547334,1702547334,41,0,4276.666504,4199.102539,4319.230957,4212.307617,4275.897461,4387.179688,4293.461426,4337.820313,4537.05127,4245.897461,4400.384766,4451.025879,4286.794922,4346.922852,0,3,70,,,,0,4,4,4,4,4,4,4,4,4,4,4,4,4,4,100,,,,,,,,,,,,,,,,,,,,,,,,,,,,,,,,,,,,,,,,,,,,,,,,,,,,,,,,,,,,,,,,,,,,,,,,,,,,,,,,,,,,,,,,,,,,,,,,,,,,,,,,,,,,,,,,,,,,,,,,,,,,,,,,,,,,,,
1702547334,1702547334,42,0,4285.384766,4207.563965,4332.563965,4223.589844,4284.871582,4391.153809,4300.769043,4342.563965,4562.179688,4262.307617,4411.025879,4460.128418,4301.666504,4358.589844,0,3,70,,,,0,4,4,4,4,4,4,4,4,4,4,4,4,4,4,100,,,,,,,,,,,,,,,,,,,,,,,,,,,,,,,,,,,,,,,,,,,,,,,,,,,,,,,,,,,,,,,,,,,,,,,,,,,,,,,,,,,,,,,,,,,,,,,,,,,,,,,,,,,,,,,,,,,,,,,,,,,,,,,,,,,,,,
1702547334,1702547334,43,0,4296.025879,4217.820313,4343.717773,4228.589844,4309.358887,4376.666504,4305.897461,4343.846191,4556.025879,4275.256348,4420.641113,4466.025879,4308.461426,4366.410156,0,3,70,,,,0,4,4,4,4,4,4,4,4,4,4,4,4,4,4,100,,,,,,,,,,,,,,,,,,,,,,,,,,,,,,,,,,,,,,,,,,,,,,,,,,,,,,,,,,,,,,,,,,,,,,,,,,,,,,,,,,,,,,,,,,,,,,,,,,,,,,,,,,,,,,,,,,,,,,,,,,,,,,,,,,,,,,
1702547334,1702547334,44,0,4290.256348,4213.717773,4333.077148,4225.769043,4319.230957,4350.769043,4302.436035,4340.641113,4547.179688,4263.846191,4421.025879,4461.538574,4307.05127,4360.641113,0,3,70,,,,0,4,4,4,4,4,4,4,4,4,4,4,4,4,4,100,,,,,,,,,,,,,,,,,11,0,0.68582,-0.475586,-0.391418,-0.387634,0.932243,-0.329142,0.201685,-10.74152,-7.331315,96.860573,,,,,,,,,,,,,,,,,,,,,,,,,,,,,,,,,,,,,,,,,,,,,,,,,,,,,,,,,,,,,,,,,,,,,,,,,,,,,,,,,,,,,,,,,,,,,,,,,,,,,,,,,,
1702547334,1702547334,45,0,4282.436035,4209.743652,4331.666504,4227.692383,4289.358887,4339.743652,4296.282227,4341.794922,4559.615234,4247.05127,4421.538574,4460.769043,4308.461426,4355.128418,0,3,70,,,,0,4,4,4,4,4,4,4,4,4,4,4,4,4,4,100,,,,,,,,,,,,,,,,,,,,,,,,,,,,,,,,,,,,,,,,,,,,,,,,,,,,,,,,,,,,,,,,,,,,,,,,,,,,,,,,,,,,,,,,,,,,,,,,,,,,,,,,,,,,,,,,,,,,,,,,,,,,,,,,,,,,,,
1702547334,1702547334,46,0,4289.487305,4215.384766,4349.230957,4235.641113,4280.256348,4340.769043,4299.871582,4348.717773,4562.05127,4250.897461,4430.512695,4469.871582,4318.974121,4362.820313,0,3,70,,,,0,4,4,4,4,4,4,4,4,4,4,4,4,4,4,100,,,,,,,,,,,,,,,,,,,,,,,,,,,,,,,,,,,,,,,,,,,,,,,,,,,,,,,,,,,,,,,,,6.410613,2.867292,3.229376,1.781663,0.966476,9.249665,1.935104,2.980637,1.278034,1.059777,2.447266,1.172782,1.604779,1.276931,0.860023,6.145625,1.651491,2.385696,1.166233,1.047119,1.76847,1.433705,2.231211,2.074083,1.516317,4.114181,0.980206,0.875549,0.252811,0.207707,1.460305,0.773136,0.631544,0.290014,0.460558,0.820832,0.647675,0.429206,0.189694,0.341404,241.446564,95.162186,54.021023,18.187719,6.948947,5.431779,1.772708,2.506133,1.988567,1.648835,84.311562,11.819559,5.657632,2.556749,1.294941,2.942926,1.05408,1.30721,0.757448,0.593804,35.89867,11.466569,6.187512,2.305392,1.322044,7.713604,3.337723,4.662266,2.01253,1.339326
1702547334,1702547334,47,0,4301.794922,4220.641113,4358.333496,4243.974121,4318.974121,4342.820313,4311.922852,4355.769043,4531.538574,4275.384766,4435.897461,4477.436035,4336.794922,4368.717773,0,3,70,,,,0,4,4,4,4,4,4,4,4,4,4,4,4,4,4,100,,,,,,,,,,,,,,,,,,,,,,,,,,,,,,,,,,,,,,,,,,,,,,,,,,,,,,,,,,,,,,,,,,,,,,,,,,,,,,,,,,,,,,,,,,,,,,,,,,,,,,,,,,,,,,,,,,,,,,,,,,,,,,,,,,,,,,
1702547334,1702547334,48,0,4293.974121,4221.025879,4345.641113,4244.871582,4336.282227,4341.922852,4306.025879,4350.897461,4478.846191,4272.820313,4413.461426,4468.461426,4342.179688,4351.538574,0,3,70,,,,0,4,4,4,4,4,4,4,4,4,4,4,4,4,4,100,,,,,,,,,,,,,,,,,12,0,0.685767,-0.476013,-0.391113,-0.387512,0.918081,-0.304725,0.191918,-10.800701,-7.36485,96.657845,,,,,,,,,,,,,,,,,,,,,,,,,,,,,,,,,,,,,,,,,,,,,,,,,,,,,,,,,,,,,,,,,,,,,,,,,,,,,,,,,,,,,,,,,,,,,,,,,,,,,,,,,,
1702547334,1702547334,49,0,4275.641113,4216.153809,4330.128418,4238.333496,4302.436035,4333.717773,4289.230957,4338.717773,4429.358887,4241.025879,4385.384766,4455.897461,4325.641113,4331.282227,0,3,70,,,,0,4,4,4,4,4,4,4,4,4,4,4,4,4,4,100,,,,,,,,,,,,,,,,,,,,,,,,,,,,,,,,,,,,,,,,,,,,,,,,,,,,,,,,,,,,,,,,,,,,,,,,,,,,,,,,,,,,,,,,,,,,,,,,,,,,,,,,,,,,,,,,,,,,,,,,,,,,,,,,,,,,,,
1702547334,1702547334,50,0,4283.205078,4219.487305,4339.358887,4245.512695,4274.358887,4328.461426,4292.94873,4343.589844,4411.025879,4246.025879,4404.102539,4465.256348,4333.461426,4345.384766,0,3,70,,,,0,4,4,4,4,4,4,4,4,4,4,4,4,4,4,100,,,,,,,,,,,,,,,,,,,,,,,,,,,,,,,,,,,,,,,,,,,,,,,,,,,,,,,,,,,,,,,,,,,,,,,,,,,,,,,,,,,,,,,,,,,,,,,,,,,,,,,,,,,,,,,,,,,,,,,,,,,,,,,,,,,,,,
1702547334,1702547334,51,0,4307.692383,4238.846191,4354.358887,4260.256348,4279.615234,4330,4301.025879,4350.897461,4422.692383,4283.589844,4444.487305,4478.077148,4373.461426,4366.794922,0,3,70,,,,0,4,4,4,4,4,4,4,4,4,4,4,4,4,4,100,,,,,,,,,,,,,,,,,,,,,,,,,,,,,,,,,,,,,,,,,,,,,,,,,,,,,,,,,,,,,,,,,,,,,,,,,,,,,,,,,,,,,,,,,,,,,,,,,,,,,,,,,,,,,,,,,,,,,,,,,,,,,,,,,,,,,,
1702547334,1702547334,52,0,4301.538574,4245.128418,4341.282227,4254.102539,4299.230957,4322.563965,4288.974121,4339.358887,4434.615234,4274.230957,4440.128418,4468.717773,4379.358887,4356.922852,0,3,70,,,,0,4,4,4,4,4,4,4,4,4,4,4,4,4,4,100,,,,,,,,,,,,,,,,,13,0,0.685778,-0.476196,-0.390991,-0.38739,0.930289,-0.304725,0.197778,-10.937298,-7.245031,96.875397,,,,,,,,,,,,,,,,,,,,,,,,,,,,,,,,,,,,,,,,,,,,,,,,,,,,,,,,,,,,,,,,,,,,,,,,,,,,,,,,,,,,,,,,,,,,,,,,,,,,,,,,,,
1702547334,1702547334,53,0,4275.897461,4228.974121,4317.05127,4240.769043,4311.025879,4310,4280.897461,4333.846191,4432.179688,4225,4402.179688,4455.256348,4350,4333.846191,0,3,70,,,,0,4,4,4,4,4,4,4,4,4,4,4,4,4,4,100,,,,,,,,,,,,,,,,,,,,,,,,,,,,,,,,,,,,,,,,,,,,,,,,,,,,,,,,,,,,,,,,,,,,,,,,,,,,,,,,,,,,,,,,,,,,,,,,,,,,,,,,,,,,,,,,,,,,,,,,,,,,,,,,,,,,,,
1702547334,1702547334,54,0,4280.384766,4227.820313,4323.846191,4252.94873,4306.922852,4311.410156,4295.256348,4347.563965,4436.410156,4233.205078,4404.743652,4467.05127,4358.461426,4339.615234,0,3,70,,,,0,4,4,4,4,4,4,4,4,4,4,4,4,4,4,100,,,,,,,,,,,,,,,,,,,,,,,,,,,,,,,,,,,,,,,,,,,,,,,,,,,,,,,,,,,,,,,,,,,,,,,,,,,,,,,,,,,,,,,,,,,,,,,,,,,,,,,,,,,,,,,,,,,,,,,,,,,,,,,,,,,,,,
1702547334,1702547334,55,0,4293.333496,4241.666504,4335.256348,4264.743652,4301.410156,4316.025879,4299.871582,4351.025879,4495.384766,4278.717773,4423.205078,4476.153809,4380.384766,4360.384766,0,3,70,,,,0,4,4,4,4,4,4,4,4,4,4,4,4,4,4,100,,,,,,,,,,,,,,,,,,,,,,,,,,,,,,,,,,,,,,,,,,,,,,,,,,,,,,,,,,,,,,,,,,,,,,,,,,,,,,,,,,,,,,,,,,,,,,,,,,,,,,,,,,,,,,,,,,,,,,,,,,,,,,,,,,,,,,
1702547334,1702547334,56,0,4270.897461,4233.846191,4310.384766,4247.436035,4281.922852,4302.179688,4281.282227,4335.512695,4625.256348,4270.384766,4360.128418,4452.94873,4333.461426,4356.666504,0,3,70,,,,0,4,4,4,4,4,4,4,4,4,4,4,4,4,4,100,,,,,,,,,,,,,,,,,14,0,0.685932,-0.476074,-0.391052,-0.387207,0.927848,-0.311561,0.19436,-10.960235,-7.103862,96.771187,,,,,,,,,,,,,,,,,,,,,,,,,,,,,,,,,,,,,,,,,,,,,,,,,,,,,,,,,,,,,,,,,,,,,,,,,,,,,,,,,,,,,,,,,,,,,,,,,,,,,,,,,,
1702547334,1702547334,57,0,4255.769043,4225.384766,4296.794922,4241.538574,4274.358887,4285,4278.589844,4335.256348,4764.743652,4237.94873,4257.563965,4443.461426,4270.512695,4359.102539,0,3,70,,,,0,4,4,4,4,4,4,4,4,4,4,4,4,4,4,100,,,,,,,,,,,,,,,,,,,,,,,,,,,,,,,,,,,,,,,,,,,,,,,,,,,,,,,,,,,,,,,,,,,,,,,,,,,,,,,,,,,,,,,,,,,,,,,,,,,,,,,,,,,,,,,,,,,,,,,,,,,,,,,,,,,,,,
1702547334,1702547334,58,0,4272.307617,4234.743652,4314.358887,4261.153809,4299.743652,4282.179688,4293.846191,4347.820313,4840.384766,4242.05127,4216.922852,4462.820313,4260,4387.820313,0,3,70,,,,0,4,4,4,4,4,4,4,4,4,4,4,4,4,4,100,,,,,,,,,,,,,,,,,,,,,,,,,,,,,,,,,,,,,,,,,,,,,,,,,,,,,,,,,,,,,,,,,,,,,,,,,,,,,,,,,,,,,,,,,,,,,,,,,,,,,,,,,,,,,,,,,,,,,,,,,,,,,,,,,,,,,,
1702547334,1702547334,59,0,4285.256348,4239.743652,4322.307617,4275.512695,4306.153809,4281.538574,4296.025879,4349.358887,4849.871582,4263.077148,4220.641113,4472.436035,4264.102539,4405.641113,0,3,70,,,,0,4,4,4,4,4,4,4,4,4,4,4,4,4,4,100,,,,,,,,,,,,,,,,,,,,,,,,,,,,,,,,,,,,,,,,,,,,,,,,,,,,,,,,,,,,,,,,,,,,,,,,,,,,,,,,,,,,,,,,,,,,,,,,,,,,,,,,,,,,,,,,,,,,,,,,,,,,,,,,,,,,,,
1702547334,1702547334,60,0,4276.410156,4234.743652,4313.077148,4272.307617,4279.743652,4271.538574,4292.436035,4344.230957,4825.512695,4263.717773,4204.871582,4464.615234,4247.563965,4394.615234,0,3,70,,,,0,4,4,4,4,4,4,4,4,4,4,4,4,4,4,100,,,,,,,,,,,,,,,,,15,0,0.685923,-0.476135,-0.391113,-0.387085,0.932243,-0.315957,0.204126,-10.914211,-7.043476,96.977402,,,,,,,,,,,,,,,,,,,,,,,,,,,,,,,,,,,,,,,,,,,,,,,,,,,,,,,,,,,,,,,,,,,,,,,,,,,,,,,,,,,,,,,,,,,,,,,,,,,,,,,,,,
1702547334,1702547334,61,0,4265.256348,4230.256348,4304.102539,4263.205078,4270.128418,4261.666504,4292.436035,4342.436035,4784.487305,4247.436035,4183.333496,4455,4232.05127,4375.128418,0,3,70,,,,0,4,4,4,4,4,4,4,4,4,4,4,4,4,4,100,,,,,,,,,,,,,,,,,,,,,,,,,,,,,,,,,,,,,,,,,,,,,,,,,,,,,,,,,,,,,,,,,,,,,,,,,,,,,,,,,,,,,,,,,,,,,,,,,,,,,,,,,,,,,,,,,,,,,,,,,,,,,,,,,,,,,,
1702547334,1702547334,62,0,4271.922852,4237.563965,4301.410156,4267.94873,4286.538574,4261.922852,4290.128418,4344.358887,4748.717773,4240.512695,4199.102539,4456.666504,4247.820313,4375,0,3,70,,,,0,4,4,4,4,4,4,4,4,4,4,4,4,4,4,100,,,,,,,,,,,,,,,,,,,,,,,,,,,,,,,,,,,,,,,,,,,,,,,,,,,,,,,,,,,,,,,,,5.408852,2.513637,3.306552,1.44675,0.90093,8.123726,1.72135,3.016764,1.012246,1.061784,2.687366,1.042837,1.972048,1.108492,0.809274,4.928628,1.327592,2.612173,0.968769,1.035181,1.454574,1.276338,2.331269,1.913614,1.557652,2.36481,0.455956,0.609531,0.240531,0.196753,1.212725,0.724928,0.688978,0.293054,0.445062,0.670509,0.589208,0.448673,0.180214,0.321202,209.34021,90.230171,49.925434,17.95558,6.589167,4.460001,2.148823,2.956983,2.162434,1.787984,75.668823,10.655426,6.035816,2.267996,1.190106,2.449608,1.015874,1.461857,0.62723,0.533616,30.171068,9.751231,5.831543,2.232786,1.337366,7.838912,3.767127,4.899466,1.661036,1.248793
1702547334,1702547334,63,0,4277.307617,4235.384766,4303.461426,4281.153809,4290,4262.94873,4290.769043,4344.743652,4710.641113,4251.794922,4220,4464.230957,4258.333496,4375.897461,0,3,70,,,,0,4,4,4,4,4,4,4,4,4,4,4,4,4,4,100,,,,,,,,,,,,,,,,,,,,,,,,,,,,,,,,,,,,,,,,,,,,,,,,,,,,,,,,,,,,,,,,,,,,,,,,,,,,,,,,,,,,,,,,,,,,,,,,,,,,,,,,,,,,,,,,,,,,,,,,,,,,,,,,,,,,,,
1702547334,1702547334,64,0,4267.94873,4223.461426,4304.230957,4277.307617,4298.974121,4257.436035,4297.436035,4342.563965,4664.358887,4272.179688,4210.769043,4463.461426,4246.794922,4361.666504,5425,3,70,,,,0,4,4,4,4,4,4,4,4,4,4,4,4,4,4,100,,,,,,,,,,,,,,,,,16,0,0.685789,-0.476379,-0.391052,-0.387085,0.924429,-0.316933,0.185081,-10.889457,-7.089128,96.97966,,,,,,,,,,,,,,,,,,,,,,,,,,,,,,,,,,,,,,,,,,,,,,,,,,,,,,,,,,,,,,,,,,,,,,,,,,,,,,,,,,,,,,,,,,,,,,,,,,,,,,,,,,
1702547334,1702547334,65,0,4270.641113,4230,4299.230957,4268.717773,4304.358887,4253.717773,4292.179688,4342.820313,4631.666504,4278.333496,4204.487305,4460.769043,4267.436035,4362.436035,5733,3,70,,,,0,4,4,4,4,4,4,4,4,4,4,4,4,4,4,100,,,,,,,,,,,,,,,,,,,,,,,,,,,,,,,,,,,,,,,,,,,,,,,,,,,,,,,,,,,,,,,,,,,,,,,,,,,,,,,,,,,,,,,,,,,,,,,,,,,,,,,,,,,,,,,,,,,,,,,,,,,,,,,,,,,,,,
1702547334,1702547334,66,0,4280.512695,4222.05127,4295.897461,4264.615234,4268.333496,4253.461426,4279.230957,4344.615234,4597.94873,4258.205078,4214.102539,4463.589844,4313.717773,4379.615234,5644,3,70,,,,0,4,4,4,4,4,4,4,4,4,4,4,4,4,4,100,,,,,,,,,,,,,,,,,,,,,,,,,,,,,,,,,,,,,,,,,,,,,,,,,,,,,,,,,,,,,,,,,,,,,,,,,,,,,,,,,,,,,,,,,,,,,,,,,,,,,,,,,,,,,,,,,,,,,,,,,,,,,,,,,,,,,,
1702547334,1702547334,67,0,4276.153809,4175.769043,4297.94873,4247.436035,4262.436035,4253.846191,4279.615234,4344.230957,4555.512695,4247.692383,4222.307617,4461.538574,4336.922852,4377.692383,5599,3,70,,,,0,4,4,4,4,4,4,4,4,4,4,4,4,4,4,100,,,,,,,,,,,,,,,,,,,,,,,,,,,,,,,,,,,,,,,,,,,,,,,,,,,,,,,,,,,,,,,,,,,,,,,,,,,,,,,,,,,,,,,,,,,,,,,,,,,,,,,,,,,,,,,,,,,,,,,,,,,,,,,,,,,,,,
1702547334,1702547334,68,0,4277.05127,4144.230957,4298.717773,4228.717773,4299.871582,4249.615234,4279.871582,4342.179688,4532.436035,4269.230957,4241.282227,4459.358887,4360.128418,4370,4268,3,70,,,,0,4,4,4,4,4,4,4,4,4,4,4,4,4,4,100,,,,,,,,,,,,,,,,,17,0,0.685566,-0.476501,-0.391052,-0.387329,0.918081,-0.307655,0.184593,-10.767178,-7.063549,97.048363,,,,,,,,,,,,,,,,,,,,,,,,,,,,,,,,,,,,,,,,,,,,,,,,,,,,,,,,,,,,,,,,,,,,,,,,,,,,,,,,,,,,,,,,,,,,,,,,,,,,,,,,,,
1702547334,1702547334,69,0,4281.282227,4133.974121,4292.563965,4220.897461,4276.794922,4241.025879,4266.410156,4340.512695,4523.589844,4266.282227,4272.692383,4462.692383,4396.282227,4374.358887,3156,3,70,,,,0,4,4,4,4,4,4,4,4,4,4,4,4,4,4,100,,,,,,,,,,,,,,,,,,,,,,,,,,,,,,,,,,,,,,,,,,,,,,,,,,,,,,,,,,,,,,,,,,,,,,,,,,,,,,,,,,,,,,,,,,,,,,,,,,,,,,,,,,,,,,,,,,,,,,,,,,,,,,,,,,,,,,
1702547334,1702547334,70,0,4267.692383,4104.230957,4282.563965,4209.871582,4237.692383,4253.461426,4261.410156,4341.282227,4493.589844,4241.922852,4288.974121,4461.025879,4407.05127,4365.897461,4180,3,70,,,,0,4,4,4,4,4,4,4,4,4,4,4,4,4,4,100,,,,,,,,,,,,,,,,,,,,,,,,,,,,,,,,,,,,,,,,,,,,,,,,,,,,,,,,,,,,,,,,,,,,,,,,,,,,,,,,,,,,,,,,,,,,,,,,,,,,,,,,,,,,,,,,,,,,,,,,,,,,,,,,,,,,,,
1702547334,1702547334,71,0,4257.563965,4086.666748,4276.025879,4201.410156,4264.102539,4237.179688,4271.282227,4341.025879,4446.538574,4254.230957,4288.589844,4453.846191,4403.205078,4346.794922,3024,3,70,,,,0,4,4,4,4,4,4,4,4,4,4,4,4,4,4,100,,,,,,,,,,,,,,,,,,,,,,,,,,,,,,,,,,,,,,,,,,,,,,,,,,,,,,,,,,,,,,,,,,,,,,,,,,,,,,,,,,,,,,,,,,,,,,,,,,,,,,,,,,,,,,,,,,,,,,,,,,,,,,,,,,,,,,
1702547334,1702547334,72,0,4251.025879,4088.333252,4266.282227,4194.743652,4274.871582,4086.666748,4267.94873,4332.820313,4407.179688,4262.94873,4281.153809,4444.358887,4398.077148,4329.102539,2715,3,70,,,,0,4,4,4,4,4,4,4,4,4,4,4,4,4,4,100,,,,,,,,,,,,,,,,,18,0,0.685392,-0.476501,-0.391296,-0.38739,0.889269,-0.316445,0.19143,-10.79046,-7.173861,97.110191,,,,,,,,,,,,,,,,,,,,,,,,,,,,,,,,,,,,,,,,,,,,,,,,,,,,,,,,,,,,,,,,,,,,,,,,,,,,,,,,,,,,,,,,,,,,,,,,,,,,,,,,,,
1702547334,1702547334,73,0,4239.230957,4073.205078,4255,4182.307617,4251.410156,3863.333252,4256.922852,4326.153809,4379.871582,4240.512695,4276.410156,4436.794922,4387.436035,4315.128418,5507,3,70,,,,0,4,4,4,4,4,4,4,4,4,4,4,4,4,4,100,,,,,,,,,,,,,,,,,,,,,,,,,,,,,,,,,,,,,,,,,,,,,,,,,,,,,,,,,,,,,,,,,,,,,,,,,,,,,,,,,,,,,,,,,,,,,,,,,,,,,,,,,,,,,,,,,,,,,,,,,,,,,,,,,,,,,,
1702547334,1702547334,74,0,4252.563965,4076.538574,4272.436035,4194.102539,4259.615234,3717.564209,4268.717773,4337.692383,4364.871582,4249.871582,4305.641113,4450.256348,4409.615234,4328.717773,5953,3,70,,,,0,4,4,4,4,4,4,4,4,4,4,4,4,4,4,100,,,,,,,,,,,,,,,,,,,,,,,,,,,,,,,,,,,,,,,,,,,,,,,,,,,,,,,,,,,,,,,,,,,,,,,,,,,,,,,,,,,,,,,,,,,,,,,,,,,,,,,,,,,,,,,,,,,,,,,,,,,,,,,,,,,,,,
1702547334,1702547334,75,0,4264.487305,4089.615479,4284.230957,4214.487305,4261.666504,3641.794922,4281.666504,4346.538574,4355.641113,4247.179688,4330.769043,4461.153809,4430.128418,4337.05127,6107,3,70,,,,0,4,4,4,4,4,4,4,4,4,4,4,4,4,4,100,,,,,,,,,,,,,,,,,,,,,,,,,,,,,,,,,,,,,,,,,,,,,,,,,,,,,,,,,,,,,,,,,,,,,,,,,,,,,,,,,,,,,,,,,,,,,,,,,,,,,,,,,,,,,,,,,,,,,,,,,,,,,,,,,,,,,,
1702547334,1702547334,76,0,4247.307617,4082.179443,4263.461426,4209.487305,4253.077148,3569.743652,4274.358887,4339.871582,4353.205078,4208.333496,4319.102539,4451.153809,4411.025879,4314.230957,6523,3,70,,,,0,4,4,4,4,4,4,4,4,4,4,4,4,4,4,100,,,,,,,,,,,,,,,,,19,0,0.685374,-0.476379,-0.391235,-0.387634,0.939568,-0.321328,0.192406,-10.761415,-7.073141,96.949173,,,,,,,,,,,,,,,,,,,,,,,,,,,,,,,,,,,,,,,,,,,,,,,,,,,,,,,,,,,,,,,,,,,,,,,,,,,,,,,,,,,,,,,,,,,,,,,,,,,,,,,,,,
1702547334,1702547334,77,0,4252.94873,4095,4265.384766,4215,4276.410156,3522.692383,4275.384766,4342.94873,4368.974121,4236.153809,4325.512695,4458.461426,4411.794922,4320.769043,4423,3,70,,,,0,4,4,4,4,4,4,4,4,4,4,4,4,4,4,100,,,,,,,,,,,,,,,,,,,,,,,,,,,,,,,,,,,,,,,,,,,,,,,,,,,,,,,,,,,,,,,,,,,,,,,,,,,,,,,,,,,,,,,,,,,,,,,,,,,,,,,,,,,,,,,,,,,,,,,,,,,,,,,,,,,,,,
1702547334,1702547334,78,0,4274.615234,4112.94873,4286.410156,4235.128418,4282.179688,3501.025635,4283.077148,4352.179688,4384.358887,4294.358887,4348.974121,4474.743652,4436.025879,4349.743652,5953,3,70,,,,0,4,4,4,4,4,4,4,4,4,4,4,4,4,4,100,,,,,,,,,,,,,,,,,,,,,,,,,,,,,,,,,,,,,,,,,,,,,,,,,,,,,,,,,,,,,,,,,4.382049,2.224755,3.169017,1.169515,0.880416,6.622879,1.484985,2.910339,0.807135,1.078176,3.067387,1.114505,2.260904,0.980598,0.798976,4.211531,1.102497,2.749073,0.873043,1.0346,1.144334,1.09524,2.289923,1.832832,1.617725,2.537151,0.353387,0.53525,0.292901,0.219656,0.979036,0.64031,0.743121,0.320808,0.445953,0.546048,0.533224,0.489421,0.191889,0.31416,196.481476,100.044342,48.954323,17.973061,6.187591,3.471304,2.746039,3.358896,2.617238,1.982801,65.8554,9.317828,6.03884,2.046922,1.157261,2.072796,1.07532,1.544228,0.547872,0.506454,25.864777,8.170064,5.591537,2.211961,1.361863,7.761979,4.990094,4.913347,1.430867,1.198363
1702547334,1702547334,79,0,4268.974121,4098.717773,4281.538574,4234.102539,4259.871582,3478.846191,4278.846191,4352.436035,4377.563965,4290,4352.563965,4472.307617,4434.871582,4344.230957,6107,3,70,,,,0,4,4,4,4,4,4,4,4,4,4,4,4,4,4,100,,,,,,,,,,,,,,,,,,,,,,,,,,,,,,,,,,,,,,,,,,,,,,,,,,,,,,,,,,,,,,,,,,,,,,,,,,,,,,,,,,,,,,,,,,,,,,,,,,,,,,,,,,,,,,,,,,,,,,,,,,,,,,,,,,,,,,
1702547334,1702547334,80,0,4263.333496,4094.102539,4276.794922,4230.897461,4262.179688,3459.487061,4278.205078,4351.282227,4358.589844,4271.410156,4355.384766,4470.769043,4430,4334.102539,6523,3,70,,,,0,4,4,4,4,4,4,4,4,4,4,4,4,4,4,100,,,,,,,,,,,,,,,,,20,0,0.685367,-0.47644,-0.391052,-0.387756,0.908802,-0.318398,0.188988,-10.635273,-7.082494,96.920921,,,,,,,,,,,,,,,,,,,,,,,,,,,,,,,,,,,,,,,,,,,,,,,,,,,,,,,,,,,,,,,,,,,,,,,,,,,,,,,,,,,,,,,,,,,,,,,,,,,,,,,,,,
1702547334,1702547334,81,0,4269.487305,4108.461426,4283.461426,4236.922852,4276.922852,3441.923096,4280,4347.563965,4330.769043,4272.307617,4368.717773,4474.871582,4432.179688,4337.94873,4423,3,70,,,,0,4,4,4,4,4,4,4,4,4,4,4,4,4,4,100,,,,,,,,,,,,,,,,,,,,,,,,,,,,,,,,,,,,,,,,,,,,,,,,,,,,,,,,,,,,,,,,,,,,,,,,,,,,,,,,,,,,,,,,,,,,,,,,,,,,,,,,,,,,,,,,,,,,,,,,,,,,,,,,,,,,,,
1702547334,1702547334,82,0,4255,4092.307617,4268.589844,4222.179688,4275.128418,3426.410156,4262.820313,4336.282227,4282.563965,4253.717773,4369.230957,4464.102539,4418.077148,4321.282227,5953,3,70,,,,0,4,4,4,4,4,4,4,4,4,4,4,4,4,4,100,,,,,,,,,,,,,,,,,,,,,,,,,,,,,,,,,,,,,,,,,,,,,,,,,,,,,,,,,,,,,,,,,,,,,,,,,,,,,,,,,,,,,,,,,,,,,,,,,,,,,,,,,,,,,,,,,,,,,,,,,,,,,,,,,,,,,,
1702547334,1702547334,83,0,4237.179688,4063.461426,4257.307617,4211.282227,4255.897461,3421.153809,4255,4334.102539,4237.563965,4232.05127,4375.512695,4454.358887,4407.307617,4304.358887,6107,3,70,,,,0,4,4,4,4,4,4,4,4,4,4,4,4,4,4,100,,,,,,,,,,,,,,,,,,,,,,,,,,,,,,,,,,,,,,,,,,,,,,,,,,,,,,,,,,,,,,,,,,,,,,,,,,,,,,,,,,,,,,,,,,,,,,,,,,,,,,,,,,,,,,,,,,,,,,,,,,,,,,,,,,,,,,
1702547334,1702547334,84,0,4249.871582,4070.512939,4274.615234,4236.410156,4254.871582,3429.230713,4270.641113,4344.230957,4226.794922,4251.666504,4411.794922,4467.692383,4422.563965,4318.589844,6523,3,70,,,,0,4,4,4,4,4,4,4,4,4,4,4,4,4,4,100,,,,,,,,,,,,,,,,,21,0,0.68519,-0.476746,-0.390808,-0.387939,0.913197,-0.309608,0.182639,-10.621745,-7.024244,96.862167,,,,,,,,,,,,,,,,,,,,,,,,,,,,,,,,,,,,,,,,,,,,,,,,,,,,,,,,,,,,,,,,,,,,,,,,,,,,,,,,,,,,,,,,,,,,,,,,,,,,,,,,,,
1702547334,1702547334,85,0,4275.769043,4097.05127,4287.179688,4263.077148,4280.128418,3442.435791,4275.256348,4346.282227,4234.230957,4284.487305,4456.666504,4480.384766,4460,4339.487305,4423,3,70,,,,0,4,4,4,4,4,4,4,4,4,4,4,4,4,4,100,,,,,,,,,,,,,,,,,,,,,,,,,,,,,,,,,,,,,,,,,,,,,,,,,,,,,,,,,,,,,,,,,,,,,,,,,,,,,,,,,,,,,,,,,,,,,,,,,,,,,,,,,,,,,,,,,,,,,,,,,,,,,,,,,,,,,,
1702547334,1702547334,86,0,4284.102539,4098.589844,4285.256348,4263.205078,4281.282227,3446.923096,4260.256348,4338.077148,4233.846191,4295.897461,4480.512695,4475.384766,4499.230957,4344.102539,5953,3,70,,,,0,4,4,4,4,4,4,4,4,4,4,4,4,4,4,100,,,,,,,,,,,,,,,,,,,,,,,,,,,,,,,,,,,,,,,,,,,,,,,,,,,,,,,,,,,,,,,,,,,,,,,,,,,,,,,,,,,,,,,,,,,,,,,,,,,,,,,,,,,,,,,,,,,,,,,,,,,,,,,,,,,,,,
1702547334,1702547334,87,0,4266.666504,4058.589844,4271.666504,4242.307617,4258.717773,3442.564209,4246.282227,4330,4225.512695,4278.717773,4470.128418,4460.128418,4509.743652,4328.461426,6107,3,70,,,,0,4,4,4,4,4,4,4,4,4,4,4,4,4,4,100,,,,,,,,,,,,,,,,,,,,,,,,,,,,,,,,,,,,,,,,,,,,,,,,,,,,,,,,,,,,,,,,,,,,,,,,,,,,,,,,,,,,,,,,,,,,,,,,,,,,,,,,,,,,,,,,,,,,,,,,,,,,,,,,,,,,,,
1702547334,1702547334,88,0,4256.794922,4024.358887,4263.589844,4229.230957,4257.94873,3443.205078,4244.615234,4332.307617,4220.897461,4265.128418,4463.077148,4457.05127,4516.282227,4320.512695,6523,3,70,,,,0,4,4,4,4,4,4,4,4,4,4,4,4,4,4,100,,,,,,,,,,,,,,,,,22,0,0.684994,-0.476929,-0.390747,-0.388123,0.931754,-0.301795,0.193383,-10.726237,-6.955153,96.842613,,,,,,,,,,,,,,,,,,,,,,,,,,,,,,,,,,,,,,,,,,,,,,,,,,,,,,,,,,,,,,,,,,,,,,,,,,,,,,,,,,,,,,,,,,,,,,,,,,,,,,,,,,
1702547334,1702547334,89,0,4270.512695,4025.512939,4277.436035,4239.102539,4262.692383,3455.512939,4254.743652,4342.179688,4231.538574,4282.307617,4489.487305,4471.153809,4550.128418,4340.769043,4423,3,70,,,,0,4,4,4,4,4,4,4,4,4,4,4,4,4,4,100,,,,,,,,,,,,,,,,,,,,,,,,,,,,,,,,,,,,,,,,,,,,,,,,,,,,,,,,,,,,,,,,,,,,,,,,,,,,,,,,,,,,,,,,,,,,,,,,,,,,,,,,,,,,,,,,,,,,,,,,,,,,,,,,,,,,,,
1702547334,1702547334,90,0,4274.487305,4021.666748,4286.922852,4247.436035,4265.128418,3470.769287,4261.538574,4342.820313,4235.769043,4300.512695,4511.922852,4478.589844,4572.820313,4348.205078,5953,3,70,,,,0,4,4,4,4,4,4,4,4,4,4,4,4,4,4,100,,,,,,,,,,,,,,,,,,,,,,,,,,,,,,,,,,,,,,,,,,,,,,,,,,,,,,,,,,,,,,,,,,,,,,,,,,,,,,,,,,,,,,,,,,,,,,,,,,,,,,,,,,,,,,,,,,,,,,,,,,,,,,,,,,,,,,
1702547334,1702547334,91,0,4265.769043,4009.230713,4282.692383,4243.974121,4280.512695,3486.666748,4263.846191,4343.333496,4209.871582,4300.769043,4513.974121,4474.615234,4572.94873,4333.205078,6107,3,70,,,,0,4,4,4,4,4,4,4,4,4,4,4,4,4,4,100,,,,,,,,,,,,,,,,,,,,,,,,,,,,,,,,,,,,,,,,,,,,,,,,,,,,,,,,,,,,,,,,,,,,,,,,,,,,,,,,,,,,,,,,,,,,,,,,,,,,,,,,,,,,,,,,,,,,,,,,,,,,,,,,,,,,,,
1702547334,1702547334,92,0,4254.743652,3998.718018,4276.666504,4237.436035,4272.05127,3501.410156,4264.102539,4347.563965,4217.820313,4297.436035,4510.128418,4465.769043,4561.538574,4324.230957,6523,3,70,,,,0,4,4,4,4,4,4,4,4,4,4,4,4,4,4,100,,,,,,,,,,,,,,,,,23,0,0.68494,-0.476807,-0.390808,-0.388306,0.918569,-0.314003,0.201685,-10.87028,-6.942971,96.958351,,,,,,,,,,,,,,,,,,,,,,,,,,,,,,,,,,,,,,,,,,,,,,,,,,,,,,,,,,,,,,,,,,,,,,,,,,,,,,,,,,,,,,,,,,,,,,,,,,,,,,,,,,
1702547334,1702547334,93,0,4233.077148,3976.538574,4258.846191,4223.717773,4238.846191,3507.435791,4252.307617,4338.974121,4284.102539,4281.282227,4493.717773,4453.205078,4516.410156,4315,4423,3,70,,,,0,4,4,4,4,4,4,4,4,4,4,4,4,4,4,100,,,,,,,,,,,,,,,,,,,,,,,,,,,,,,,,,,,,,,,,,,,,,,,,,,,,,,,,,,,,,,,,,,,,,,,,,,,,,,,,,,,,,,,,,,,,,,,,,,,,,,,,,,,,,,,,,,,,,,,,,,,,,,,,,,,,,,
1702547334,1702547334,94,0,4228.461426,3974.487061,4252.820313,4226.025879,4246.410156,3515.641113,4248.717773,4335.384766,4322.820313,4263.205078,4491.282227,4455.512695,4489.487305,4316.538574,5953,3,70,,,,0,4,4,4,4,4,4,4,4,4,4,4,4,4,4,100,1,0,3,1,1,1,1,0,3,4,0,1,0,3,1,1,,,,,,,,,,,,,,,,,,,,,,,,,,,,,,,,,,,,,,,,,,,,,,,,,3.699368,2.05916,2.833972,1.015831,0.911626,5.233288,1.326117,2.650011,0.697263,1.10424,3.501758,1.316587,2.374882,0.921931,0.829862,4.315077,1.039052,2.721597,0.896011,1.036617,0.942273,0.92044,2.10045,1.861734,1.709115,5.052803,0.760841,0.65929,0.406377,0.2633,0.815824,0.538555,0.772736,0.365883,0.462182,0.438326,0.479986,0.532598,0.220955,0.320954,188.126007,122.7491,47.884125,17.161488,5.588762,2.791605,3.364874,3.562816,3.233173,2.203508,58.581371,8.286989,5.806841,2.017286,1.222034,1.928112,1.205225,1.523766,0.536374,0.517848,23.136293,7.154049,5.38049,2.266606,1.390892,7.80891,6.614995,4.61988,1.344306,1.189466
1702547334,1702547334,95,0,4250.512695,4000.256348,4277.436035,4252.820313,4290.512695,3534.102539,4260.769043,4347.05127,4303.333496,4278.077148,4517.94873,4472.05127,4515.641113,4338.205078,6107,3,70,,,,0,4,4,4,4,4,4,4,4,4,4,4,4,4,4,100,,,,,,,,,,,,,,,,,,,,,,,,,,,,,,,,,,,,,,,,,,,,,,,,,,,,,,,,,,,,,,,,,,,,,,,,,,,,,,,,,,,,,,,,,,,,,,,,,,,,,,,,,,,,,,,,,,,,,,,,,,,,,,,,,,,,,,
1702547334,1702547334,96,0,4252.307617,4002.820557,4282.820313,4261.666504,4283.077148,3549.230713,4258.205078,4346.153809,4276.282227,4294.743652,4517.179688,4475.384766,4530.641113,4338.333496,6523,3,70,,,,0,4,4,4,4,4,4,4,4,4,4,4,4,4,4,100,,,,,,,,,,,,,,,,,24,0,0.684925,-0.476929,-0.390625,-0.388367,0.917104,-0.317422,0.198266,-11.199919,-7.082007,96.76252,,,,,,,,,,,,,,,,,,,,,,,,,,,,,,,,,,,,,,,,,,,,,,,,,,,,,,,,,,,,,,,,,,,,,,,,,,,,,,,,,,,,,,,,,,,,,,,,,,,,,,,,,,
1702547334,1702547334,97,0,4231.666504,3984.871826,4261.794922,4248.333496,4232.436035,3553.718018,4242.820313,4333.717773,4252.307617,4279.743652,4480.769043,4462.94873,4517.307617,4312.820313,4423,3,70,,,,0,4,4,4,4,4,4,4,4,4,4,4,4,4,4,100,,,,,,,,,,,,,,,,,,,,,,,,,,,,,,,,,,,,,,,,,,,,,,,,,,,,,,,,,,,,,,,,,,,,,,,,,,,,,,,,,,,,,,,,,,,,,,,,,,,,,,,,,,,,,,,,,,,,,,,,,,,,,,,,,,,,,,
1702547334,1702547334,98,0,4223.077148,3978.718018,4254.615234,4244.743652,4234.615234,3561.666748,4235.641113,4328.974121,4211.282227,4261.153809,4455.769043,4451.282227,4513.717773,4298.205078,5953,3,70,,,,0,4,4,4,4,4,4,4,4,4,4,4,4,4,4,100,,,,,,,,,,,,,,,,,,,,,,,,,,,,,,,,,,,,,,,,,,,,,,,,,,,,,,,,,,,,,,,,,,,,,,,,,,,,,,,,,,,,,,,,,,,,,,,,,,,,,,,,,,,,,,,,,,,,,,,,,,,,,,,,,,,,,,
1702547334,1702547334,99,0,4226.922852,3979.358887,4263.846191,4254.230957,4275.128418,3582.820557,4240.769043,4331.794922,4175.769043,4259.487305,4454.230957,4451.794922,4522.05127,4300.641113,6107,3,70,,,,0,4,4,4,4,4,4,4,4,4,4,4,4,4,4,100,,,,,,,,,,,,,,,,,,,,,,,,,,,,,,,,,,,,,,,,,,,,,,,,,,,,,,,,,,,,,,,,,,,,,,,,,,,,,,,,,,,,,,,,,,,,,,,,,,,,,,,,,,,,,,,,,,,,,,,,,,,,,,,,,,,,,,
1702547334,1702547334,100,0,4235.384766,3989.230713,4277.563965,4272.05127,4253.717773,3608.718018,4252.179688,4340.769043,4165,4276.025879,4469.102539,4466.538574,4540.512695,4313.846191,6523,3,70,,,,0,4,4,4,4,4,4,4,4,4,4,4,4,4,4,100,,,,,,,,,,,,,,,,,25,0,0.684886,-0.477234,-0.390442,-0.388245,0.922476,-0.305701,0.190453,-11.41326,-6.95714,96.786263,,,,,,,,,,,,,,,,,,,,,,,,,,,,,,,,,,,,,,,,,,,,,,,,,,,,,,,,,,,,,,,,,,,,,,,,,,,,,,,,,,,,,,,,,,,,,,,,,,,,,,,,,,
1702547334,1702547334,101,0,4239.871582,3999.102539,4279.230957,4280.641113,4218.974121,3627.307617,4250.769043,4343.717773,4157.563965,4299.487305,4476.922852,4468.333496,4558.846191,4319.487305,4423,3,70,,,,0,4,4,4,4,4,4,4,4,4,4,4,4,4,4,100,,,,,,,,,,,,,,,,,,,,,,,,,,,,,,,,,,,,,,,,,,,,,,,,,,,,,,,,,,,,,,,,,,,,,,,,,,,,,,,,,,,,,,,,,,,,,,,,,,,,,,,,,,,,,,,,,,,,,,,,,,,,,,,,,,,,,,
1702547334,1702547335,102,0,4225.769043,3986.410156,4262.94873,4267.94873,4254.102539,3638.076904,4231.794922,4330.128418,4133.974121,4295.897461,4457.179688,4448.205078,4557.436035,4300.512695,5953,3,70,,,,0,4,4,4,4,4,4,4,4,4,4,4,4,4,4,100,,,,,,,,,,,,,,,,,,,,,,,,,,,,,,,,,,,,,,,,,,,,,,,,,,,,,,,,,,,,,,,,,,,,,,,,,,,,,,,,,,,,,,,,,,,,,,,,,,,,,,,,,,,,,,,,,,,,,,,,,,,,,,,,,,,,,,
1702547334,1702547335,103,0,4216.282227,3981.666748,4260.641113,4263.589844,4291.794922,3656.281982,4228.461426,4324.487305,4106.922852,4280.384766,4441.538574,4445.128418,4560.769043,4293.461426,6107,3,70,,,,0,4,4,4,4,4,4,4,4,4,4,4,4,4,4,100,,,,,,,,,,,,,,,,,,,,,,,,,,,,,,,,,,,,,,,,,,,,,,,,,,,,,,,,,,,,,,,,,,,,,,,,,,,,,,,,,,,,,,,,,,,,,,,,,,,,,,,,,,,,,,,,,,,,,,,,,,,,,,,,,,,,,,
1702547334,1702547335,104,0,4223.077148,3991.794922,4270.641113,4271.666504,4275.641113,3677.692383,4236.922852,4329.102539,4088.461426,4273.333496,4433.461426,4452.820313,4566.794922,4299.230957,6523,3,70,,,,0,4,4,4,4,4,4,4,4,4,4,4,4,4,4,100,,,,,,,,,,,,,,,,,26,0,0.684751,-0.477478,-0.390381,-0.388245,0.917104,-0.305701,0.187523,-11.305267,-6.928092,96.774307,,,,,,,,,,,,,,,,,,,,,,,,,,,,,,,,,,,,,,,,,,,,,,,,,,,,,,,,,,,,,,,,,,,,,,,,,,,,,,,,,,,,,,,,,,,,,,,,,,,,,,,,,,
