Timestamp,OriginalTimestamp,EEG.Counter,EEG.Interpolated,EEG.AF3,EEG.F7,EEG.F3,EEG.FC5,EEG.T7,EEG.P7,EEG.O1,EEG.O2,EEG.P8,EEG.T8,EEG.FC6,EEG.F4,EEG.F8,EEG.AF4,EEG.RawCq,EEG.Battery,EEG.BatteryPercent,MarkerIndex,MarkerType,MarkerValueInt,EEG.MarkerHardware,CQ.AF3,CQ.F7,CQ.F3,CQ.FC5,CQ.T7,CQ.P7,CQ.O1,CQ.O2,CQ.P8,CQ.T8,CQ.FC6,CQ.F4,CQ.F8,CQ.AF4,CQ.Overall,EQ.SampleRateQuality,EQ.OVERALL,EQ.AF3,EQ.F7,EQ.F3,EQ.FC5,EQ.T7,EQ.P7,EQ.O1,EQ.O2,EQ.P8,EQ.T8,EQ.FC6,EQ.F4,EQ.F8,EQ.AF4,MOT.CounterMems,MOT.InterpolatedMems,MOT.Q0,MOT.Q1,MOT.Q2,MOT.Q3,MOT.AccX,MOT.AccY,MOT.AccZ,MOT.MagX,MOT.MagY,MOT.MagZ,PM.Attention.IsActive,PM.Attention.Scaled,PM.Attention.Raw,PM.Attention.Min,PM.Attention.Max,PM.Engagement.IsActive,PM.Engagement.Scaled,PM.Engagement.Raw,PM.Engagement.Min,PM.Engagement.Max,PM.Excitement.IsActive,PM.Excitement.Scaled,PM.Excitement.Raw,PM.Excitement.Min,PM.Excitement.Max,PM.LongTermExcitement,PM.Stress.IsActive,PM.Stress.Scaled,PM.Stress.Raw,PM.Stress.Min,PM.Stress.Max,PM.Relaxation.IsActive,PM.Relaxation.Scaled,PM.Relaxation.Raw,PM.Relaxation.Min,PM.Relaxation.Max,PM.Interest.IsActive,PM.Interest.Scaled,PM.Interest.Raw,PM.Interest.Min,PM.Interest.Max,PM.Focus.IsActive,PM.Focus.Scaled,PM.Focus.Raw,PM.Focus.Min,PM.Focus.Max,POW.AF3.Theta,POW.AF3.Alpha,POW.AF3.BetaL,POW.AF3.BetaH,POW.AF3.Gamma,POW.F7.Theta,POW.F7.Alpha,POW.F7.BetaL,POW.F7.BetaH,POW.F7.Gamma,POW.F3.Theta,POW.F3.Alpha,POW.F3.BetaL,POW.F3.BetaH,POW.F3.Gamma,POW.FC5.Theta,POW.FC5.Alpha,POW.FC5.BetaL,POW.FC5.BetaH,POW.FC5.Gamma,POW.T7.Theta,POW.T7.Alpha,POW.T7.BetaL,POW.T7.BetaH,POW.T7.Gamma,POW.P7.Theta,POW.P7.Alpha,POW.P7.BetaL,POW.P7.BetaH,POW.P7.Gamma,POW.O1.Theta,POW.O1.Alpha,POW.O1.BetaL,POW.O1.BetaH,POW.O1.Gamma,POW.O2.Theta,POW.O2.Alpha,POW.O2.BetaL,POW.O2.BetaH,POW.O2.Gamma,POW.P8.Theta,POW.P8.Alpha,POW.P8.BetaL,POW.P8.BetaH,POW.P8.Gamma,POW.T8.Theta,POW.T8.Alpha,POW.T8.BetaL,POW.T8.BetaH,POW.T8.Gamma,POW.FC6.Theta,POW.FC6.Alpha,POW.FC6.BetaL,POW.FC6.BetaH,POW.FC6.Gamma,POW.F4.Theta,POW.F4.Alpha,POW.F4.BetaL,POW.F4.BetaH,POW.F4.Gamma,POW.F8.Theta,POW.F8.Alpha,POW.F8.BetaL,POW.F8.BetaH,POW.F8.Gamma,POW.AF4.Theta,POW.AF4.Alpha,POW.AF4.BetaL,POW.AF4.BetaH,POW.AF4.Gamma
,,,,,,,,,,,,,,,,,,,,,,,,,,,,,,,,,,,,,,,,,,,,,,,,,,,,,,,,,,,,,,,,,,,,,,,,,,,,,,,,,,,,,,,,,,,,,,,,,,,,,,,,,,,,,,,,,,,,,,,,,,,,,,,,,,,,,,,,,,,,,,,,,,,,,,,,,,,,,,,,,,,,,,,,,,,,,
1702547476,1702547476,90,0,4302.692383,4482.179688,4396.666504,4422.179688,4222.436035,4302.05127,4326.153809,4254.871582,4191.410156,4256.538574,4236.794922,4294.102539,4452.05127,4366.153809,6001,3,69,,,,0,4,4,4,4,4,4,4,4,4,4,4,4,4,4,100,,,,,,,,,,,,,,,,,,,,,,,,,,,,,,,,,,,,,,,,,,,,,,,,,,,,,,,,,,,,,,,,,,,,,,,,,,,,,,,,,,,,,,,,,,,,,,,,,,,,,,,,,,,,,,,,,,,,,,,,,,,,,,,,,,,,,,
1702547476,1702547476,91,0,4294.615234,4471.666504,4389.743652,4417.179688,4272.307617,4300.769043,4318.333496,4253.333496,4228.077148,4275,4235.641113,4286.794922,4423.205078,4357.307617,6078,3,69,,,,0,4,4,4,4,4,4,4,4,4,4,4,4,4,4,100,,,,,,,,,,,,,,,,,,,,,,,,,,,,,,,,,,,,,,,,,,,,,,,,,,,,,,,,,,,,,,,,,,,,,,,,,,,,,,,,,,,,,,,,,,,,,,,,,,,,,,,,,,,,,,,,,,,,,,,,,,,,,,,,,,,,,,
1702547476,1702547476,92,0,4290,4471.538574,4385.897461,4412.94873,4279.102539,4292.563965,4305.641113,4247.563965,4258.461426,4259.487305,4242.563965,4286.922852,4419.487305,4353.846191,6574,3,69,,,,0,4,4,4,4,4,4,4,4,4,4,4,4,4,4,100,,,,,,,,,,,,,,,,,23,0,0.673014,-0.490356,-0.435059,-0.342529,0.916616,-0.356977,0.146014,-12.349779,-0.817964,87.535522,,,,,,,,,,,,,,,,,,,,,,,,,,,,,,,,,,,,,,,,,,,,,,,,,,,,,,,,,,,,,,,,,,,,,,,,,,,,,,,,,,,,,,,,,,,,,,,,,,,,,,,,,,
1702547476,1702547476,93,0,4293.205078,4478.461426,4393.077148,4424.358887,4247.563965,4291.153809,4311.153809,4246.794922,4265.384766,4243.717773,4248.717773,4290.256348,4421.410156,4363.717773,2204,3,69,,,,0,4,4,4,4,4,4,4,4,4,4,4,4,4,4,100,,,,,,,,,,,,,,,,,,,,,,,,,,,,,,,,,,,,,,,,,,,,,,,,,,,,,,,,,,,,,,,,,,,,,,,,,,,,,,,,,,,,,,,,,,,,,,,,,,,,,,,,,,,,,,,,,,,,,,,,,,,,,,,,,,,,,,
1702547476,1702547476,94,0,4297.05127,4470.641113,4401.666504,4435.128418,4246.666504,4303.205078,4324.358887,4256.666504,4272.307617,4256.666504,4251.153809,4290,4399.102539,4368.717773,6001,3,69,,,,0,4,4,4,4,4,4,4,4,4,4,4,4,4,4,100,1,0,1,1,1,1,0,0,1,4,3,1,0,4,1,1,,,,,,,,,,,,,,,,,,,,,,,,,,,,,,,,,,,,,,,,,,,,,,,,,9.006661,3.549258,2.305205,1.605539,1.058893,8.53266,6.064692,2.353927,1.369247,0.88228,4.206178,3.590832,2.201391,1.215837,0.808974,6.811087,2.948159,2.222436,1.371556,0.973288,5.414879,3.775134,6.104356,11.124704,7.093258,76.311935,16.661934,5.788785,1.752091,0.699404,1.991867,1.117623,0.762622,0.749042,0.529793,0.653469,0.832591,0.499786,0.466141,0.351095,36.785442,13.413118,4.447271,1.996656,1.015293,3.574988,2.36796,2.611216,2.540603,2.034335,79.944283,12.373903,8.026269,3.62106,1.307762,1.002455,1.111164,0.51293,0.404485,0.21971,23.937551,6.102459,6.189994,2.115452,1.54484,7.629254,3.036449,3.109733,2.167596,1.086396
1702547476,1702547476,95,0,4309.102539,4470.897461,4412.436035,4444.743652,4277.179688,4313.974121,4329.358887,4265,4308.077148,4272.179688,4275.769043,4297.820313,4405.897461,4381.666504,6078,3,69,,,,0,4,4,4,4,4,4,4,4,4,4,4,4,4,4,100,,,,,,,,,,,,,,,,,,,,,,,,,,,,,,,,,,,,,,,,,,,,,,,,,,,,,,,,,,,,,,,,,,,,,,,,,,,,,,,,,,,,,,,,,,,,,,,,,,,,,,,,,,,,,,,,,,,,,,,,,,,,,,,,,,,,,,
1702547476,1702547476,96,0,4319.230957,4481.538574,4416.282227,4450.128418,4295.512695,4312.307617,4326.794922,4261.794922,4347.05127,4271.538574,4294.871582,4303.461426,4428.205078,4402.94873,6574,3,69,,,,0,4,4,4,4,4,4,4,4,4,4,4,4,4,4,100,,,,,,,,,,,,,,,,,24,0,0.673001,-0.490417,-0.435059,-0.342468,0.907826,-0.360396,0.141131,-12.398134,-0.836168,87.598633,,,,,,,,,,,,,,,,,,,,,,,,,,,,,,,,,,,,,,,,,,,,,,,,,,,,,,,,,,,,,,,,,,,,,,,,,,,,,,,,,,,,,,,,,,,,,,,,,,,,,,,,,,
1702547476,1702547476,97,0,4322.820313,4469.615234,4415,4443.974121,4290.256348,4307.820313,4322.307617,4259.230957,4354.615234,4278.333496,4289.487305,4299.102539,4431.025879,4419.615234,2204,3,69,,,,0,4,4,4,4,4,4,4,4,4,4,4,4,4,4,100,,,,,,,,,,,,,,,,,,,,,,,,,,,,,,,,,,,,,,,,,,,,,,,,,,,,,,,,,,,,,,,,,,,,,,,,,,,,,,,,,,,,,,,,,,,,,,,,,,,,,,,,,,,,,,,,,,,,,,,,,,,,,,,,,,,,,,
1702547476,1702547476,98,0,4335.256348,4446.794922,4421.538574,4441.410156,4261.410156,4309.102539,4321.538574,4261.794922,4316.538574,4298.589844,4288.461426,4301.922852,4459.615234,4441.153809,6001,3,69,,,,0,4,4,4,4,4,4,4,4,4,4,4,4,4,4,100,,,,,,,,,,,,,,,,,,,,,,,,,,,,,,,,,,,,,,,,,,,,,,,,,,,,,,,,,,,,,,,,,,,,,,,,,,,,,,,,,,,,,,,,,,,,,,,,,,,,,,,,,,,,,,,,,,,,,,,,,,,,,,,,,,,,,,
1702547476,1702547476,99,0,4361.410156,4458.846191,4437.820313,4459.487305,4239.743652,4311.922852,4326.025879,4262.179688,4256.666504,4302.94873,4289.487305,4311.410156,4500.769043,4469.615234,6078,3,69,,,,0,4,4,4,4,4,4,4,4,4,4,4,4,4,4,100,,,,,,,,,,,,,,,,,,,,,,,,,,,,,,,,,,,,,,,,,,,,,,,,,,,,,,,,,,,,,,,,,,,,,,,,,,,,,,,,,,,,,,,,,,,,,,,,,,,,,,,,,,,,,,,,,,,,,,,,,,,,,,,,,,,,,,
1702547476,1702547476,100,0,4385.512695,4493.205078,4451.538574,4481.282227,4266.282227,4313.333496,4328.974121,4262.820313,4223.846191,4284.743652,4276.922852,4313.589844,4509.487305,4485,6574,3,69,,,,0,4,4,4,4,4,4,4,4,4,4,4,4,4,4,100,,,,,,,,,,,,,,,,,25,0,0.673088,-0.490417,-0.434875,-0.342529,0.904896,-0.355024,0.137712,-12.324987,-0.735884,87.605438,,,,,,,,,,,,,,,,,,,,,,,,,,,,,,,,,,,,,,,,,,,,,,,,,,,,,,,,,,,,,,,,,,,,,,,,,,,,,,,,,,,,,,,,,,,,,,,,,,,,,,,,,,
1702547476,1702547476,101,0,4392.820313,4512.436035,4449.230957,4475.897461,4291.666504,4309.102539,4321.922852,4260.384766,4222.307617,4273.846191,4267.820313,4312.307617,4511.410156,4489.102539,2204,3,69,,,,0,4,4,4,4,4,4,4,4,4,4,4,4,4,4,100,,,,,,,,,,,,,,,,,,,,,,,,,,,,,,,,,,,,,,,,,,,,,,,,,,,,,,,,,,,,,,,,,,,,,,,,,,,,,,,,,,,,,,,,,,,,,,,,,,,,,,,,,,,,,,,,,,,,,,,,,,,,,,,,,,,,,,
1702547476,1702547476,102,0,4403.205078,4536.410156,4447.563965,4464.743652,4263.333496,4306.922852,4317.179688,4258.077148,4233.717773,4288.205078,4266.666504,4314.615234,4527.563965,4503.205078,6001,3,69,,,,0,4,4,4,4,4,4,4,4,4,4,4,4,4,4,100,,,,,,,,,,,,,,,,,,,,,,,,,,,,,,,,,,,,,,,,,,,,,,,,,,,,,,,,,,,,,,,,,,,,,,,,,,,,,,,,,,,,,,,,,,,,,,,,,,,,,,,,,,,,,,,,,,,,,,,,,,,,,,,,,,,,,,
1702547476,1702547476,103,0,4434.871582,4578.589844,4468.974121,4476.666504,4246.666504,4322.563965,4327.563965,4262.692383,4252.05127,4299.487305,4256.153809,4317.692383,4537.307617,4530.512695,6078,3,69,,,,0,4,4,4,4,4,4,4,4,4,4,4,4,4,4,100,,,,,,,,,,,,,,,,,,,,,,,,,,,,,,,,,,,,,,,,,,,,,,,,,,,,,,,,,,,,,,,,,,,,,,,,,,,,,,,,,,,,,,,,,,,,,,,,,,,,,,,,,,,,,,,,,,,,,,,,,,,,,,,,,,,,,,
1702547476,1702547476,104,0,4459.102539,4608.974121,4482.692383,4484.102539,4272.820313,4330.512695,4328.974121,4259.487305,4256.794922,4278.589844,4233.461426,4321.538574,4541.794922,4551.794922,6574,3,69,,,,0,4,4,4,4,4,4,4,4,4,4,4,4,4,4,100,,,,,,,,,,,,,,,,,26,0,0.673128,-0.490417,-0.434814,-0.342529,0.918081,-0.360884,0.141619,-12.342489,-0.678962,87.66156,,,,,,,,,,,,,,,,,,,,,,,,,,,,,,,,,,,,,,,,,,,,,,,,,,,,,,,,,,,,,,,,,,,,,,,,,,,,,,,,,,,,,,,,,,,,,,,,,,,,,,,,,,
1702547476,1702547476,105,0,4462.307617,4621.025879,4476.666504,4473.333496,4263.077148,4314.358887,4312.563965,4250.128418,4242.179688,4259.743652,4208.846191,4323.461426,4544.358887,4556.282227,2204,3,69,,,,0,4,4,4,4,4,4,4,4,4,4,4,4,4,4,100,,,,,,,,,,,,,,,,,,,,,,,,,,,,,,,,,,,,,,,,,,,,,,,,,,,,,,,,,,,,,,,,,,,,,,,,,,,,,,,,,,,,,,,,,,,,,,,,,,,,,,,,,,,,,,,,,,,,,,,,,,,,,,,,,,,,,,
1702547476,1702547476,106,0,4474.615234,4639.615234,4482.692383,4473.333496,4256.410156,4307.179688,4305.769043,4248.205078,4243.333496,4265.641113,4197.436035,4323.589844,4549.871582,4568.205078,6001,3,69,,,,0,4,4,4,4,4,4,4,4,4,4,4,4,4,4,100,,,,,,,,,,,,,,,,,,,,,,,,,,,,,,,,,,,,,,,,,,,,,,,,,,,,,,,,,,,,,,,,,,,,,,,,,,,,,,,,,,,,,,,,,,,,,,,,,,,,,,,,,,,,,,,,,,,,,,,,,,,,,,,,,,,,,,
1702547476,1702547476,107,0,4498.589844,4659.358887,4496.282227,4480.384766,4310.256348,4313.205078,4315.769043,4251.153809,4259.743652,4274.230957,4196.666504,4328.077148,4570.512695,4591.153809,6078,3,69,,,,0,4,4,4,4,4,4,4,4,4,4,4,4,4,4,100,,,,,,,,,,,,,,,,,,,,,,,,,,,,,,,,,,,,,,,,,,,,,,,,,,,,,,,,,,,,,,,,,,,,,,,,,,,,,,,,,,,,,,,,,,,,,,,,,,,,,,,,,,,,,,,,,,,,,,,,,,,,,,,,,,,,,,
1702547476,1702547476,108,0,4508.589844,4665.897461,4500.384766,4476.410156,4326.922852,4310.128418,4320.384766,4251.025879,4265.897461,4277.05127,4189.102539,4329.871582,4585.769043,4597.307617,6574,3,69,,,,0,4,4,4,4,4,4,4,4,4,4,4,4,4,4,100,,,,,,,,,,,,,,,,,27,0,0.67318,-0.49054,-0.434692,-0.342407,0.901966,-0.348675,0.135759,-12.324906,-0.6444,87.728737,,,,,,,,,,,,,,,,,,,,,,,,,,,,,,,,,,,,,,,,,,,,,,,,,,,,,,,,,,,,,,,,,,,,,,,,,,,,,,,,,,,,,,,,,,,,,,,,,,,,,,,,,,
1702547476,1702547476,109,0,4509.358887,4672.563965,4505.641113,4473.717773,4293.717773,4311.025879,4321.922852,4255.897461,4263.461426,4279.358887,4181.153809,4330.128418,4589.102539,4602.563965,2204,3,69,,,,0,4,4,4,4,4,4,4,4,4,4,4,4,4,4,100,,,,,,,,,,,,,,,,,,,,,,,,,,,,,,,,,,,,,,,,,,,,,,,,,,,,,,,,,,,,,,,,,,,,,,,,,,,,,,,,,,,,,,,,,,,,,,,,,,,,,,,,,,,,,,,,,,,,,,,,,,,,,,,,,,,,,,
1702547476,1702547476,110,0,4514.358887,4684.615234,4511.153809,4477.307617,4305.512695,4317.692383,4325.128418,4260.128418,4255.897461,4280.128418,4175.897461,4334.487305,4588.974121,4617.94873,6001,3,69,,,,0,4,4,4,4,4,4,4,4,4,4,4,4,4,4,100,,,,,,,,,,,,,,,,,,,,,,,,,,,,,,,,,,,,,,,,,,,,,,,,,,,,,,,,,,,,,,,,,6.222958,2.923892,2.33467,1.25741,0.988901,6.251972,4.212116,2.416599,1.080685,0.833948,3.015747,2.984765,2.098185,0.890399,0.767543,4.989027,2.556701,2.221498,1.092077,0.900196,6.704997,3.827876,5.953098,10.757109,6.977722,115.271042,22.842373,7.284853,2.130596,0.767045,1.831552,1.189669,0.686286,0.59068,0.500242,0.635198,0.643017,0.472865,0.365128,0.346003,31.903954,11.132275,3.614227,1.877238,0.944174,2.932355,2.156854,2.540113,2.866032,2.179239,61.673225,11.487633,6.31914,2.626587,1.237267,0.769167,0.666515,0.389974,0.26533,0.203048,18.419014,5.767581,5.429773,1.724373,1.470324,5.139855,2.797709,2.720686,1.59961,1.042029
1702547476,1702547476,111,0,4511.153809,4689.871582,4502.820313,4475.384766,4321.666504,4313.974121,4316.666504,4253.461426,4239.615234,4276.025879,4156.282227,4334.102539,4577.436035,4608.205078,6078,3,69,,,,0,4,4,4,4,4,4,4,4,4,4,4,4,4,4,100,,,,,,,,,,,,,,,,,,,,,,,,,,,,,,,,,,,,,,,,,,,,,,,,,,,,,,,,,,,,,,,,,,,,,,,,,,,,,,,,,,,,,,,,,,,,,,,,,,,,,,,,,,,,,,,,,,,,,,,,,,,,,,,,,,,,,,
1702547476,1702547477,112,0,4502.05127,4693.717773,4499.487305,4475.769043,4265.256348,4312.94873,4313.846191,4252.692383,4229.615234,4265.641113,4138.333496,4334.743652,4567.179688,4588.205078,6574,3,69,,,,0,4,4,4,4,4,4,4,4,4,4,4,4,4,4,100,,,,,,,,,,,,,,,,,28,0,0.673206,-0.490417,-0.434692,-0.342529,0.912221,-0.351117,0.152851,-12.275749,-0.546626,87.705864,,,,,,,,,,,,,,,,,,,,,,,,,,,,,,,,,,,,,,,,,,,,,,,,,,,,,,,,,,,,,,,,,,,,,,,,,,,,,,,,,,,,,,,,,,,,,,,,,,,,,,,,,,
1702547476,1702547477,113,0,4495,4691.153809,4503.589844,4476.922852,4254.102539,4322.436035,4325.128418,4261.666504,4227.307617,4258.205078,4136.666504,4338.717773,4567.307617,4586.410156,2204,3,69,,,,0,4,4,4,4,4,4,4,4,4,4,4,4,4,4,100,,,,,,,,,,,,,,,,,,,,,,,,,,,,,,,,,,,,,,,,,,,,,,,,,,,,,,,,,,,,,,,,,,,,,,,,,,,,,,,,,,,,,,,,,,,,,,,,,,,,,,,,,,,,,,,,,,,,,,,,,,,,,,,,,,,,,,
1702547476,1702547477,114,0,4480.769043,4673.846191,4496.025879,4464.871582,4332.94873,4326.153809,4330.897461,4265.641113,4220.256348,4261.922852,4123.974121,4336.538574,4558.205078,4575.641113,6001,3,69,,,,0,4,4,4,4,4,4,4,4,4,4,4,4,4,4,100,,,,,,,,,,,,,,,,,,,,,,,,,,,,,,,,,,,,,,,,,,,,,,,,,,,,,,,,,,,,,,,,,,,,,,,,,,,,,,,,,,,,,,,,,,,,,,,,,,,,,,,,,,,,,,,,,,,,,,,,,,,,,,,,,,,,,,
1702547476,1702547477,115,0,4467.436035,4666.794922,4494.230957,4456.153809,4371.922852,4324.230957,4335.128418,4264.615234,4216.666504,4272.820313,4105.897461,4336.794922,4545.256348,4558.974121,6078,3,69,,,,0,4,4,4,4,4,4,4,4,4,4,4,4,4,4,100,,,,,,,,,,,,,,,,,,,,,,,,,,,,,,,,,,,,,,,,,,,,,,,,,,,,,,,,,,,,,,,,,,,,,,,,,,,,,,,,,,,,,,,,,,,,,,,,,,,,,,,,,,,,,,,,,,,,,,,,,,,,,,,,,,,,,,
1702547476,1702547477,116,0,4468.717773,4674.230957,4506.538574,4464.487305,4354.487305,4327.94873,4345.256348,4267.563965,4224.743652,4285,4111.794922,4342.94873,4554.871582,4561.922852,6574,3,69,,,,0,4,4,4,4,4,4,4,4,4,4,4,4,4,4,100,,,,,,,,,,,,,,,,,29,0,0.673252,-0.490173,-0.434753,-0.342712,0.900989,-0.362837,0.137712,-12.264841,-0.491964,87.768608,,,,,,,,,,,,,,,,,,,,,,,,,,,,,,,,,,,,,,,,,,,,,,,,,,,,,,,,,,,,,,,,,,,,,,,,,,,,,,,,,,,,,,,,,,,,,,,,,,,,,,,,,,
1702547476,1702547477,117,0,4456.666504,4659.615234,4501.410156,4459.743652,4352.563965,4335.769043,4347.692383,4269.102539,4220.512695,4290.384766,4104.871582,4341.025879,4553.205078,4549.487305,2204,3,69,,,,0,4,4,4,4,4,4,4,4,4,4,4,4,4,4,100,,,,,,,,,,,,,,,,,,,,,,,,,,,,,,,,,,,,,,,,,,,,,,,,,,,,,,,,,,,,,,,,,,,,,,,,,,,,,,,,,,,,,,,,,,,,,,,,,,,,,,,,,,,,,,,,,,,,,,,,,,,,,,,,,,,,,,
1702547476,1702547477,118,0,4420.641113,4623.846191,4478.333496,4434.615234,4363.077148,4342.05127,4343.077148,4264.102539,4200.897461,4297.179688,4058.974365,4334.102539,4527.563965,4510.256348,6001,3,69,,,,0,4,4,4,4,4,4,4,4,4,4,4,4,4,4,100,,,,,,,,,,,,,,,,,,,,,,,,,,,,,,,,,,,,,,,,,,,,,,,,,,,,,,,,,,,,,,,,,,,,,,,,,,,,,,,,,,,,,,,,,,,,,,,,,,,,,,,,,,,,,,,,,,,,,,,,,,,,,,,,,,,,,,
1702547476,1702547477,119,0,4390.512695,4595.384766,4464.230957,4412.307617,4331.794922,4341.153809,4341.410156,4261.794922,4187.820313,4305.641113,4025.128174,4335,4517.692383,4484.230957,6078,3,69,,,,0,4,4,4,4,4,4,4,4,4,4,4,4,4,4,100,,,,,,,,,,,,,,,,,,,,,,,,,,,,,,,,,,,,,,,,,,,,,,,,,,,,,,,,,,,,,,,,,,,,,,,,,,,,,,,,,,,,,,,,,,,,,,,,,,,,,,,,,,,,,,,,,,,,,,,,,,,,,,,,,,,,,,
1702547476,1702547477,120,0,4378.717773,4579.358887,4460.769043,4401.922852,4332.692383,4343.205078,4345.256348,4265.641113,4186.666504,4282.563965,4039.230713,4339.358887,4535.897461,4479.487305,6574,3,69,,,,0,4,4,4,4,4,4,4,4,4,4,4,4,4,4,100,,,,,,,,,,,,,,,,,30,0,0.673436,-0.490051,-0.434509,-0.342834,0.921988,-0.359907,0.145037,-12.138357,-0.476101,87.658417,,,,,,,,,,,,,,,,,,,,,,,,,,,,,,,,,,,,,,,,,,,,,,,,,,,,,,,,,,,,,,,,,,,,,,,,,,,,,,,,,,,,,,,,,,,,,,,,,,,,,,,,,,
1702547476,1702547477,121,0,4370,4566.922852,4459.871582,4401.794922,4362.563965,4351.666504,4352.820313,4270.897461,4188.846191,4261.922852,4058.846191,4341.025879,4546.282227,4471.282227,2204,3,69,,,,0,4,4,4,4,4,4,4,4,4,4,4,4,4,4,100,,,,,,,,,,,,,,,,,,,,,,,,,,,,,,,,,,,,,,,,,,,,,,,,,,,,,,,,,,,,,,,,,,,,,,,,,,,,,,,,,,,,,,,,,,,,,,,,,,,,,,,,,,,,,,,,,,,,,,,,,,,,,,,,,,,,,,
1702547476,1702547477,122,0,4347.436035,4545.256348,4449.615234,4392.307617,4327.05127,4348.717773,4346.794922,4266.666504,4182.05127,4280.641113,4042.94873,4335.897461,4517.05127,4445.769043,6001,3,69,,,,0,4,4,4,4,4,4,4,4,4,4,4,4,4,4,100,,,,,,,,,,,,,,,,,,,,,,,,,,,,,,,,,,,,,,,,,,,,,,,,,,,,,,,,,,,,,,,,,,,,,,,,,,,,,,,,,,,,,,,,,,,,,,,,,,,,,,,,,,,,,,,,,,,,,,,,,,,,,,,,,,,,,,
1702547476,1702547477,123,0,4321.922852,4521.153809,4433.077148,4366.666504,4327.179688,4341.922852,4335.641113,4261.153809,4171.025879,4298.974121,4035,4329.358887,4495.897461,4422.820313,6078,3,69,,,,0,4,4,4,4,4,4,4,4,4,4,4,4,4,4,100,,,,,,,,,,,,,,,,,,,,,,,,,,,,,,,,,,,,,,,,,,,,,,,,,,,,,,,,,,,,,,,,,,,,,,,,,,,,,,,,,,,,,,,,,,,,,,,,,,,,,,,,,,,,,,,,,,,,,,,,,,,,,,,,,,,,,,
1702547476,1702547477,124,0,4312.307617,4510.897461,4428.589844,4352.94873,4396.282227,4340,4338.461426,4260.897461,4162.94873,4280.384766,4066.410156,4331.282227,4509.743652,4417.692383,6574,3,69,,,,0,4,4,4,4,4,4,4,4,4,4,4,4,4,4,100,,,,,,,,,,,,,,,,,31,0,0.673416,-0.490295,-0.434265,-0.342834,0.900989,-0.35307,0.144061,-12.207854,-0.611824,87.459244,,,,,,,,,,,,,,,,,,,,,,,,,,,,,,,,,,,,,,,,,,,,,,,,,,,,,,,,,,,,,,,,,,,,,,,,,,,,,,,,,,,,,,,,,,,,,,,,,,,,,,,,,,
1702547476,1702547477,125,0,4305.641113,4499.871582,4426.410156,4354.358887,4401.410156,4341.410156,4340.512695,4259.487305,4149.871582,4258.974121,4096.794922,4330.256348,4513.589844,4406.410156,2204,3,69,,,,0,4,4,4,4,4,4,4,4,4,4,4,4,4,4,100,,,,,,,,,,,,,,,,,,,,,,,,,,,,,,,,,,,,,,,,,,,,,,,,,,,,,,,,,,,,,,,,,,,,,,,,,,,,,,,,,,,,,,,,,,,,,,,,,,,,,,,,,,,,,,,,,,,,,,,,,,,,,,,,,,,,,,
1702547476,1702547477,126,0,4301.025879,4494.871582,4429.358887,4360.512695,4352.436035,4351.666504,4342.820313,4262.563965,4145.256348,4266.538574,4125.128418,4330,4511.538574,4398.333496,6001,3,69,,,,0,4,4,4,4,4,4,4,4,4,4,4,4,4,4,100,,,,,,,,,,,,,,,,,,,,,,,,,,,,,,,,,,,,,,,,,,,,,,,,,,,,,,,,,,,,,,,,,4.630661,2.851146,2.468678,1.016863,0.91251,5.468874,3.122443,2.948372,0.944969,0.805805,2.401518,2.757154,2.068221,0.722606,0.720668,5.29568,2.646936,2.41946,0.951561,0.839239,7.682871,3.926792,5.811289,10.961186,7.388356,150.226425,27.435591,8.256085,2.408916,0.806112,1.782264,1.291628,0.634279,0.494461,0.457906,0.677359,0.548657,0.418279,0.304317,0.328617,27.125721,9.14246,2.849557,1.72984,0.858029,2.604963,2.268442,2.54387,3.234933,2.363569,45.433498,12.028732,4.67215,1.909534,1.15356,0.693862,0.429828,0.312292,0.180324,0.183226,15.764225,6.276764,4.542628,1.451683,1.38274,3.790061,3.006438,2.443563,1.204374,1.002117
1702547476,1702547477,127,0,4309.487305,4507.563965,4445.384766,4374.487305,4371.666504,4361.666504,4356.025879,4270.512695,4152.692383,4277.820313,4166.666504,4341.025879,4533.717773,4411.922852,69,3,69,,,,0,4,4,4,4,4,4,4,4,4,4,4,4,4,4,100,,,,,,,,,,,,,,,,,,,,,,,,,,,,,,,,,,,,,,,,,,,,,,,,,,,,,,,,,,,,,,,,,,,,,,,,,,,,,,,,,,,,,,,,,,,,,,,,,,,,,,,,,,,,,,,,,,,,,,,,,,,,,,,,,,,,,,
1702547476,1702547477,0,0,4310.256348,4506.025879,4443.205078,4377.179688,4388.974121,4356.922852,4360.897461,4270.641113,4146.153809,4290.897461,4185.769043,4343.717773,4540.641113,4411.025879,5449,3,69,,,,0,4,4,4,4,4,4,4,4,4,4,4,4,4,4,100,,,,,,,,,,,,,,,,,0,0,0.673429,-0.490234,-0.434265,-0.342896,0.906849,-0.346234,0.139177,-12.053736,-0.733975,87.329987,,,,,,,,,,,,,,,,,,,,,,,,,,,,,,,,,,,,,,,,,,,,,,,,,,,,,,,,,,,,,,,,,,,,,,,,,,,,,,,,,,,,,,,,,,,,,,,,,,,,,,,,,,
1702547476,1702547477,1,0,4303.077148,4490.641113,4428.077148,4369.871582,4357.820313,4358.846191,4357.820313,4271.666504,4140.641113,4312.94873,4199.871582,4340.512695,4530.897461,4401.153809,5679,3,69,,,,0,4,4,4,4,4,4,4,4,4,4,4,4,4,4,100,,,,,,,,,,,,,,,,,,,,,,,,,,,,,,,,,,,,,,,,,,,,,,,,,,,,,,,,,,,,,,,,,,,,,,,,,,,,,,,,,,,,,,,,,,,,,,,,,,,,,,,,,,,,,,,,,,,,,,,,,,,,,,,,,,,,,,
1702547476,1702547477,2,0,4307.692383,4489.871582,4430.512695,4373.333496,4382.94873,4368.717773,4361.922852,4279.487305,4152.692383,4311.922852,4241.025879,4347.563965,4544.358887,4408.589844,5617,3,69,,,,0,4,4,4,4,4,4,4,4,4,4,4,4,4,4,100,,,,,,,,,,,,,,,,,,,,,,,,,,,,,,,,,,,,,,,,,,,,,,,,,,,,,,,,,,,,,,,,,,,,,,,,,,,,,,,,,,,,,,,,,,,,,,,,,,,,,,,,,,,,,,,,,,,,,,,,,,,,,,,,,,,,,,
1702547476,1702547477,3,0,4300.897461,4493.333496,4427.820313,4374.743652,4417.307617,4362.692383,4364.102539,4278.717773,4154.102539,4298.077148,4262.436035,4348.333496,4546.025879,4398.717773,5526,3,69,,,,0,4,4,4,4,4,4,4,4,4,4,4,4,4,4,100,,,,,,,,,,,,,,,,,,,,,,,,,,,,,,,,,,,,,,,,,,,,,,,,,,,,,,,,,,,,,,,,,,,,,,,,,,,,,,,,,,,,,,,,,,,,,,,,,,,,,,,,,,,,,,,,,,,,,,,,,,,,,,,,,,,,,,
1702547476,1702547477,4,0,4290.128418,4497.692383,4419.743652,4377.94873,4412.307617,4357.692383,4370.256348,4276.282227,4157.179688,4308.077148,4273.974121,4343.077148,4534.743652,4383.333496,5355,3,69,,,,0,4,4,4,4,4,4,4,4,4,4,4,4,4,4,100,,,,,,,,,,,,,,,,,1,0,0.673465,-0.490173,-0.434326,-0.342834,0.907826,-0.367721,0.145037,-11.981695,-0.727244,87.346985,,,,,,,,,,,,,,,,,,,,,,,,,,,,,,,,,,,,,,,,,,,,,,,,,,,,,,,,,,,,,,,,,,,,,,,,,,,,,,,,,,,,,,,,,,,,,,,,,,,,,,,,,,
1702547476,1702547477,5,0,4301.410156,4505,4426.410156,4390.128418,4410.641113,4362.179688,4381.410156,4280.512695,4176.153809,4305.128418,4315,4349.743652,4546.282227,4395.256348,4091,3,69,,,,0,4,4,4,4,4,4,4,4,4,4,4,4,4,4,100,,,,,,,,,,,,,,,,,,,,,,,,,,,,,,,,,,,,,,,,,,,,,,,,,,,,,,,,,,,,,,,,,,,,,,,,,,,,,,,,,,,,,,,,,,,,,,,,,,,,,,,,,,,,,,,,,,,,,,,,,,,,,,,,,,,,,,
1702547476,1702547477,6,0,4306.153809,4500.384766,4426.282227,4384.102539,4415.384766,4354.358887,4378.461426,4278.589844,4185.128418,4280.128418,4343.589844,4353.461426,4555.128418,4400.641113,4670,3,69,,,,0,4,4,4,4,4,4,4,4,4,4,4,4,4,4,100,,,,,,,,,,,,,,,,,,,,,,,,,,,,,,,,,,,,,,,,,,,,,,,,,,,,,,,,,,,,,,,,,,,,,,,,,,,,,,,,,,,,,,,,,,,,,,,,,,,,,,,,,,,,,,,,,,,,,,,,,,,,,,,,,,,,,,
1702547476,1702547477,7,0,4295.897461,4492.820313,4419.487305,4373.717773,4416.666504,4342.820313,4374.358887,4277.692383,4198.974121,4302.820313,4349.102539,4347.563965,4553.717773,4393.333496,3410,3,69,,,,0,4,4,4,4,4,4,4,4,4,4,4,4,4,4,100,,,,,,,,,,,,,,,,,,,,,,,,,,,,,,,,,,,,,,,,,,,,,,,,,,,,,,,,,,,,,,,,,,,,,,,,,,,,,,,,,,,,,,,,,,,,,,,,,,,,,,,,,,,,,,,,,,,,,,,,,,,,,,,,,,,,,,
1702547476,1702547477,8,0,4295,4495.128418,4420.512695,4380.641113,4417.05127,4343.461426,4384.615234,4284.743652,4231.794922,4320.641113,4369.102539,4347.692383,4569.615234,4400.384766,4677,3,69,,,,0,4,4,4,4,4,4,4,4,4,4,4,4,4,4,100,,,,,,,,,,,,,,,,,2,0,0.673581,-0.489929,-0.434326,-0.342957,0.900989,-0.355512,0.149921,-11.883526,-0.85452,87.395622,,,,,,,,,,,,,,,,,,,,,,,,,,,,,,,,,,,,,,,,,,,,,,,,,,,,,,,,,,,,,,,,,,,,,,,,,,,,,,,,,,,,,,,,,,,,,,,,,,,,,,,,,,
1702547476,1702547477,9,0,4298.846191,4495.128418,4416.410156,4379.487305,4411.538574,4345.769043,4391.538574,4286.922852,4250.897461,4297.692383,4389.743652,4351.153809,4586.410156,4403.077148,5539,3,69,,,,0,4,4,4,4,4,4,4,4,4,4,4,4,4,4,100,,,,,,,,,,,,,,,,,,,,,,,,,,,,,,,,,,,,,,,,,,,,,,,,,,,,,,,,,,,,,,,,,,,,,,,,,,,,,,,,,,,,,,,,,,,,,,,,,,,,,,,,,,,,,,,,,,,,,,,,,,,,,,,,,,,,,,
1702547476,1702547477,10,0,4293.589844,4490.256348,4406.410156,4365.641113,4405.256348,4342.179688,4386.153809,4284.230957,4254.487305,4307.179688,4395.641113,4348.205078,4578.333496,4395.256348,6000,3,69,,,,0,4,4,4,4,4,4,4,4,4,4,4,4,4,4,100,,,,,,,,,,,,,,,,,,,,,,,,,,,,,,,,,,,,,,,,,,,,,,,,,,,,,,,,,,,,,,,,,,,,,,,,,,,,,,,,,,,,,,,,,,,,,,,,,,,,,,,,,,,,,,,,,,,,,,,,,,,,,,,,,,,,,,
1702547476,1702547477,11,0,4286.282227,4486.666504,4400.512695,4363.461426,4412.94873,4335.256348,4384.743652,4285.256348,4261.922852,4328.205078,4407.692383,4345.897461,4571.282227,4395.128418,6097,3,69,,,,0,4,4,4,4,4,4,4,4,4,4,4,4,4,4,100,,,,,,,,,,,,,,,,,,,,,,,,,,,,,,,,,,,,,,,,,,,,,,,,,,,,,,,,,,,,,,,,,,,,,,,,,,,,,,,,,,,,,,,,,,,,,,,,,,,,,,,,,,,,,,,,,,,,,,,,,,,,,,,,,,,,,,
1702547476,1702547477,12,0,4275.769043,4478.333496,4389.743652,4363.205078,4403.205078,4313.333496,4383.205078,4284.230957,4261.538574,4304.230957,4420,4346.025879,4572.307617,4387.307617,6588,3,69,,,,0,4,4,4,4,4,4,4,4,4,4,4,4,4,4,100,,,,,,,,,,,,,,,,,3,0,0.673369,-0.489929,-0.434509,-0.34314,0.923941,-0.362349,0.143572,-12.028506,-0.719068,87.472725,,,,,,,,,,,,,,,,,,,,,,,,,,,,,,,,,,,,,,,,,,,,,,,,,,,,,,,,,,,,,,,,,,,,,,,,,,,,,,,,,,,,,,,,,,,,,,,,,,,,,,,,,,
1702547476,1702547477,13,0,4251.922852,4459.871582,4366.025879,4337.692383,4397.05127,4270.512695,4366.922852,4274.230957,4239.358887,4276.153809,4412.05127,4341.282227,4559.487305,4360.641113,2197,3,69,,,,0,4,4,4,4,4,4,4,4,4,4,4,4,4,4,100,,,,,,,,,,,,,,,,,,,,,,,,,,,,,,,,,,,,,,,,,,,,,,,,,,,,,,,,,,,,,,,,,,,,,,,,,,,,,,,,,,,,,,,,,,,,,,,,,,,,,,,,,,,,,,,,,,,,,,,,,,,,,,,,,,,,,,
1702547476,1702547477,14,0,4239.487305,4449.102539,4353.333496,4318.205078,4436.282227,4239.615234,4358.974121,4270.512695,4226.410156,4280.897461,4409.102539,4341.282227,4547.179688,4347.05127,6000,3,69,,,,0,4,4,4,4,4,4,4,4,4,4,4,4,4,4,100,,,,,,,,,,,,,,,,,,,,,,,,,,,,,,,,,,,,,,,,,,,,,,,,,,,,,,,,,,,,,,,,,4.563488,3.008861,2.642946,0.870706,0.853453,6.36692,2.63922,3.75727,0.940569,0.801531,2.158143,2.762737,2.108627,0.664812,0.680911,6.629657,3.009452,2.703529,0.9154,0.802426,7.862438,4.037333,5.69067,11.256905,8.548142,168.704315,28.735083,8.305733,2.448547,0.802358,1.874455,1.340131,0.589025,0.448003,0.418904,0.743997,0.516542,0.343551,0.272997,0.306928,22.684664,8.182577,2.316072,1.631837,0.773784,2.492603,2.528331,2.587545,3.478318,2.583337,34.296261,12.806576,3.424302,1.551938,1.07218,0.707605,0.383646,0.272182,0.138748,0.165228,16.925762,7.40885,3.714782,1.304391,1.292654,3.71216,3.350422,2.318584,0.977887,0.974536
1702547476,1702547477,15,0,4265.128418,4467.692383,4376.794922,4341.666504,4458.461426,4249.871582,4382.820313,4287.94873,4252.307617,4315.256348,4450.384766,4351.666504,4575.897461,4378.077148,6097,3,69,,,,0,4,4,4,4,4,4,4,4,4,4,4,4,4,4,100,,,,,,,,,,,,,,,,,,,,,,,,,,,,,,,,,,,,,,,,,,,,,,,,,,,,,,,,,,,,,,,,,,,,,,,,,,,,,,,,,,,,,,,,,,,,,,,,,,,,,,,,,,,,,,,,,,,,,,,,,,,,,,,,,,,,,,
1702547476,1702547477,16,0,4292.820313,4485.641113,4402.692383,4362.307617,4428.717773,4265.641113,4398.846191,4297.436035,4279.102539,4342.179688,4488.205078,4360.256348,4616.153809,4415,0,3,69,,,,0,4,4,4,4,4,4,4,4,4,4,4,4,4,4,100,,,,,,,,,,,,,,,,,4,0,0.673161,-0.48999,-0.43457,-0.343384,0.908802,-0.353559,0.146502,-11.942323,-0.780494,87.62545,,,,,,,,,,,,,,,,,,,,,,,,,,,,,,,,,,,,,,,,,,,,,,,,,,,,,,,,,,,,,,,,,,,,,,,,,,,,,,,,,,,,,,,,,,,,,,,,,,,,,,,,,,
1702547476,1702547477,17,0,4282.820313,4474.358887,4395.512695,4340.512695,4417.563965,4257.436035,4380.769043,4283.589844,4281.538574,4311.153809,4465.897461,4358.461426,4596.538574,4405.641113,0,3,69,,,,0,4,4,4,4,4,4,4,4,4,4,4,4,4,4,100,,,,,,,,,,,,,,,,,,,,,,,,,,,,,,,,,,,,,,,,,,,,,,,,,,,,,,,,,,,,,,,,,,,,,,,,,,,,,,,,,,,,,,,,,,,,,,,,,,,,,,,,,,,,,,,,,,,,,,,,,,,,,,,,,,,,,,
1702547476,1702547477,18,0,4271.666504,4470.641113,4388.333496,4330.384766,4445.512695,4259.743652,4375,4280.128418,4303.461426,4285.512695,4443.461426,4356.666504,4560.128418,4392.563965,0,3,69,,,,0,4,4,4,4,4,4,4,4,4,4,4,4,4,4,100,,,,,,,,,,,,,,,,,,,,,,,,,,,,,,,,,,,,,,,,,,,,,,,,,,,,,,,,,,,,,,,,,,,,,,,,,,,,,,,,,,,,,,,,,,,,,,,,,,,,,,,,,,,,,,,,,,,,,,,,,,,,,,,,,,,,,,
1702547476,1702547477,19,0,4286.025879,4486.922852,4398.846191,4347.179688,4430.256348,4277.692383,4391.538574,4296.282227,4339.487305,4329.358887,4466.538574,4361.922852,4567.692383,4415.384766,0,3,69,,,,0,4,4,4,4,4,4,4,4,4,4,4,4,4,4,100,,,,,,,,,,,,,,,,,,,,,,,,,,,,,,,,,,,,,,,,,,,,,,,,,,,,,,,,,,,,,,,,,,,,,,,,,,,,,,,,,,,,,,,,,,,,,,,,,,,,,,,,,,,,,,,,,,,,,,,,,,,,,,,,,,,,,,
1702547476,1702547477,20,0,4285.256348,4481.025879,4393.974121,4340.384766,4399.487305,4276.282227,4388.461426,4298.461426,4337.05127,4351.153809,4473.077148,4360.384766,4572.05127,4422.692383,0,3,69,,,,0,4,4,4,4,4,4,4,4,4,4,4,4,4,4,100,,,,,,,,,,,,,,,,,5,0,0.673078,-0.489868,-0.434692,-0.343567,0.893175,-0.343792,0.148456,-12.114758,-0.835778,87.546242,,,,,,,,,,,,,,,,,,,,,,,,,,,,,,,,,,,,,,,,,,,,,,,,,,,,,,,,,,,,,,,,,,,,,,,,,,,,,,,,,,,,,,,,,,,,,,,,,,,,,,,,,,
1702547476,1702547477,21,0,4262.05127,4454.743652,4372.563965,4320,4438.974121,4258.974121,4368.205078,4282.563965,4315.512695,4316.538574,4434.871582,4350.897461,4536.538574,4394.230957,0,3,69,,,,0,4,4,4,4,4,4,4,4,4,4,4,4,4,4,100,,,,,,,,,,,,,,,,,,,,,,,,,,,,,,,,,,,,,,,,,,,,,,,,,,,,,,,,,,,,,,,,,,,,,,,,,,,,,,,,,,,,,,,,,,,,,,,,,,,,,,,,,,,,,,,,,,,,,,,,,,,,,,,,,,,,,,
1702547476,1702547477,22,0,4254.871582,4453.333496,4366.538574,4317.05127,4460.897461,4252.307617,4366.025879,4279.871582,4317.692383,4297.94873,4411.794922,4353.717773,4511.282227,4384.102539,0,3,69,,,,0,4,4,4,4,4,4,4,4,4,4,4,4,4,4,100,,,,,,,,,,,,,,,,,,,,,,,,,,,,,,,,,,,,,,,,,,,,,,,,,,,,,,,,,,,,,,,,,,,,,,,,,,,,,,,,,,,,,,,,,,,,,,,,,,,,,,,,,,,,,,,,,,,,,,,,,,,,,,,,,,,,,,
1702547476,1702547477,23,0,4268.974121,4471.922852,4381.922852,4323.974121,4429.871582,4249.871582,4379.615234,4292.179688,4335.384766,4314.230957,4424.358887,4365,4524.102539,4403.333496,0,3,69,,,,0,4,4,4,4,4,4,4,4,4,4,4,4,4,4,100,,,,,,,,,,,,,,,,,,,,,,,,,,,,,,,,,,,,,,,,,,,,,,,,,,,,,,,,,,,,,,,,,,,,,,,,,,,,,,,,,,,,,,,,,,,,,,,,,,,,,,,,,,,,,,,,,,,,,,,,,,,,,,,,,,,,,,
1702547476,1702547477,24,0,4279.615234,4480.128418,4395.256348,4333.461426,4447.820313,4239.230957,4385,4296.922852,4347.05127,4325.256348,4432.94873,4366.794922,4534.102539,4419.487305,0,3,69,,,,0,4,4,4,4,4,4,4,4,4,4,4,4,4,4,100,,,,,,,,,,,,,,,,,6,0,0.673068,-0.489807,-0.434631,-0.34375,0.908314,-0.358442,0.141619,-11.969948,-0.735534,87.558281,,,,,,,,,,,,,,,,,,,,,,,,,,,,,,,,,,,,,,,,,,,,,,,,,,,,,,,,,,,,,,,,,,,,,,,,,,,,,,,,,,,,,,,,,,,,,,,,,,,,,,,,,,
1702547476,1702547477,25,0,4277.307617,4473.589844,4390.256348,4333.077148,4466.922852,4227.94873,4379.743652,4290.256348,4350,4319.743652,4420.512695,4364.230957,4523.205078,4422.692383,0,3,69,,,,0,4,4,4,4,4,4,4,4,4,4,4,4,4,4,100,,,,,,,,,,,,,,,,,,,,,,,,,,,,,,,,,,,,,,,,,,,,,,,,,,,,,,,,,,,,,,,,,,,,,,,,,,,,,,,,,,,,,,,,,,,,,,,,,,,,,,,,,,,,,,,,,,,,,,,,,,,,,,,,,,,,,,
1702547476,1702547477,26,0,4275.512695,4474.102539,4389.615234,4327.05127,4432.179688,4226.282227,4383.461426,4291.282227,4366.282227,4320.512695,4419.102539,4370.512695,4518.077148,4424.358887,0,3,69,,,,0,4,4,4,4,4,4,4,4,4,4,4,4,4,4,100,,,,,,,,,,,,,,,,,,,,,,,,,,,,,,,,,,,,,,,,,,,,,,,,,,,,,,,,,,,,,,,,,,,,,,,,,,,,,,,,,,,,,,,,,,,,,,,,,,,,,,,,,,,,,,,,,,,,,,,,,,,,,,,,,,,,,,
1702547476,1702547477,27,0,4280.512695,4485.641113,4398.974121,4331.794922,4439.743652,4233.077148,4392.436035,4301.025879,4396.538574,4336.410156,4439.615234,4376.922852,4521.538574,4430,0,3,69,,,,0,4,4,4,4,4,4,4,4,4,4,4,4,4,4,100,,,,,,,,,,,,,,,,,,,,,,,,,,,,,,,,,,,,,,,,,,,,,,,,,,,,,,,,,,,,,,,,,,,,,,,,,,,,,,,,,,,,,,,,,,,,,,,,,,,,,,,,,,,,,,,,,,,,,,,,,,,,,,,,,,,,,,
1702547476,1702547477,28,0,4278.333496,4485.128418,4394.615234,4334.615234,4460.641113,4235.512695,4386.153809,4297.692383,4402.563965,4331.282227,4448.461426,4370.641113,4516.538574,4431.153809,0,3,69,,,,0,4,4,4,4,4,4,4,4,4,4,4,4,4,4,100,,,,,,,,,,,,,,,,,7,0,0.673106,-0.489746,-0.434448,-0.343994,0.905872,-0.355024,0.146502,-12.056287,-0.71198,87.535789,,,,,,,,,,,,,,,,,,,,,,,,,,,,,,,,,,,,,,,,,,,,,,,,,,,,,,,,,,,,,,,,,,,,,,,,,,,,,,,,,,,,,,,,,,,,,,,,,,,,,,,,,,
1702547476,1702547477,29,0,4270.512695,4475.384766,4386.538574,4329.615234,4424.358887,4231.922852,4377.563965,4291.282227,4387.94873,4309.871582,4441.025879,4366.282227,4503.461426,4429.230957,0,3,69,,,,0,4,4,4,4,4,4,4,4,4,4,4,4,4,4,100,,,,,,,,,,,,,,,,,,,,,,,,,,,,,,,,,,,,,,,,,,,,,,,,,,,,,,,,,,,,,,,,,,,,,,,,,,,,,,,,,,,,,,,,,,,,,,,,,,,,,,,,,,,,,,,,,,,,,,,,,,,,,,,,,,,,,,
1702547476,1702547477,30,0,4267.563965,4474.871582,4391.922852,4331.538574,4423.717773,4237.820313,4382.307617,4293.077148,4387.179688,4314.615234,4442.692383,4369.358887,4497.94873,4428.846191,0,3,69,,,,0,4,4,4,4,4,4,4,4,4,4,4,4,4,4,100,1,0,1,1,1,1,0,0,1,4,3,3,0,4,1,1,,,,,,,,,,,,,,,,,,,,,,,,,,,,,,,,,,,,,,,,,,,,,,,,,6.761755,3.106242,2.741971,0.777843,0.822753,10.628634,2.595128,4.569899,1.003965,0.813003,2.237278,2.785246,2.155805,0.646918,0.653642,8.037275,3.356339,2.908796,0.92097,0.788728,7.339063,4.090106,5.626328,11.280864,10.341861,165.988983,26.127659,7.353912,2.198957,0.750059,2.026495,1.281644,0.540627,0.426809,0.394166,0.816489,0.504888,0.263614,0.252038,0.287991,19.775143,8.533915,2.149646,1.663057,0.70815,2.555034,2.765357,2.644367,3.483071,2.808373,29.795374,12.906264,2.687513,1.487145,1.005392,0.761328,0.435219,0.245613,0.11787,0.152858,22.307627,8.71079,3.079867,1.234961,1.211432,5.471337,3.553167,2.273451,0.853913,0.955513
1702547476,1702547477,31,0,4269.102539,4479.230957,4397.563965,4336.922852,4471.538574,4250.769043,4388.589844,4296.538574,4398.846191,4334.102539,4452.820313,4370.641113,4493.717773,4427.94873,0,3,69,,,,0,4,4,4,4,4,4,4,4,4,4,4,4,4,4,100,,,,,,,,,,,,,,,,,,,,,,,,,,,,,,,,,,,,,,,,,,,,,,,,,,,,,,,,,,,,,,,,,,,,,,,,,,,,,,,,,,,,,,,,,,,,,,,,,,,,,,,,,,,,,,,,,,,,,,,,,,,,,,,,,,,,,,
1702547476,1702547477,32,0,4259.487305,4475.256348,4391.666504,4331.666504,4491.922852,4252.563965,4381.666504,4292.820313,4395.769043,4341.410156,4438.461426,4367.05127,4473.333496,4419.230957,0,3,69,,,,0,4,4,4,4,4,4,4,4,4,4,4,4,4,4,100,,,,,,,,,,,,,,,,,8,0,0.673104,-0.489685,-0.434326,-0.344238,0.915639,-0.337932,0.151386,-12.067325,-0.840782,87.532211,,,,,,,,,,,,,,,,,,,,,,,,,,,,,,,,,,,,,,,,,,,,,,,,,,,,,,,,,,,,,,,,,,,,,,,,,,,,,,,,,,,,,,,,,,,,,,,,,,,,,,,,,,
1702547477,1702547477,33,0,4245.641113,4474.487305,4383.974121,4328.717773,4480.512695,4244.230957,4371.282227,4287.692383,4376.922852,4327.692383,4408.333496,4366.794922,4456.410156,4409.615234,0,3,69,,,,0,4,4,4,4,4,4,4,4,4,4,4,4,4,4,100,,,,,,,,,,,,,,,,,,,,,,,,,,,,,,,,,,,,,,,,,,,,,,,,,,,,,,,,,,,,,,,,,,,,,,,,,,,,,,,,,,,,,,,,,,,,,,,,,,,,,,,,,,,,,,,,,,,,,,,,,,,,,,,,,,,,,,
1702547477,1702547477,34,0,4255.256348,4483.974121,4392.179688,4342.692383,4456.922852,4252.563965,4380.128418,4296.794922,4379.230957,4319.102539,4417.94873,4375.384766,4479.487305,4421.153809,0,3,69,,,,0,4,4,4,4,4,4,4,4,4,4,4,4,4,4,100,,,,,,,,,,,,,,,,,,,,,,,,,,,,,,,,,,,,,,,,,,,,,,,,,,,,,,,,,,,,,,,,,,,,,,,,,,,,,,,,,,,,,,,,,,,,,,,,,,,,,,,,,,,,,,,,,,,,,,,,,,,,,,,,,,,,,,
1702547477,1702547477,35,0,4263.333496,4482.436035,4401.282227,4350.641113,4443.205078,4266.922852,4392.692383,4305.128418,4393.333496,4335.512695,4433.974121,4378.974121,4501.922852,4435,0,3,69,,,,0,4,4,4,4,4,4,4,4,4,4,4,4,4,4,100,,,,,,,,,,,,,,,,,,,,,,,,,,,,,,,,,,,,,,,,,,,,,,,,,,,,,,,,,,,,,,,,,,,,,,,,,,,,,,,,,,,,,,,,,,,,,,,,,,,,,,,,,,,,,,,,,,,,,,,,,,,,,,,,,,,,,,
1702547477,1702547477,36,0,4251.025879,4475.128418,4397.05127,4344.871582,4443.589844,4261.666504,4383.974121,4298.589844,4382.820313,4333.974121,4395.769043,4374.358887,4482.563965,4428.333496,0,3,69,,,,0,4,4,4,4,4,4,4,4,4,4,4,4,4,4,100,,,,,,,,,,,,,,,,,9,0,0.673047,-0.489624,-0.434387,-0.34436,0.918569,-0.343304,0.13527,-12.077259,-0.906704,87.562325,,,,,,,,,,,,,,,,,,,,,,,,,,,,,,,,,,,,,,,,,,,,,,,,,,,,,,,,,,,,,,,,,,,,,,,,,,,,,,,,,,,,,,,,,,,,,,,,,,,,,,,,,,
1702547477,1702547477,37,0,4241.153809,4473.846191,4391.538574,4339.102539,4447.94873,4255.512695,4370.256348,4292.692383,4362.820313,4315.384766,4352.692383,4373.077148,4467.05127,4419.487305,0,3,69,,,,0,4,4,4,4,4,4,4,4,4,4,4,4,4,4,100,,,,,,,,,,,,,,,,,,,,,,,,,,,,,,,,,,,,,,,,,,,,,,,,,,,,,,,,,,,,,,,,,,,,,,,,,,,,,,,,,,,,,,,,,,,,,,,,,,,,,,,,,,,,,,,,,,,,,,,,,,,,,,,,,,,,,,
1702547477,1702547477,38,0,4238.461426,4468.717773,4389.871582,4339.743652,4463.077148,4262.820313,4375.128418,4296.025879,4358.589844,4331.794922,4355.641113,4374.102539,4476.666504,4418.205078,0,3,69,,,,0,4,4,4,4,4,4,4,4,4,4,4,4,4,4,100,,,,,,,,,,,,,,,,,,,,,,,,,,,,,,,,,,,,,,,,,,,,,,,,,,,,,,,,,,,,,,,,,,,,,,,,,,,,,,,,,,,,,,,,,,,,,,,,,,,,,,,,,,,,,,,,,,,,,,,,,,,,,,,,,,,,,,
1702547477,1702547477,39,0,4229.487305,4455.384766,4381.410156,4336.025879,4466.922852,4256.410156,4373.461426,4294.871582,4357.307617,4335.128418,4354.358887,4372.179688,4471.410156,4412.05127,0,3,69,,,,0,4,4,4,4,4,4,4,4,4,4,4,4,4,4,100,,,,,,,,,,,,,,,,,,,,,,,,,,,,,,,,,,,,,,,,,,,,,,,,,,,,,,,,,,,,,,,,,,,,,,,,,,,,,,,,,,,,,,,,,,,,,,,,,,,,,,,,,,,,,,,,,,,,,,,,,,,,,,,,,,,,,,
1702547477,1702547477,40,0,4228.589844,4459.743652,4375.897461,4335.641113,4437.05127,4242.436035,4362.563965,4289.743652,4367.307617,4288.974121,4334.487305,4372.820313,4449.871582,4411.794922,0,3,69,,,,0,4,4,4,4,4,4,4,4,4,4,4,4,4,4,100,,,,,,,,,,,,,,,,,10,0,0.673073,-0.489502,-0.434387,-0.344482,0.907337,-0.346722,0.148456,-11.986199,-0.8327,87.539421,,,,,,,,,,,,,,,,,,,,,,,,,,,,,,,,,,,,,,,,,,,,,,,,,,,,,,,,,,,,,,,,,,,,,,,,,,,,,,,,,,,,,,,,,,,,,,,,,,,,,,,,,,
1702547477,1702547477,41,0,4245.769043,4478.077148,4389.871582,4352.94873,4437.563965,4254.871582,4373.717773,4295.769043,4404.102539,4290.897461,4345.384766,4382.05127,4446.282227,4436.282227,0,3,69,,,,0,4,4,4,4,4,4,4,4,4,4,4,4,4,4,100,,,,,,,,,,,,,,,,,,,,,,,,,,,,,,,,,,,,,,,,,,,,,,,,,,,,,,,,,,,,,,,,,,,,,,,,,,,,,,,,,,,,,,,,,,,,,,,,,,,,,,,,,,,,,,,,,,,,,,,,,,,,,,,,,,,,,,
1702547477,1702547477,42,0,4254.230957,4477.05127,4403.461426,4364.615234,4481.153809,4268.589844,4386.922852,4297.563965,4426.794922,4343.974121,4354.230957,4387.820313,4453.717773,4450.512695,0,3,69,,,,0,4,4,4,4,4,4,4,4,4,4,4,4,4,4,100,,,,,,,,,,,,,,,,,,,,,,,,,,,,,,,,,,,,,,,,,,,,,,,,,,,,,,,,,,,,,,,,,,,,,,,,,,,,,,,,,,,,,,,,,,,,,,,,,,,,,,,,,,,,,,,,,,,,,,,,,,,,,,,,,,,,,,
1702547477,1702547477,43,0,4245.641113,4460.512695,4393.461426,4352.05127,4471.666504,4252.563965,4372.436035,4287.692383,4414.230957,4334.230957,4318.846191,4385.384766,4442.692383,4432.820313,0,3,69,,,,0,4,4,4,4,4,4,4,4,4,4,4,4,4,4,100,,,,,,,,,,,,,,,,,,,,,,,,,,,,,,,,,,,,,,,,,,,,,,,,,,,,,,,,,,,,,,,,,,,,,,,,,,,,,,,,,,,,,,,,,,,,,,,,,,,,,,,,,,,,,,,,,,,,,,,,,,,,,,,,,,,,,,
1702547477,1702547477,44,0,4231.282227,4448.077148,4379.871582,4338.974121,4434.743652,4236.282227,4357.692383,4282.94873,4401.922852,4282.179688,4290.128418,4380.897461,4427.692383,4417.94873,0,3,69,,,,0,4,4,4,4,4,4,4,4,4,4,4,4,4,4,100,,,,,,,,,,,,,,,,,11,0,0.673053,-0.489563,-0.434204,-0.344666,0.902942,-0.354535,0.150897,-11.854246,-0.69943,87.685478,,,,,,,,,,,,,,,,,,,,,,,,,,,,,,,,,,,,,,,,,,,,,,,,,,,,,,,,,,,,,,,,,,,,,,,,,,,,,,,,,,,,,,,,,,,,,,,,,,,,,,,,,,
1702547477,1702547477,45,0,4220.256348,4444.743652,4376.410156,4338.333496,4440.256348,4236.153809,4357.563965,4283.461426,4395.128418,4279.871582,4290.769043,4376.410156,4427.692383,4411.410156,0,3,69,,,,0,4,4,4,4,4,4,4,4,4,4,4,4,4,4,100,,,,,,,,,,,,,,,,,,,,,,,,,,,,,,,,,,,,,,,,,,,,,,,,,,,,,,,,,,,,,,,,,,,,,,,,,,,,,,,,,,,,,,,,,,,,,,,,,,,,,,,,,,,,,,,,,,,,,,,,,,,,,,,,,,,,,,
1702547477,1702547477,46,0,4211.922852,4441.153809,4368.333496,4331.282227,4443.461426,4228.461426,4352.94873,4278.974121,4377.692383,4306.153809,4282.179688,4372.692383,4428.205078,4393.846191,0,3,69,,,,0,4,4,4,4,4,4,4,4,4,4,4,4,4,4,100,,,,,,,,,,,,,,,,,,,,,,,,,,,,,,,,,,,,,,,,,,,,,,,,,,,,,,,,,,,,,,,,,11.555051,2.972971,2.675747,0.703783,0.81713,18.71134,2.744834,5.107016,1.06872,0.822703,2.463316,2.647851,2.132307,0.622432,0.637894,8.908664,3.472472,2.898422,0.917721,0.788201,5.992638,4.033076,5.679127,10.762691,12.224416,141.444504,20.498686,5.697486,1.732827,0.659492,2.243848,1.127919,0.495235,0.4147,0.387033,0.869767,0.487216,0.195321,0.228026,0.275967,19.080019,10.12341,2.442875,1.860955,0.673928,2.671071,2.900681,2.662045,3.239872,2.993675,31.020538,12.190077,2.349424,1.564623,0.966898,0.794172,0.494121,0.215352,0.101663,0.147436,30.735748,9.663471,2.680826,1.173478,1.153711,9.004833,3.472208,2.208014,0.765573,0.938659
1702547477,1702547477,47,0,4212.563965,4437.94873,4362.179688,4325.256348,4417.307617,4209.871582,4348.205078,4278.077148,4367.179688,4300.641113,4268.333496,4372.436035,4426.922852,4387.307617,0,3,69,,,,0,4,4,4,4,4,4,4,4,4,4,4,4,4,4,100,,,,,,,,,,,,,,,,,,,,,,,,,,,,,,,,,,,,,,,,,,,,,,,,,,,,,,,,,,,,,,,,,,,,,,,,,,,,,,,,,,,,,,,,,,,,,,,,,,,,,,,,,,,,,,,,,,,,,,,,,,,,,,,,,,,,,,
1702547477,1702547477,48,0,4214.615234,4428.846191,4365.128418,4328.846191,4425.384766,4194.487305,4347.179688,4281.153809,4369.102539,4277.179688,4257.563965,4374.615234,4424.871582,4393.589844,0,3,69,,,,0,4,4,4,4,4,4,4,4,4,4,4,4,4,4,100,,,,,,,,,,,,,,,,,12,0,0.67302,-0.489685,-0.434021,-0.344788,0.919546,-0.347699,0.152362,-11.918821,-0.812821,87.650269,,,,,,,,,,,,,,,,,,,,,,,,,,,,,,,,,,,,,,,,,,,,,,,,,,,,,,,,,,,,,,,,,,,,,,,,,,,,,,,,,,,,,,,,,,,,,,,,,,,,,,,,,,
1702547477,1702547477,49,0,4202.94873,4413.077148,4357.307617,4322.436035,4466.153809,4185.897461,4338.461426,4276.538574,4360.128418,4264.230957,4227.563965,4375.256348,4412.820313,4380.897461,0,3,69,,,,0,4,4,4,4,4,4,4,4,4,4,4,4,4,4,100,,,,,,,,,,,,,,,,,,,,,,,,,,,,,,,,,,,,,,,,,,,,,,,,,,,,,,,,,,,,,,,,,,,,,,,,,,,,,,,,,,,,,,,,,,,,,,,,,,,,,,,,,,,,,,,,,,,,,,,,,,,,,,,,,,,,,,
1702547477,1702547477,50,0,4200.384766,4415.384766,4352.179688,4320,4422.05127,4182.820313,4335.512695,4272.820313,4348.461426,4263.077148,4208.333496,4373.333496,4411.538574,4368.205078,0,3,69,,,,0,4,4,4,4,4,4,4,4,4,4,4,4,4,4,100,,,,,,,,,,,,,,,,,,,,,,,,,,,,,,,,,,,,,,,,,,,,,,,,,,,,,,,,,,,,,,,,,,,,,,,,,,,,,,,,,,,,,,,,,,,,,,,,,,,,,,,,,,,,,,,,,,,,,,,,,,,,,,,,,,,,,,
1702547477,1702547477,51,0,4219.230957,4426.025879,4369.358887,4337.307617,4362.179688,4186.666504,4348.077148,4281.666504,4360,4284.102539,4225.769043,4377.692383,4429.102539,4382.436035,0,3,69,,,,0,4,4,4,4,4,4,4,4,4,4,4,4,4,4,100,,,,,,,,,,,,,,,,,,,,,,,,,,,,,,,,,,,,,,,,,,,,,,,,,,,,,,,,,,,,,,,,,,,,,,,,,,,,,,,,,,,,,,,,,,,,,,,,,,,,,,,,,,,,,,,,,,,,,,,,,,,,,,,,,,,,,,
1702547477,1702547477,52,0,4219.615234,4415,4369.102539,4335.641113,4412.820313,4189.358887,4351.282227,4281.666504,4365.769043,4279.743652,4234.615234,4382.179688,4426.153809,4383.846191,0,3,69,,,,0,4,4,4,4,4,4,4,4,4,4,4,4,4,4,100,,,,,,,,,,,,,,,,,13,0,0.672997,-0.489868,-0.433899,-0.344727,0.912709,-0.354535,0.144549,-11.82694,-0.964872,87.668571,,,,,,,,,,,,,,,,,,,,,,,,,,,,,,,,,,,,,,,,,,,,,,,,,,,,,,,,,,,,,,,,,,,,,,,,,,,,,,,,,,,,,,,,,,,,,,,,,,,,,,,,,,
1702547477,1702547477,53,0,4199.871582,4403.205078,4343.717773,4313.333496,4476.538574,4188.974121,4339.230957,4269.230957,4349.102539,4225.128418,4230,4375.512695,4411.794922,4365.641113,0,3,69,,,,0,4,4,4,4,4,4,4,4,4,4,4,4,4,4,100,,,,,,,,,,,,,,,,,,,,,,,,,,,,,,,,,,,,,,,,,,,,,,,,,,,,,,,,,,,,,,,,,,,,,,,,,,,,,,,,,,,,,,,,,,,,,,,,,,,,,,,,,,,,,,,,,,,,,,,,,,,,,,,,,,,,,,
1702547477,1702547477,54,0,4202.692383,4403.974121,4345.384766,4316.153809,4456.538574,4197.05127,4341.025879,4271.922852,4353.077148,4232.94873,4240.897461,4374.615234,4408.717773,4367.820313,0,3,69,,,,0,4,4,4,4,4,4,4,4,4,4,4,4,4,4,100,,,,,,,,,,,,,,,,,,,,,,,,,,,,,,,,,,,,,,,,,,,,,,,,,,,,,,,,,,,,,,,,,,,,,,,,,,,,,,,,,,,,,,,,,,,,,,,,,,,,,,,,,,,,,,,,,,,,,,,,,,,,,,,,,,,,,,
1702547477,1702547477,55,0,4219.871582,4401.282227,4370.128418,4329.487305,4409.487305,4203.717773,4351.922852,4285.128418,4373.333496,4306.025879,4251.666504,4384.487305,4408.077148,4386.538574,0,3,69,,,,0,4,4,4,4,4,4,4,4,4,4,4,4,4,4,100,,,,,,,,,,,,,,,,,,,,,,,,,,,,,,,,,,,,,,,,,,,,,,,,,,,,,,,,,,,,,,,,,,,,,,,,,,,,,,,,,,,,,,,,,,,,,,,,,,,,,,,,,,,,,,,,,,,,,,,,,,,,,,,,,,,,,,
1702547477,1702547477,56,0,4229.871582,4403.846191,4373.846191,4329.615234,4386.410156,4206.794922,4348.205078,4285.384766,4376.153809,4318.461426,4254.743652,4386.666504,4426.666504,4398.461426,0,3,69,,,,0,4,4,4,4,4,4,4,4,4,4,4,4,4,4,100,,,,,,,,,,,,,,,,,14,0,0.672973,-0.489868,-0.433838,-0.344849,0.913686,-0.360396,0.149921,-11.844246,-0.968385,87.635048,,,,,,,,,,,,,,,,,,,,,,,,,,,,,,,,,,,,,,,,,,,,,,,,,,,,,,,,,,,,,,,,,,,,,,,,,,,,,,,,,,,,,,,,,,,,,,,,,,,,,,,,,,
1702547477,1702547477,57,0,4227.94873,4395.512695,4357.563965,4325.512695,4390.128418,4212.05127,4341.794922,4278.461426,4379.358887,4287.94873,4259.615234,4383.205078,4459.487305,4397.563965,0,3,69,,,,0,4,4,4,4,4,4,4,4,4,4,4,4,4,4,100,,,,,,,,,,,,,,,,,,,,,,,,,,,,,,,,,,,,,,,,,,,,,,,,,,,,,,,,,,,,,,,,,,,,,,,,,,,,,,,,,,,,,,,,,,,,,,,,,,,,,,,,,,,,,,,,,,,,,,,,,,,,,,,,,,,,,,
1702547477,1702547477,58,0,4217.436035,4365.384766,4346.410156,4313.205078,4423.974121,4210.897461,4343.717773,4280,4396.153809,4286.410156,4263.717773,4384.487305,4474.358887,4390.897461,0,3,69,,,,0,4,4,4,4,4,4,4,4,4,4,4,4,4,4,100,,,,,,,,,,,,,,,,,,,,,,,,,,,,,,,,,,,,,,,,,,,,,,,,,,,,,,,,,,,,,,,,,,,,,,,,,,,,,,,,,,,,,,,,,,,,,,,,,,,,,,,,,,,,,,,,,,,,,,,,,,,,,,,,,,,,,,
1702547477,1702547477,59,0,4215.256348,4354.487305,4343.846191,4295,4411.922852,4200.641113,4335.128418,4280.512695,4394.615234,4266.538574,4269.358887,4382.820313,4473.333496,4387.94873,0,3,69,,,,0,4,4,4,4,4,4,4,4,4,4,4,4,4,4,100,,,,,,,,,,,,,,,,,,,,,,,,,,,,,,,,,,,,,,,,,,,,,,,,,,,,,,,,,,,,,,,,,,,,,,,,,,,,,,,,,,,,,,,,,,,,,,,,,,,,,,,,,,,,,,,,,,,,,,,,,,,,,,,,,,,,,,
1702547477,1702547477,60,0,4216.153809,4359.871582,4338.717773,4288.974121,4388.461426,4198.077148,4323.461426,4273.461426,4378.974121,4244.871582,4278.846191,4377.563965,4462.94873,4385.769043,0,3,69,,,,0,4,4,4,4,4,4,4,4,4,4,4,4,4,4,100,,,,,,,,,,,,,,,,,15,0,0.673018,-0.489807,-0.433838,-0.344849,0.914662,-0.356977,0.146502,-11.943154,-1.004879,87.68821,,,,,,,,,,,,,,,,,,,,,,,,,,,,,,,,,,,,,,,,,,,,,,,,,,,,,,,,,,,,,,,,,,,,,,,,,,,,,,,,,,,,,,,,,,,,,,,,,,,,,,,,,,
1702547477,1702547477,61,0,4202.820313,4339.230957,4330.769043,4283.077148,4435.641113,4202.307617,4325.769043,4271.025879,4372.94873,4268.077148,4287.307617,4376.410156,4446.538574,4376.794922,0,3,69,,,,0,4,4,4,4,4,4,4,4,4,4,4,4,4,4,100,,,,,,,,,,,,,,,,,,,,,,,,,,,,,,,,,,,,,,,,,,,,,,,,,,,,,,,,,,,,,,,,,,,,,,,,,,,,,,,,,,,,,,,,,,,,,,,,,,,,,,,,,,,,,,,,,,,,,,,,,,,,,,,,,,,,,,
1702547477,1702547477,62,0,4196.025879,4323.461426,4333.717773,4275.512695,4440.512695,4199.615234,4335.256348,4277.94873,4365.897461,4287.179688,4305.641113,4380.384766,4447.307617,4374.358887,0,3,69,,,,0,4,4,4,4,4,4,4,4,4,4,4,4,4,4,100,,,,,,,,,,,,,,,,,,,,,,,,,,,,,,,,,,,,,,,,,,,,,,,,,,,,,,,,,,,,,,,,,18.873798,2.602977,2.454081,0.642354,0.82292,30.191341,2.897787,5.190765,1.095315,0.812986,3.09619,2.313857,2.030432,0.586639,0.628386,9.703467,3.287998,2.631124,0.887883,0.788761,4.454368,3.880664,5.924781,9.592224,13.49099,104.752815,13.76924,3.918314,1.211044,0.556091,2.3605,0.926072,0.468987,0.409449,0.395839,0.892241,0.452284,0.152044,0.200816,0.272065,20.612577,12.552867,3.269166,2.189078,0.675479,2.720462,2.931188,2.610607,2.858083,3.097528,38.713444,11.072484,2.237392,1.65938,0.975094,0.816746,0.516733,0.1856,0.087963,0.147647,38.193203,9.924232,2.552506,1.089723,1.134948,14.538487,3.111458,2.109264,0.696176,0.923224
1702547477,1702547477,63,0,4228.077148,4357.563965,4361.410156,4301.410156,4395.256348,4201.282227,4355.256348,4295.769043,4366.666504,4298.974121,4352.692383,4395,4480.641113,4402.05127,0,3,69,,,,0,4,4,4,4,4,4,4,4,4,4,4,4,4,4,100,,,,,,,,,,,,,,,,,,,,,,,,,,,,,,,,,,,,,,,,,,,,,,,,,,,,,,,,,,,,,,,,,,,,,,,,,,,,,,,,,,,,,,,,,,,,,,,,,,,,,,,,,,,,,,,,,,,,,,,,,,,,,,,,,,,,,,
1702547477,1702547477,64,0,4260.128418,4394.487305,4387.820313,4335.256348,4408.974121,4205.384766,4374.230957,4307.820313,4373.205078,4309.743652,4404.102539,4410.512695,4507.307617,4434.487305,5442,3,69,,,,0,4,4,4,4,4,4,4,4,4,4,4,4,4,4,100,,,,,,,,,,,,,,,,,16,0,0.672921,-0.489746,-0.43396,-0.344971,0.905872,-0.348675,0.148456,-12.048839,-1.187725,87.669388,,,,,,,,,,,,,,,,,,,,,,,,,,,,,,,,,,,,,,,,,,,,,,,,,,,,,,,,,,,,,,,,,,,,,,,,,,,,,,,,,,,,,,,,,,,,,,,,,,,,,,,,,,
1702547477,1702547477,65,0,4251.666504,4383.974121,4381.922852,4324.487305,4447.307617,4197.307617,4365.641113,4297.179688,4364.230957,4303.589844,4417.692383,4405.769043,4500.512695,4432.94873,5666,3,69,,,,0,4,4,4,4,4,4,4,4,4,4,4,4,4,4,100,,,,,,,,,,,,,,,,,,,,,,,,,,,,,,,,,,,,,,,,,,,,,,,,,,,,,,,,,,,,,,,,,,,,,,,,,,,,,,,,,,,,,,,,,,,,,,,,,,,,,,,,,,,,,,,,,,,,,,,,,,,,,,,,,,,,,,
1702547477,1702547477,66,0,4235.256348,4357.307617,4361.282227,4297.179688,4422.94873,4177.307617,4345.512695,4284.615234,4351.666504,4291.282227,4406.282227,4396.666504,4478.846191,4411.282227,5619,3,69,,,,0,4,4,4,4,4,4,4,4,4,4,4,4,4,4,100,,,,,,,,,,,,,,,,,,,,,,,,,,,,,,,,,,,,,,,,,,,,,,,,,,,,,,,,,,,,,,,,,,,,,,,,,,,,,,,,,,,,,,,,,,,,,,,,,,,,,,,,,,,,,,,,,,,,,,,,,,,,,,,,,,,,,,
1702547477,1702547477,67,0,4229.487305,4355.128418,4350.128418,4295.512695,4367.563965,4167.820313,4341.025879,4284.871582,4350.769043,4272.94873,4409.615234,4396.666504,4460.769043,4396.410156,5529,3,69,,,,0,4,4,4,4,4,4,4,4,4,4,4,4,4,4,100,,,,,,,,,,,,,,,,,,,,,,,,,,,,,,,,,,,,,,,,,,,,,,,,,,,,,,,,,,,,,,,,,,,,,,,,,,,,,,,,,,,,,,,,,,,,,,,,,,,,,,,,,,,,,,,,,,,,,,,,,,,,,,,,,,,,,,
1702547477,1702547477,68,0,4220.384766,4360.512695,4341.794922,4295.897461,4368.589844,4168.717773,4340.769043,4283.461426,4362.05127,4254.358887,4423.717773,4396.025879,4446.282227,4390.512695,5337,3,69,,,,0,4,4,4,4,4,4,4,4,4,4,4,4,4,4,100,,,,,,,,,,,,,,,,,17,0,0.672863,-0.489685,-0.434021,-0.345093,0.914174,-0.355512,0.145526,-12.260622,-1.202286,87.63578,,,,,,,,,,,,,,,,,,,,,,,,,,,,,,,,,,,,,,,,,,,,,,,,,,,,,,,,,,,,,,,,,,,,,,,,,,,,,,,,,,,,,,,,,,,,,,,,,,,,,,,,,,
1702547477,1702547477,69,0,4221.410156,4361.282227,4336.153809,4291.666504,4418.589844,4141.410156,4338.846191,4282.94873,4384.230957,4279.358887,4442.05127,4395.769043,4442.05127,4394.487305,4109,3,69,,,,0,4,4,4,4,4,4,4,4,4,4,4,4,4,4,100,,,,,,,,,,,,,,,,,,,,,,,,,,,,,,,,,,,,,,,,,,,,,,,,,,,,,,,,,,,,,,,,,,,,,,,,,,,,,,,,,,,,,,,,,,,,,,,,,,,,,,,,,,,,,,,,,,,,,,,,,,,,,,,,,,,,,,
1702547477,1702547477,70,0,4236.794922,4367.820313,4338.077148,4307.179688,4452.94873,4096.538574,4346.282227,4287.94873,4408.846191,4309.871582,4466.282227,4399.102539,4443.077148,4404.358887,4665,3,69,,,,0,4,4,4,4,4,4,4,4,4,4,4,4,4,4,100,,,,,,,,,,,,,,,,,,,,,,,,,,,,,,,,,,,,,,,,,,,,,,,,,,,,,,,,,,,,,,,,,,,,,,,,,,,,,,,,,,,,,,,,,,,,,,,,,,,,,,,,,,,,,,,,,,,,,,,,,,,,,,,,,,,,,,
1702547477,1702547477,71,0,4228.717773,4362.820313,4327.05127,4302.820313,4440.897461,4078.461426,4348.589844,4284.358887,4421.410156,4292.820313,4475.384766,4398.461426,4424.743652,4396.794922,3408,3,69,,,,0,4,4,4,4,4,4,4,4,4,4,4,4,4,4,100,,,,,,,,,,,,,,,,,,,,,,,,,,,,,,,,,,,,,,,,,,,,,,,,,,,,,,,,,,,,,,,,,,,,,,,,,,,,,,,,,,,,,,,,,,,,,,,,,,,,,,,,,,,,,,,,,,,,,,,,,,,,,,,,,,,,,,
1702547477,1702547477,72,0,4213.461426,4348.589844,4307.820313,4271.282227,4404.487305,4084.871826,4343.205078,4280.897461,4427.307617,4267.692383,4476.666504,4397.436035,4407.692383,4384.743652,4647,3,69,,,,0,4,4,4,4,4,4,4,4,4,4,4,4,4,4,100,,,,,,,,,,,,,,,,,18,0,0.672738,-0.489685,-0.434021,-0.345337,0.911732,-0.339885,0.141619,-12.201226,-1.182057,87.555542,,,,,,,,,,,,,,,,,,,,,,,,,,,,,,,,,,,,,,,,,,,,,,,,,,,,,,,,,,,,,,,,,,,,,,,,,,,,,,,,,,,,,,,,,,,,,,,,,,,,,,,,,,
1702547477,1702547477,73,0,4223.717773,4353.846191,4309.615234,4265.769043,4381.410156,4090.128174,4341.153809,4286.153809,4429.871582,4265.641113,4492.179688,4402.436035,4416.025879,4392.05127,5517,3,69,,,,0,4,4,4,4,4,4,4,4,4,4,4,4,4,4,100,,,,,,,,,,,,,,,,,,,,,,,,,,,,,,,,,,,,,,,,,,,,,,,,,,,,,,,,,,,,,,,,,,,,,,,,,,,,,,,,,,,,,,,,,,,,,,,,,,,,,,,,,,,,,,,,,,,,,,,,,,,,,,,,,,,,,,
1702547477,1702547477,74,0,4225.897461,4362.307617,4312.179688,4269.487305,4392.436035,4101.282227,4335.128418,4281.538574,4424.487305,4266.025879,4498.846191,4401.025879,4409.230957,4390.897461,5988,3,69,,,,0,4,4,4,4,4,4,4,4,4,4,4,4,4,4,100,,,,,,,,,,,,,,,,,,,,,,,,,,,,,,,,,,,,,,,,,,,,,,,,,,,,,,,,,,,,,,,,,,,,,,,,,,,,,,,,,,,,,,,,,,,,,,,,,,,,,,,,,,,,,,,,,,,,,,,,,,,,,,,,,,,,,,
1702547477,1702547477,75,0,4221.282227,4354.358887,4303.461426,4255.769043,4419.871582,4129.871582,4331.922852,4277.307617,4427.692383,4254.743652,4507.94873,4396.538574,4395,4382.05127,6072,3,69,,,,0,4,4,4,4,4,4,4,4,4,4,4,4,4,4,100,,,,,,,,,,,,,,,,,,,,,,,,,,,,,,,,,,,,,,,,,,,,,,,,,,,,,,,,,,,,,,,,,,,,,,,,,,,,,,,,,,,,,,,,,,,,,,,,,,,,,,,,,,,,,,,,,,,,,,,,,,,,,,,,,,,,,,
1702547477,1702547477,76,0,4240.384766,4360.384766,4311.538574,4259.487305,4419.871582,4159.102539,4342.05127,4292.307617,4428.717773,4270.256348,4551.666504,4404.871582,4416.282227,4398.333496,6551,3,69,,,,0,4,4,4,4,4,4,4,4,4,4,4,4,4,4,100,,,,,,,,,,,,,,,,,19,0,0.672802,-0.489685,-0.433777,-0.34552,0.923941,-0.340374,0.141131,-12.164437,-1.180518,87.433319,,,,,,,,,,,,,,,,,,,,,,,,,,,,,,,,,,,,,,,,,,,,,,,,,,,,,,,,,,,,,,,,,,,,,,,,,,,,,,,,,,,,,,,,,,,,,,,,,,,,,,,,,,
1702547477,1702547477,77,0,4256.153809,4376.794922,4325.641113,4270.769043,4425.384766,4177.179688,4347.692383,4298.589844,4432.307617,4301.282227,4587.05127,4411.666504,4426.153809,4416.025879,2179,3,69,,,,0,4,4,4,4,4,4,4,4,4,4,4,4,4,4,100,,,,,,,,,,,,,,,,,,,,,,,,,,,,,,,,,,,,,,,,,,,,,,,,,,,,,,,,,,,,,,,,,,,,,,,,,,,,,,,,,,,,,,,,,,,,,,,,,,,,,,,,,,,,,,,,,,,,,,,,,,,,,,,,,,,,,,
1702547477,1702547477,78,0,4245.512695,4364.487305,4316.025879,4254.487305,4437.05127,4189.487305,4340,4282.692383,4483.077148,4280.769043,4585.641113,4405.769043,4366.282227,4411.666504,5988,3,69,,,,0,4,4,4,4,4,4,4,4,4,4,4,4,4,4,100,,,,,,,,,,,,,,,,,,,,,,,,,,,,,,,,,,,,,,,,,,,,,,,,,,,,,,,,,,,,,,,,,27.317596,2.130786,2.18941,0.612238,0.822554,42.86758,3.008871,4.822564,1.078454,0.777096,3.98071,1.891213,1.925242,0.562385,0.618349,10.290154,2.923217,2.193209,0.847051,0.780794,3.049733,3.657567,6.374331,7.946195,13.637975,66.594994,8.033897,2.577728,0.790503,0.468889,2.391698,0.738055,0.481508,0.415677,0.415529,0.878124,0.402665,0.137003,0.176922,0.273957,22.465271,15.034627,4.457847,2.541969,0.702812,2.710246,2.868164,2.486295,2.497257,3.121839,49.86924,10.083144,2.208088,1.71668,1.043605,0.829348,0.497081,0.17167,0.080785,0.149713,43.419834,9.320508,2.707477,1.007464,1.155871,21.061893,2.602949,2.067509,0.671885,0.910487
1702547477,1702547477,79,0,4239.615234,4351.025879,4305.256348,4246.794922,4386.922852,4203.589844,4338.846191,4278.846191,4547.820313,4251.282227,4596.025879,4402.307617,4309.230957,4414.102539,6072,3,69,,,,0,4,4,4,4,4,4,4,4,4,4,4,4,4,4,100,,,,,,,,,,,,,,,,,,,,,,,,,,,,,,,,,,,,,,,,,,,,,,,,,,,,,,,,,,,,,,,,,,,,,,,,,,,,,,,,,,,,,,,,,,,,,,,,,,,,,,,,,,,,,,,,,,,,,,,,,,,,,,,,,,,,,,
1702547477,1702547477,80,0,4247.94873,4366.794922,4307.05127,4251.538574,4345.897461,4215.256348,4344.358887,4290.384766,4583.333496,4266.794922,4626.282227,4405.256348,4297.436035,4429.230957,6551,3,69,,,,0,4,4,4,4,4,4,4,4,4,4,4,4,4,4,100,,,,,,,,,,,,,,,,,20,0,0.67303,-0.489868,-0.433411,-0.345276,0.899036,-0.331583,0.137712,-12.147993,-1.0458,87.45665,,,,,,,,,,,,,,,,,,,,,,,,,,,,,,,,,,,,,,,,,,,,,,,,,,,,,,,,,,,,,,,,,,,,,,,,,,,,,,,,,,,,,,,,,,,,,,,,,,,,,,,,,,
1702547477,1702547477,81,0,4244.871582,4365.769043,4302.820313,4238.846191,4393.974121,4223.461426,4343.589844,4291.666504,4694.871582,4277.05127,4632.94873,4407.563965,4236.794922,4439.871582,2179,3,69,,,,0,4,4,4,4,4,4,4,4,4,4,4,4,4,4,100,,,,,,,,,,,,,,,,,,,,,,,,,,,,,,,,,,,,,,,,,,,,,,,,,,,,,,,,,,,,,,,,,,,,,,,,,,,,,,,,,,,,,,,,,,,,,,,,,,,,,,,,,,,,,,,,,,,,,,,,,,,,,,,,,,,,,,
1702547477,1702547477,82,0,4237.05127,4348.333496,4293.205078,4229.615234,4460.512695,4233.589844,4342.307617,4287.94873,4886.538574,4260.384766,4626.538574,4408.333496,4123.717773,4453.717773,5988,3,69,,,,0,4,4,4,4,4,4,4,4,4,4,4,4,4,4,100,,,,,,,,,,,,,,,,,,,,,,,,,,,,,,,,,,,,,,,,,,,,,,,,,,,,,,,,,,,,,,,,,,,,,,,,,,,,,,,,,,,,,,,,,,,,,,,,,,,,,,,,,,,,,,,,,,,,,,,,,,,,,,,,,,,,,,
1702547477,1702547477,83,0,4235,4350,4283.846191,4226.025879,4461.922852,4236.025879,4340.769043,4289.743652,4965.769043,4261.922852,4625.384766,4405.641113,4059.358887,4458.717773,6072,3,69,,,,0,4,4,4,4,4,4,4,4,4,4,4,4,4,4,100,,,,,,,,,,,,,,,,,,,,,,,,,,,,,,,,,,,,,,,,,,,,,,,,,,,,,,,,,,,,,,,,,,,,,,,,,,,,,,,,,,,,,,,,,,,,,,,,,,,,,,,,,,,,,,,,,,,,,,,,,,,,,,,,,,,,,,
1702547477,1702547477,84,0,4230.897461,4351.666504,4275,4215.384766,4393.974121,4237.05127,4340.641113,4290.256348,4915.512695,4265.384766,4610.384766,4401.410156,4052.564209,4443.974121,6551,3,69,,,,0,4,4,4,4,4,4,4,4,4,4,4,4,4,4,100,,,,,,,,,,,,,,,,,21,0,0.673071,-0.490112,-0.433411,-0.344849,0.913197,-0.352582,0.141619,-11.999861,-1.04122,87.677658,,,,,,,,,,,,,,,,,,,,,,,,,,,,,,,,,,,,,,,,,,,,,,,,,,,,,,,,,,,,,,,,,,,,,,,,,,,,,,,,,,,,,,,,,,,,,,,,,,,,,,,,,,
1702547477,1702547477,85,0,4228.589844,4343.205078,4273.589844,4209.358887,4367.436035,4251.538574,4341.410156,4290.769043,4877.692383,4249.102539,4606.666504,4397.692383,4054.871826,4438.333496,2179,3,69,,,,0,4,4,4,4,4,4,4,4,4,4,4,4,4,4,100,,,,,,,,,,,,,,,,,,,,,,,,,,,,,,,,,,,,,,,,,,,,,,,,,,,,,,,,,,,,,,,,,,,,,,,,,,,,,,,,,,,,,,,,,,,,,,,,,,,,,,,,,,,,,,,,,,,,,,,,,,,,,,,,,,,,,,
1702547477,1702547477,86,0,4239.230957,4350.769043,4279.102539,4216.794922,4422.179688,4265,4343.846191,4295.897461,4867.563965,4246.794922,4636.666504,4399.487305,4071.025635,4449.743652,5988,3,69,,,,0,4,4,4,4,4,4,4,4,4,4,4,4,4,4,100,,,,,,,,,,,,,,,,,,,,,,,,,,,,,,,,,,,,,,,,,,,,,,,,,,,,,,,,,,,,,,,,,,,,,,,,,,,,,,,,,,,,,,,,,,,,,,,,,,,,,,,,,,,,,,,,,,,,,,,,,,,,,,,,,,,,,,
1702547477,1702547477,87,0,4246.153809,4364.743652,4281.666504,4216.282227,4450.128418,4267.563965,4345.641113,4297.179688,4840.641113,4258.974121,4597.05127,4405.256348,4085.769287,4447.05127,6072,3,69,,,,0,4,4,4,4,4,4,4,4,4,4,4,4,4,4,100,,,,,,,,,,,,,,,,,,,,,,,,,,,,,,,,,,,,,,,,,,,,,,,,,,,,,,,,,,,,,,,,,,,,,,,,,,,,,,,,,,,,,,,,,,,,,,,,,,,,,,,,,,,,,,,,,,,,,,,,,,,,,,,,,,,,,,
1702547477,1702547477,88,0,4232.436035,4356.282227,4274.358887,4202.307617,4421.153809,4268.333496,4340,4290,4808.717773,4247.94873,4436.025879,4401.282227,4066.410156,4428.717773,6551,3,69,,,,0,4,4,4,4,4,4,4,4,4,4,4,4,4,4,100,,,,,,,,,,,,,,,,,22,0,0.673125,-0.490295,-0.433411,-0.344482,0.922964,-0.362349,0.150409,-11.999874,-0.987098,87.676559,,,,,,,,,,,,,,,,,,,,,,,,,,,,,,,,,,,,,,,,,,,,,,,,,,,,,,,,,,,,,,,,,,,,,,,,,,,,,,,,,,,,,,,,,,,,,,,,,,,,,,,,,,
1702547477,1702547477,89,0,4228.846191,4347.436035,4276.410156,4197.94873,4396.025879,4279.102539,4341.666504,4292.692383,4792.563965,4246.025879,4299.102539,4398.077148,4052.307617,4430.256348,2179,3,69,,,,0,4,4,4,4,4,4,4,4,4,4,4,4,4,4,100,,,,,,,,,,,,,,,,,,,,,,,,,,,,,,,,,,,,,,,,,,,,,,,,,,,,,,,,,,,,,,,,,,,,,,,,,,,,,,,,,,,,,,,,,,,,,,,,,,,,,,,,,,,,,,,,,,,,,,,,,,,,,,,,,,,,,,
1702547477,1702547477,90,0,4244.743652,4351.794922,4292.94873,4204.615234,4382.307617,4296.153809,4357.307617,4306.538574,4788.205078,4286.153809,4256.025879,4406.538574,4069.487061,4446.153809,5988,3,69,,,,0,4,4,4,4,4,4,4,4,4,4,4,4,4,4,100,,,,,,,,,,,,,,,,,,,,,,,,,,,,,,,,,,,,,,,,,,,,,,,,,,,,,,,,,,,,,,,,,,,,,,,,,,,,,,,,,,,,,,,,,,,,,,,,,,,,,,,,,,,,,,,,,,,,,,,,,,,,,,,,,,,,,,
1702547477,1702547477,91,0,4243.974121,4345.641113,4294.743652,4203.717773,4407.307617,4297.05127,4357.436035,4306.922852,4767.436035,4286.153809,4209.487305,4411.794922,4078.333252,4440.769043,6072,3,69,,,,0,4,4,4,4,4,4,4,4,4,4,4,4,4,4,100,,,,,,,,,,,,,,,,,,,,,,,,,,,,,,,,,,,,,,,,,,,,,,,,,,,,,,,,,,,,,,,,,,,,,,,,,,,,,,,,,,,,,,,,,,,,,,,,,,,,,,,,,,,,,,,,,,,,,,,,,,,,,,,,,,,,,,
1702547477,1702547477,92,0,4221.538574,4326.282227,4275.384766,4185.384766,4443.589844,4280.897461,4332.179688,4289.743652,4724.487305,4240.256348,4146.282227,4402.563965,4059.871826,4417.05127,6551,3,69,,,,0,4,4,4,4,4,4,4,4,4,4,4,4,4,4,100,,,,,,,,,,,,,,,,,23,0,0.673125,-0.490295,-0.433411,-0.344482,0.910267,-0.352582,0.155292,-12.199887,-1.088388,87.69223,,,,,,,,,,,,,,,,,,,,,,,,,,,,,,,,,,,,,,,,,,,,,,,,,,,,,,,,,,,,,,,,,,,,,,,,,,,,,,,,,,,,,,,,,,,,,,,,,,,,,,,,,,
1702547477,1702547477,93,0,4209.358887,4306.025879,4266.410156,4170.128418,4405.512695,4279.102539,4319.615234,4284.743652,4696.538574,4247.179688,4132.692383,4396.538574,4048.589844,4405.128418,2179,3,69,,,,0,4,4,4,4,4,4,4,4,4,4,4,4,4,4,100,,,,,,,,,,,,,,,,,,,,,,,,,,,,,,,,,,,,,,,,,,,,,,,,,,,,,,,,,,,,,,,,,,,,,,,,,,,,,,,,,,,,,,,,,,,,,,,,,,,,,,,,,,,,,,,,,,,,,,,,,,,,,,,,,,,,,,
1702547477,1702547477,94,0,4221.666504,4295.512695,4280.641113,4177.307617,4381.153809,4295.769043,4332.179688,4295.512695,4691.025879,4276.153809,4156.538574,4404.615234,4072.94873,4413.589844,5988,3,69,,,,0,4,4,4,4,4,4,4,4,4,4,4,4,4,4,100,1,0,3,1,1,1,0,0,1,4,1,1,0,4,1,3,,,,,,,,,,,,,,,,,,,,,,,,,,,,,,,,,,,,,,,,,,,,,,,,,34.129021,1.716803,2.010601,0.64395,0.805252,52.941689,3.075183,4.147368,1.038029,0.725937,4.891092,1.536186,1.912525,0.583451,0.605585,11.047018,2.546724,1.733268,0.831808,0.761452,2.041436,3.354414,6.941852,6.286778,12.585272,36.827438,4.561161,1.944114,0.552056,0.416846,2.301518,0.621543,0.541831,0.442056,0.439434,0.850427,0.350864,0.147786,0.166227,0.278002,23.119249,16.778009,5.783137,2.807995,0.735379,2.73215,2.725559,2.333635,2.314639,3.114469,61.314121,9.652535,2.21093,1.732348,1.165073,0.809342,0.450678,0.189495,0.086666,0.149506,43.889538,7.99663,3.114677,0.988373,1.199027,26.498047,2.113512,2.169906,0.737388,0.901452
1702547477,1702547477,95,0,4230.512695,4297.692383,4290.384766,4187.436035,4439.871582,4301.666504,4337.94873,4297.692383,4678.205078,4252.05127,4165.641113,4408.589844,4098.846191,4417.563965,6072,3,69,,,,0,4,4,4,4,4,4,4,4,4,4,4,4,4,4,100,,,,,,,,,,,,,,,,,,,,,,,,,,,,,,,,,,,,,,,,,,,,,,,,,,,,,,,,,,,,,,,,,,,,,,,,,,,,,,,,,,,,,,,,,,,,,,,,,,,,,,,,,,,,,,,,,,,,,,,,,,,,,,,,,,,,,,
1702547477,1702547477,96,0,4219.743652,4295.641113,4283.589844,4181.025879,4436.666504,4295.641113,4328.846191,4291.538574,4648.077148,4228.077148,4158.461426,4404.230957,4093.461426,4406.282227,6551,3,69,,,,0,4,4,4,4,4,4,4,4,4,4,4,4,4,4,100,,,,,,,,,,,,,,,,,24,0,0.673156,-0.490295,-0.433411,-0.344421,0.907337,-0.368697,0.141131,-12.146565,-0.796216,87.656342,,,,,,,,,,,,,,,,,,,,,,,,,,,,,,,,,,,,,,,,,,,,,,,,,,,,,,,,,,,,,,,,,,,,,,,,,,,,,,,,,,,,,,,,,,,,,,,,,,,,,,,,,,
1702547477,1702547477,97,0,4211.666504,4280,4277.94873,4175.769043,4352.307617,4293.077148,4322.692383,4289.358887,4617.563965,4240.512695,4148.589844,4401.153809,4084.230713,4394.487305,2179,3,69,,,,0,4,4,4,4,4,4,4,4,4,4,4,4,4,4,100,,,,,,,,,,,,,,,,,,,,,,,,,,,,,,,,,,,,,,,,,,,,,,,,,,,,,,,,,,,,,,,,,,,,,,,,,,,,,,,,,,,,,,,,,,,,,,,,,,,,,,,,,,,,,,,,,,,,,,,,,,,,,,,,,,,,,,
1702547477,1702547477,98,0,4213.717773,4274.743652,4278.205078,4180,4354.871582,4294.487305,4320,4287.436035,4601.794922,4250.128418,4140.256348,4402.436035,4099.743652,4388.205078,5988,3,69,,,,0,4,4,4,4,4,4,4,4,4,4,4,4,4,4,100,,,,,,,,,,,,,,,,,,,,,,,,,,,,,,,,,,,,,,,,,,,,,,,,,,,,,,,,,,,,,,,,,,,,,,,,,,,,,,,,,,,,,,,,,,,,,,,,,,,,,,,,,,,,,,,,,,,,,,,,,,,,,,,,,,,,,,
1702547477,1702547477,99,0,4210.512695,4274.743652,4275.512695,4174.358887,4425.897461,4295.384766,4315.897461,4284.230957,4587.692383,4249.743652,4135.641113,4401.153809,4123.974121,4380.128418,6072,3,69,,,,0,4,4,4,4,4,4,4,4,4,4,4,4,4,4,100,,,,,,,,,,,,,,,,,,,,,,,,,,,,,,,,,,,,,,,,,,,,,,,,,,,,,,,,,,,,,,,,,,,,,,,,,,,,,,,,,,,,,,,,,,,,,,,,,,,,,,,,,,,,,,,,,,,,,,,,,,,,,,,,,,,,,,
1702547477,1702547477,100,0,4193.333496,4254.487305,4261.282227,4159.871582,4430.641113,4286.282227,4311.410156,4278.717773,4559.487305,4240.384766,4131.794922,4396.025879,4129.871582,4366.922852,6551,3,69,,,,0,4,4,4,4,4,4,4,4,4,4,4,4,4,4,100,,,,,,,,,,,,,,,,,25,0,0.673167,-0.490173,-0.433533,-0.344421,0.900501,-0.357466,0.146014,-12.048575,-0.733261,87.707375,,,,,,,,,,,,,,,,,,,,,,,,,,,,,,,,,,,,,,,,,,,,,,,,,,,,,,,,,,,,,,,,,,,,,,,,,,,,,,,,,,,,,,,,,,,,,,,,,,,,,,,,,,
1702547477,1702547477,101,0,4181.410156,4238.846191,4246.666504,4155.769043,4391.794922,4276.025879,4307.820313,4276.538574,4533.077148,4213.846191,4130.384766,4397.563965,4130.384766,4352.563965,2179,3,69,,,,0,4,4,4,4,4,4,4,4,4,4,4,4,4,4,100,,,,,,,,,,,,,,,,,,,,,,,,,,,,,,,,,,,,,,,,,,,,,,,,,,,,,,,,,,,,,,,,,,,,,,,,,,,,,,,,,,,,,,,,,,,,,,,,,,,,,,,,,,,,,,,,,,,,,,,,,,,,,,,,,,,,,,
1702547477,1702547477,102,0,4190,4250,4251.538574,4167.307617,4395.641113,4284.230957,4314.487305,4286.025879,4522.820313,4210.256348,4142.820313,4402.307617,4156.666504,4351.282227,5988,3,69,,,,0,4,4,4,4,4,4,4,4,4,4,4,4,4,4,100,,,,,,,,,,,,,,,,,,,,,,,,,,,,,,,,,,,,,,,,,,,,,,,,,,,,,,,,,,,,,,,,,,,,,,,,,,,,,,,,,,,,,,,,,,,,,,,,,,,,,,,,,,,,,,,,,,,,,,,,,,,,,,,,,,,,,,
1702547477,1702547477,103,0,4205.128418,4264.358887,4267.436035,4184.230957,4394.230957,4297.563965,4327.563965,4296.538574,4514.615234,4229.743652,4164.871582,4402.692383,4191.025879,4364.487305,6072,3,69,,,,0,4,4,4,4,4,4,4,4,4,4,4,4,4,4,100,,,,,,,,,,,,,,,,,,,,,,,,,,,,,,,,,,,,,,,,,,,,,,,,,,,,,,,,,,,,,,,,,,,,,,,,,,,,,,,,,,,,,,,,,,,,,,,,,,,,,,,,,,,,,,,,,,,,,,,,,,,,,,,,,,,,,,
1702547477,1702547477,104,0,4201.922852,4262.436035,4267.692383,4187.05127,4369.615234,4296.538574,4328.077148,4294.230957,4493.461426,4222.05127,4173.461426,4402.05127,4196.666504,4363.077148,6551,3,69,,,,0,4,4,4,4,4,4,4,4,4,4,4,4,4,4,100,,,,,,,,,,,,,,,,,26,0,0.672939,-0.490173,-0.433838,-0.344482,0.917104,-0.358442,0.139665,-12.010385,-0.793268,87.669975,,,,,,,,,,,,,,,,,,,,,,,,,,,,,,,,,,,,,,,,,,,,,,,,,,,,,,,,,,,,,,,,,,,,,,,,,,,,,,,,,,,,,,,,,,,,,,,,,,,,,,,,,,
1702547477,1702547477,105,0,4198.333496,4260.384766,4265.256348,4184.743652,4384.743652,4296.410156,4321.025879,4288.974121,4463.333496,4219.230957,4186.025879,4403.974121,4206.794922,4354.615234,2179,3,69,,,,0,4,4,4,4,4,4,4,4,4,4,4,4,4,4,100,,,,,,,,,,,,,,,,,,,,,,,,,,,,,,,,,,,,,,,,,,,,,,,,,,,,,,,,,,,,,,,,,,,,,,,,,,,,,,,,,,,,,,,,,,,,,,,,,,,,,,,,,,,,,,,,,,,,,,,,,,,,,,,,,,,,,,
1702547477,1702547477,106,0,4212.820313,4259.487305,4277.436035,4192.307617,4396.282227,4306.794922,4325.384766,4294.102539,4441.410156,4247.05127,4213.589844,4404.871582,4233.846191,4359.615234,5988,3,69,,,,0,4,4,4,4,4,4,4,4,4,4,4,4,4,4,100,,,,,,,,,,,,,,,,,,,,,,,,,,,,,,,,,,,,,,,,,,,,,,,,,,,,,,,,,,,,,,,,,,,,,,,,,,,,,,,,,,,,,,,,,,,,,,,,,,,,,,,,,,,,,,,,,,,,,,,,,,,,,,,,,,,,,,
1702547477,1702547477,107,0,4211.666504,4251.153809,4277.563965,4191.666504,4413.589844,4317.307617,4330.897461,4298.589844,4429.871582,4251.282227,4221.410156,4403.846191,4233.333496,4353.333496,6072,3,69,,,,0,4,4,4,4,4,4,4,4,4,4,4,4,4,4,100,,,,,,,,,,,,,,,,,,,,,,,,,,,,,,,,,,,,,,,,,,,,,,,,,,,,,,,,,,,,,,,,,,,,,,,,,,,,,,,,,,,,,,,,,,,,,,,,,,,,,,,,,,,,,,,,,,,,,,,,,,,,,,,,,,,,,,
1702547477,1702547477,108,0,4199.102539,4255.769043,4263.461426,4184.230957,4433.461426,4322.820313,4327.05127,4292.820313,4416.153809,4229.615234,4224.743652,4405,4238.974121,4345.641113,6551,3,69,,,,0,4,4,4,4,4,4,4,4,4,4,4,4,4,4,100,,,,,,,,,,,,,,,,,27,0,0.672916,-0.490173,-0.433777,-0.344604,0.911732,-0.375534,0.146502,-11.976012,-0.813941,87.519638,,,,,,,,,,,,,,,,,,,,,,,,,,,,,,,,,,,,,,,,,,,,,,,,,,,,,,,,,,,,,,,,,,,,,,,,,,,,,,,,,,,,,,,,,,,,,,,,,,,,,,,,,,
1702547477,1702547477,109,0,4208.717773,4261.538574,4264.487305,4183.461426,4411.153809,4321.410156,4321.922852,4291.538574,4402.94873,4224.871582,4246.794922,4407.307617,4284.230957,4359.358887,2179,3,69,,,,0,4,4,4,4,4,4,4,4,4,4,4,4,4,4,100,,,,,,,,,,,,,,,,,,,,,,,,,,,,,,,,,,,,,,,,,,,,,,,,,,,,,,,,,,,,,,,,,,,,,,,,,,,,,,,,,,,,,,,,,,,,,,,,,,,,,,,,,,,,,,,,,,,,,,,,,,,,,,,,,,,,,,
1702547477,1702547477,110,0,4220.256348,4233.717773,4268.846191,4177.179688,4397.820313,4314.487305,4317.820313,4292.820313,4396.794922,4232.05127,4257.307617,4406.153809,4312.179688,4365.384766,5988,3,69,,,,0,4,4,4,4,4,4,4,4,4,4,4,4,4,4,100,,,,,,,,,,,,,,,,,,,,,,,,,,,,,,,,,,,,,,,,,,,,,,,,,,,,,,,,,,,,,,,,,36.988422,1.484803,1.960093,0.759577,0.773636,57.986881,3.058449,3.359476,1.012413,0.68258,5.524412,1.395578,2.014571,0.674074,0.594006,11.768206,2.284244,1.367589,0.884359,0.735467,1.495344,2.944719,7.420335,5.156239,10.702886,19.769392,3.46004,1.907234,0.483987,0.401736,2.131665,0.597818,0.644985,0.497319,0.460575,0.81205,0.306533,0.178167,0.177916,0.282693,23.145926,17.94845,7.274052,2.958752,0.77225,2.792453,2.506577,2.206768,2.396036,3.134906,69.302193,9.990405,2.274855,1.772072,1.318025,0.765823,0.402366,0.241446,0.110913,0.145242,40.158092,6.622753,3.748578,1.114923,1.245328,29.188473,1.784944,2.413481,0.919186,0.895807
1702547477,1702547477,111,0,4217.563965,4212.820313,4267.05127,4171.282227,4390.641113,4298.846191,4308.077148,4285.384766,4386.025879,4227.820313,4248.589844,4404.615234,4313.077148,4357.563965,6072,3,69,,,,0,4,4,4,4,4,4,4,4,4,4,4,4,4,4,100,,,,,,,,,,,,,,,,,,,,,,,,,,,,,,,,,,,,,,,,,,,,,,,,,,,,,,,,,,,,,,,,,,,,,,,,,,,,,,,,,,,,,,,,,,,,,,,,,,,,,,,,,,,,,,,,,,,,,,,,,,,,,,,,,,,,,,
1702547477,1702547477,112,0,4216.922852,4219.230957,4265.256348,4174.102539,4378.589844,4281.794922,4296.410156,4274.615234,4357.436035,4200.769043,4237.692383,4404.487305,4319.487305,4358.589844,6551,3,69,,,,0,4,4,4,4,4,4,4,4,4,4,4,4,4,4,100,,,,,,,,,,,,,,,,,28,0,0.672832,-0.490234,-0.433838,-0.344604,0.918081,-0.345257,0.145037,-11.995078,-0.882547,87.634346,,,,,,,,,,,,,,,,,,,,,,,,,,,,,,,,,,,,,,,,,,,,,,,,,,,,,,,,,,,,,,,,,,,,,,,,,,,,,,,,,,,,,,,,,,,,,,,,,,,,,,,,,,
1702547477,1702547478,113,0,4215.128418,4205.128418,4256.282227,4166.922852,4390.512695,4283.717773,4297.692383,4275.384766,4341.153809,4183.461426,4227.94873,4403.333496,4326.666504,4354.743652,2179,3,69,,,,0,4,4,4,4,4,4,4,4,4,4,4,4,4,4,100,,,,,,,,,,,,,,,,,,,,,,,,,,,,,,,,,,,,,,,,,,,,,,,,,,,,,,,,,,,,,,,,,,,,,,,,,,,,,,,,,,,,,,,,,,,,,,,,,,,,,,,,,,,,,,,,,,,,,,,,,,,,,,,,,,,,,,
1702547477,1702547478,114,0,4201.282227,4180.128418,4240.897461,4153.333496,4371.410156,4294.102539,4301.153809,4280.641113,4354.615234,4203.589844,4211.025879,4400.897461,4335.641113,4336.538574,5988,3,69,,,,0,4,4,4,4,4,4,4,4,4,4,4,4,4,4,100,,,,,,,,,,,,,,,,,,,,,,,,,,,,,,,,,,,,,,,,,,,,,,,,,,,,,,,,,,,,,,,,,,,,,,,,,,,,,,,,,,,,,,,,,,,,,,,,,,,,,,,,,,,,,,,,,,,,,,,,,,,,,,,,,,,,,,
1702547477,1702547478,115,0,4184.487305,4172.692383,4225.128418,4150.384766,4332.436035,4289.743652,4293.461426,4276.666504,4355.256348,4196.666504,4167.179688,4397.436035,4343.461426,4317.307617,6072,3,69,,,,0,4,4,4,4,4,4,4,4,4,4,4,4,4,4,100,,,,,,,,,,,,,,,,,,,,,,,,,,,,,,,,,,,,,,,,,,,,,,,,,,,,,,,,,,,,,,,,,,,,,,,,,,,,,,,,,,,,,,,,,,,,,,,,,,,,,,,,,,,,,,,,,,,,,,,,,,,,,,,,,,,,,,
1702547477,1702547478,116,0,4182.307617,4175,4224.871582,4160.897461,4371.282227,4290.512695,4297.307617,4280.512695,4342.692383,4177.692383,4129.230957,4396.922852,4353.717773,4314.358887,6551,3,69,,,,0,4,4,4,4,4,4,4,4,4,4,4,4,4,4,100,,,,,,,,,,,,,,,,,29,0,0.672753,-0.490417,-0.433899,-0.344421,0.920523,-0.35014,0.135759,-11.862237,-0.977626,87.60424,,,,,,,,,,,,,,,,,,,,,,,,,,,,,,,,,,,,,,,,,,,,,,,,,,,,,,,,,,,,,,,,,,,,,,,,,,,,,,,,,,,,,,,,,,,,,,,,,,,,,,,,,,
1702547477,1702547478,117,0,4200.384766,4185.641113,4243.077148,4180.128418,4401.538574,4304.358887,4312.05127,4293.333496,4350.384766,4212.820313,4145.769043,4401.153809,4389.743652,4333.333496,2179,3,69,,,,0,4,4,4,4,4,4,4,4,4,4,4,4,4,4,100,,,,,,,,,,,,,,,,,,,,,,,,,,,,,,,,,,,,,,,,,,,,,,,,,,,,,,,,,,,,,,,,,,,,,,,,,,,,,,,,,,,,,,,,,,,,,,,,,,,,,,,,,,,,,,,,,,,,,,,,,,,,,,,,,,,,,,
1702547477,1702547478,118,0,4218.077148,4201.666504,4256.153809,4196.538574,4374.615234,4307.820313,4313.205078,4296.410156,4353.589844,4237.05127,4181.794922,4407.563965,4430,4346.922852,5988,3,69,,,,0,4,4,4,4,4,4,4,4,4,4,4,4,4,4,100,,,,,,,,,,,,,,,,,,,,,,,,,,,,,,,,,,,,,,,,,,,,,,,,,,,,,,,,,,,,,,,,,,,,,,,,,,,,,,,,,,,,,,,,,,,,,,,,,,,,,,,,,,,,,,,,,,,,,,,,,,,,,,,,,,,,,,
1702547477,1702547478,119,0,4218.205078,4211.794922,4256.794922,4203.077148,4393.333496,4310.128418,4309.743652,4292.05127,4332.692383,4230,4193.333496,4409.102539,4438.077148,4343.461426,6072,3,69,,,,0,4,4,4,4,4,4,4,4,4,4,4,4,4,4,100,,,,,,,,,,,,,,,,,,,,,,,,,,,,,,,,,,,,,,,,,,,,,,,,,,,,,,,,,,,,,,,,,,,,,,,,,,,,,,,,,,,,,,,,,,,,,,,,,,,,,,,,,,,,,,,,,,,,,,,,,,,,,,,,,,,,,,
1702547477,1702547478,120,0,4211.922852,4210.897461,4257.05127,4202.563965,4386.666504,4319.358887,4310.769043,4291.410156,4316.538574,4226.153809,4194.615234,4404.615234,4428.846191,4338.205078,6551,3,69,,,,0,4,4,4,4,4,4,4,4,4,4,4,4,4,4,100,,,,,,,,,,,,,,,,,30,0,0.672829,-0.490356,-0.433899,-0.34436,0.916127,-0.350629,0.141619,-11.926013,-0.863197,87.577148,,,,,,,,,,,,,,,,,,,,,,,,,,,,,,,,,,,,,,,,,,,,,,,,,,,,,,,,,,,,,,,,,,,,,,,,,,,,,,,,,,,,,,,,,,,,,,,,,,,,,,,,,,
1702547477,1702547478,121,0,4214.230957,4211.025879,4262.563965,4203.974121,4356.794922,4321.794922,4312.820313,4293.077148,4319.743652,4206.153809,4208.461426,4408.205078,4437.436035,4339.871582,2179,3,69,,,,0,4,4,4,4,4,4,4,4,4,4,4,4,4,4,100,,,,,,,,,,,,,,,,,,,,,,,,,,,,,,,,,,,,,,,,,,,,,,,,,,,,,,,,,,,,,,,,,,,,,,,,,,,,,,,,,,,,,,,,,,,,,,,,,,,,,,,,,,,,,,,,,,,,,,,,,,,,,,,,,,,,,,
1702547477,1702547478,122,0,4217.94873,4215.256348,4268.333496,4209.615234,4418.717773,4322.307617,4321.666504,4296.025879,4329.487305,4198.974121,4234.102539,4417.94873,4458.077148,4349.487305,5988,3,69,,,,0,4,4,4,4,4,4,4,4,4,4,4,4,4,4,100,,,,,,,,,,,,,,,,,,,,,,,,,,,,,,,,,,,,,,,,,,,,,,,,,,,,,,,,,,,,,,,,,,,,,,,,,,,,,,,,,,,,,,,,,,,,,,,,,,,,,,,,,,,,,,,,,,,,,,,,,,,,,,,,,,,,,,
1702547477,1702547478,123,0,4222.94873,4221.538574,4279.358887,4218.589844,4444.102539,4325.512695,4328.589844,4303.589844,4340.512695,4231.666504,4256.153809,4420.256348,4465.256348,4365.128418,6072,3,69,,,,0,4,4,4,4,4,4,4,4,4,4,4,4,4,4,100,,,,,,,,,,,,,,,,,,,,,,,,,,,,,,,,,,,,,,,,,,,,,,,,,,,,,,,,,,,,,,,,,,,,,,,,,,,,,,,,,,,,,,,,,,,,,,,,,,,,,,,,,,,,,,,,,,,,,,,,,,,,,,,,,,,,,,
1702547477,1702547478,124,0,4236.153809,4228.974121,4291.666504,4228.333496,4387.820313,4329.102539,4331.538574,4309.487305,4365.769043,4255.769043,4266.282227,4420.512695,4455.128418,4379.871582,6551,3,69,,,,0,4,4,4,4,4,4,4,4,4,4,4,4,4,4,100,,,,,,,,,,,,,,,,,31,0,0.67286,-0.490356,-0.433899,-0.344299,0.913686,-0.356,0.143084,-11.833412,-0.926877,87.602768,,,,,,,,,,,,,,,,,,,,,,,,,,,,,,,,,,,,,,,,,,,,,,,,,,,,,,,,,,,,,,,,,,,,,,,,,,,,,,,,,,,,,,,,,,,,,,,,,,,,,,,,,,
1702547477,1702547478,125,0,4246.794922,4233.974121,4298.333496,4234.871582,4400.512695,4331.153809,4339.358887,4310.897461,4410.512695,4258.205078,4270.384766,4424.487305,4427.436035,4386.666504,2179,3,69,,,,0,4,4,4,4,4,4,4,4,4,4,4,4,4,4,100,,,,,,,,,,,,,,,,,,,,,,,,,,,,,,,,,,,,,,,,,,,,,,,,,,,,,,,,,,,,,,,,,,,,,,,,,,,,,,,,,,,,,,,,,,,,,,,,,,,,,,,,,,,,,,,,,,,,,,,,,,,,,,,,,,,,,,
1702547477,1702547478,126,0,4243.205078,4232.820313,4300,4234.487305,4414.743652,4327.563965,4339.102539,4307.05127,4439.230957,4248.974121,4264.871582,4422.563965,4381.282227,4381.025879,5988,3,69,,,,0,4,4,4,4,4,4,4,4,4,4,4,4,4,4,100,,,,,,,,,,,,,,,,,,,,,,,,,,,,,,,,,,,,,,,,,,,,,,,,,,,,,,,,,,,,,,,,,34.514339,1.476562,1.982032,0.953138,0.739927,54.443195,2.980781,2.637317,1.027753,0.667379,5.678491,1.566135,2.163705,0.828525,0.589842,11.992792,2.18332,1.144514,1.022222,0.710649,1.214444,2.449749,7.574259,4.926738,8.636687,16.242046,4.038511,2.1554,0.51196,0.411218,1.973749,0.653913,0.771952,0.584842,0.47327,0.808887,0.277089,0.218687,0.215375,0.28938,29.247871,20.460503,9.269261,3.118059,0.850337,3.037114,2.236484,2.128936,2.708149,3.20908,75.291664,11.325549,2.749773,1.977247,1.489559,0.681773,0.373755,0.311062,0.153157,0.138633,36.152752,6.313713,4.547083,1.447434,1.292647,27.878147,1.684239,2.678649,1.201158,0.890532
1702547477,1702547478,127,0,4242.94873,4238.846191,4304.871582,4235,4377.563965,4330.897461,4337.436035,4304.615234,4434.743652,4233.461426,4264.487305,4419.230957,4354.102539,4380.897461,69,3,69,,,,0,4,4,4,4,4,4,4,4,4,4,4,4,4,4,100,,,,,,,,,,,,,,,,,,,,,,,,,,,,,,,,,,,,,,,,,,,,,,,,,,,,,,,,,,,,,,,,,,,,,,,,,,,,,,,,,,,,,,,,,,,,,,,,,,,,,,,,,,,,,,,,,,,,,,,,,,,,,,,,,,,,,,
1702547477,1702547478,0,0,4258.846191,4258.974121,4319.871582,4238.461426,4418.205078,4346.410156,4349.743652,4308.974121,4433.333496,4237.563965,4281.025879,4424.230957,4362.692383,4393.077148,5444,3,69,,,,0,4,4,4,4,4,4,4,4,4,4,4,4,4,4,100,,,,,,,,,,,,,,,,,0,0,0.672797,-0.490356,-0.433899,-0.344421,0.919546,-0.33549,0.137712,-11.850071,-0.850856,87.492493,,,,,,,,,,,,,,,,,,,,,,,,,,,,,,,,,,,,,,,,,,,,,,,,,,,,,,,,,,,,,,,,,,,,,,,,,,,,,,,,,,,,,,,,,,,,,,,,,,,,,,,,,,
1702547477,1702547478,1,0,4267.563965,4266.282227,4334.487305,4233.717773,4474.230957,4346.794922,4356.922852,4310.769043,4439.230957,4244.743652,4288.461426,4428.974121,4364.615234,4395,5684,3,69,,,,0,4,4,4,4,4,4,4,4,4,4,4,4,4,4,100,,,,,,,,,,,,,,,,,,,,,,,,,,,,,,,,,,,,,,,,,,,,,,,,,,,,,,,,,,,,,,,,,,,,,,,,,,,,,,,,,,,,,,,,,,,,,,,,,,,,,,,,,,,,,,,,,,,,,,,,,,,,,,,,,,,,,,
1702547477,1702547478,2,0,4263.717773,4263.077148,4338.205078,4218.333496,4458.846191,4327.307617,4349.230957,4308.589844,4423.846191,4235.512695,4280.128418,4428.589844,4350.128418,4390,5614,3,69,,,,0,4,4,4,4,4,4,4,4,4,4,4,4,4,4,100,,,,,,,,,,,,,,,,,,,,,,,,,,,,,,,,,,,,,,,,,,,,,,,,,,,,,,,,,,,,,,,,,,,,,,,,,,,,,,,,,,,,,,,,,,,,,,,,,,,,,,,,,,,,,,,,,,,,,,,,,,,,,,,,,,,,,,
1702547477,1702547478,3,0,4264.230957,4269.230957,4333.589844,4205.641113,4430.641113,4312.05127,4342.820313,4305.769043,4398.077148,4243.205078,4283.205078,4427.179688,4349.615234,4394.615234,5546,3,69,,,,0,4,4,4,4,4,4,4,4,4,4,4,4,4,4,100,,,,,,,,,,,,,,,,,,,,,,,,,,,,,,,,,,,,,,,,,,,,,,,,,,,,,,,,,,,,,,,,,,,,,,,,,,,,,,,,,,,,,,,,,,,,,,,,,,,,,,,,,,,,,,,,,,,,,,,,,,,,,,,,,,,,,,
1702547477,1702547478,4,0,4268.974121,4272.94873,4328.205078,4202.563965,4372.820313,4309.102539,4339.871582,4301.794922,4381.410156,4249.871582,4290.769043,4424.743652,4355.128418,4394.358887,5440,3,69,,,,0,4,4,4,4,4,4,4,4,4,4,4,4,4,4,100,,,,,,,,,,,,,,,,,1,0,0.672795,-0.490479,-0.433716,-0.344482,0.909779,-0.352582,0.133805,-11.715064,-0.882437,87.459908,,,,,,,,,,,,,,,,,,,,,,,,,,,,,,,,,,,,,,,,,,,,,,,,,,,,,,,,,,,,,,,,,,,,,,,,,,,,,,,,,,,,,,,,,,,,,,,,,,,,,,,,,,
1702547477,1702547478,5,0,4263.333496,4270.128418,4326.282227,4197.692383,4345.897461,4310.128418,4339.358887,4302.05127,4367.563965,4217.05127,4285.769043,4423.846191,4348.589844,4380.897461,4103,3,69,,,,0,4,4,4,4,4,4,4,4,4,4,4,4,4,4,100,,,,,,,,,,,,,,,,,,,,,,,,,,,,,,,,,,,,,,,,,,,,,,,,,,,,,,,,,,,,,,,,,,,,,,,,,,,,,,,,,,,,,,,,,,,,,,,,,,,,,,,,,,,,,,,,,,,,,,,,,,,,,,,,,,,,,,
1702547477,1702547478,6,0,4250.897461,4266.922852,4323.205078,4188.717773,4420.512695,4310.641113,4340.512695,4303.589844,4346.794922,4201.794922,4280.512695,4424.358887,4342.05127,4369.102539,4669,3,69,,,,0,4,4,4,4,4,4,4,4,4,4,4,4,4,4,100,,,,,,,,,,,,,,,,,,,,,,,,,,,,,,,,,,,,,,,,,,,,,,,,,,,,,,,,,,,,,,,,,,,,,,,,,,,,,,,,,,,,,,,,,,,,,,,,,,,,,,,,,,,,,,,,,,,,,,,,,,,,,,,,,,,,,,
1702547477,1702547478,7,0,4249.487305,4263.846191,4321.538574,4191.922852,4465.769043,4315,4337.820313,4298.974121,4330.256348,4238.846191,4287.179688,4421.922852,4352.436035,4367.692383,3413,3,69,,,,0,4,4,4,4,4,4,4,4,4,4,4,4,4,4,100,,,,,,,,,,,,,,,,,,,,,,,,,,,,,,,,,,,,,,,,,,,,,,,,,,,,,,,,,,,,,,,,,,,,,,,,,,,,,,,,,,,,,,,,,,,,,,,,,,,,,,,,,,,,,,,,,,,,,,,,,,,,,,,,,,,,,,
1702547477,1702547478,8,0,4258.717773,4268.589844,4325,4205.256348,4430.512695,4322.307617,4336.025879,4300.384766,4336.922852,4257.05127,4297.94873,4423.077148,4363.077148,4373.461426,4649,3,69,,,,0,4,4,4,4,4,4,4,4,4,4,4,4,4,4,100,,,,,,,,,,,,,,,,,2,0,0.67279,-0.49054,-0.433655,-0.344482,0.906361,-0.348187,0.146014,-11.826891,-0.844193,87.397255,,,,,,,,,,,,,,,,,,,,,,,,,,,,,,,,,,,,,,,,,,,,,,,,,,,,,,,,,,,,,,,,,,,,,,,,,,,,,,,,,,,,,,,,,,,,,,,,,,,,,,,,,,
1702547477,1702547478,9,0,4272.307617,4287.307617,4336.922852,4218.846191,4425.512695,4326.153809,4341.794922,4310.769043,4356.282227,4232.436035,4305.897461,4430.769043,4366.025879,4384.743652,5524,3,69,,,,0,4,4,4,4,4,4,4,4,4,4,4,4,4,4,100,,,,,,,,,,,,,,,,,,,,,,,,,,,,,,,,,,,,,,,,,,,,,,,,,,,,,,,,,,,,,,,,,,,,,,,,,,,,,,,,,,,,,,,,,,,,,,,,,,,,,,,,,,,,,,,,,,,,,,,,,,,,,,,,,,,,,,
1702547477,1702547478,10,0,4291.666504,4305.769043,4358.589844,4237.94873,4445.256348,4327.692383,4351.025879,4314.615234,4370.256348,4233.333496,4323.589844,4438.461426,4384.615234,4406.410156,5996,3,69,,,,0,4,4,4,4,4,4,4,4,4,4,4,4,4,4,100,,,,,,,,,,,,,,,,,,,,,,,,,,,,,,,,,,,,,,,,,,,,,,,,,,,,,,,,,,,,,,,,,,,,,,,,,,,,,,,,,,,,,,,,,,,,,,,,,,,,,,,,,,,,,,,,,,,,,,,,,,,,,,,,,,,,,,
1702547477,1702547478,11,0,4301.282227,4303.589844,4368.461426,4251.666504,4427.94873,4328.077148,4347.563965,4310,4368.846191,4258.589844,4334.871582,4441.025879,4400.769043,4422.179688,6070,3,69,,,,0,4,4,4,4,4,4,4,4,4,4,4,4,4,4,100,,,,,,,,,,,,,,,,,,,,,,,,,,,,,,,,,,,,,,,,,,,,,,,,,,,,,,,,,,,,,,,,,,,,,,,,,,,,,,,,,,,,,,,,,,,,,,,,,,,,,,,,,,,,,,,,,,,,,,,,,,,,,,,,,,,,,,
1702547477,1702547478,12,0,4288.589844,4287.436035,4354.487305,4243.461426,4396.794922,4314.743652,4329.743652,4305.641113,4351.153809,4240.512695,4311.794922,4437.307617,4386.410156,4408.974121,6563,3,69,,,,0,4,4,4,4,4,4,4,4,4,4,4,4,4,4,100,,,,,,,,,,,,,,,,,3,0,0.672923,-0.49054,-0.433594,-0.344299,0.916616,-0.348187,0.141619,-11.844201,-0.859774,87.390862,,,,,,,,,,,,,,,,,,,,,,,,,,,,,,,,,,,,,,,,,,,,,,,,,,,,,,,,,,,,,,,,,,,,,,,,,,,,,,,,,,,,,,,,,,,,,,,,,,,,,,,,,,
1702547477,1702547478,13,0,4284.871582,4290.256348,4352.563965,4244.230957,4407.179688,4296.410156,4331.153809,4312.05127,4354.615234,4227.179688,4298.333496,4437.692383,4382.307617,4403.846191,2176,3,69,,,,0,4,4,4,4,4,4,4,4,4,4,4,4,4,4,100,,,,,,,,,,,,,,,,,,,,,,,,,,,,,,,,,,,,,,,,,,,,,,,,,,,,,,,,,,,,,,,,,,,,,,,,,,,,,,,,,,,,,,,,,,,,,,,,,,,,,,,,,,,,,,,,,,,,,,,,,,,,,,,,,,,,,,
1702547477,1702547478,14,0,4301.922852,4308.589844,4365.512695,4264.487305,4452.563965,4295.769043,4349.871582,4321.794922,4388.077148,4268.589844,4313.077148,4443.077148,4398.974121,4421.025879,5996,3,69,,,,0,4,4,4,4,4,4,4,4,4,4,4,4,4,4,100,,,,,,,,,,,,,,,,,,,,,,,,,,,,,,,,,,,,,,,,,,,,,,,,,,,,,,,,,,,,,,,,,27.821505,1.649915,1.982032,1.185908,0.716855,45.098488,2.875363,2.091935,1.083984,0.686236,5.342474,2.047969,2.26271,1.012787,0.595612,11.403167,2.18237,1.052947,1.223376,0.691339,1.105299,1.939282,7.221904,5.61588,7.014951,20.830256,5.356457,2.429398,0.553265,0.42896,1.827623,0.762837,0.894753,0.692671,0.4744,0.814264,0.273064,0.259664,0.271571,0.298999,49.859772,26.633066,12.153366,3.438821,1.01223,3.333014,1.990538,2.10863,3.130033,3.31495,87.037582,14.289257,4.084754,2.467293,1.671396,0.585985,0.373872,0.372323,0.205111,0.132804,35.233013,8.179638,5.52153,1.970464,1.350729,23.83857,1.785688,2.801711,1.520112,0.879512
1702547477,1702547478,15,0,4308.077148,4311.538574,4363.846191,4271.153809,4413.077148,4281.282227,4347.692383,4316.922852,4396.410156,4290.128418,4306.794922,4441.025879,4400,4422.820313,6070,3,69,,,,0,4,4,4,4,4,4,4,4,4,4,4,4,4,4,100,,,,,,,,,,,,,,,,,,,,,,,,,,,,,,,,,,,,,,,,,,,,,,,,,,,,,,,,,,,,,,,,,,,,,,,,,,,,,,,,,,,,,,,,,,,,,,,,,,,,,,,,,,,,,,,,,,,,,,,,,,,,,,,,,,,,,,
1702547477,1702547478,16,0,4293.846191,4295.897461,4352.436035,4253.333496,4342.94873,4209.102539,4330.769043,4308.717773,4363.461426,4255.512695,4268.077148,4433.205078,4388.461426,4404.230957,0,3,69,,,,0,4,4,4,4,4,4,4,4,4,4,4,4,4,4,100,,,,,,,,,,,,,,,,,4,0,0.672923,-0.49054,-0.433594,-0.344299,0.900012,-0.35014,0.148944,-11.776448,-0.823797,87.218445,,,,,,,,,,,,,,,,,,,,,,,,,,,,,,,,,,,,,,,,,,,,,,,,,,,,,,,,,,,,,,,,,,,,,,,,,,,,,,,,,,,,,,,,,,,,,,,,,,,,,,,,,,
1702547477,1702547478,17,0,4282.179688,4288.461426,4347.436035,4243.846191,4406.282227,4116.794922,4330.512695,4312.436035,4334.615234,4217.94873,4240.128418,4431.538574,4391.410156,4391.282227,0,3,69,,,,0,4,4,4,4,4,4,4,4,4,4,4,4,4,4,100,,,,,,,,,,,,,,,,,,,,,,,,,,,,,,,,,,,,,,,,,,,,,,,,,,,,,,,,,,,,,,,,,,,,,,,,,,,,,,,,,,,,,,,,,,,,,,,,,,,,,,,,,,,,,,,,,,,,,,,,,,,,,,,,,,,,,,
1702547477,1702547478,18,0,4283.461426,4300.256348,4348.205078,4258.974121,4476.025879,4062.692383,4337.692383,4314.871582,4327.307617,4229.743652,4231.922852,4433.077148,4412.692383,4390.128418,0,3,69,,,,0,4,4,4,4,4,4,4,4,4,4,4,4,4,4,100,,,,,,,,,,,,,,,,,,,,,,,,,,,,,,,,,,,,,,,,,,,,,,,,,,,,,,,,,,,,,,,,,,,,,,,,,,,,,,,,,,,,,,,,,,,,,,,,,,,,,,,,,,,,,,,,,,,,,,,,,,,,,,,,,,,,,,
1702547477,1702547478,19,0,4282.307617,4307.436035,4346.153809,4264.743652,4443.974121,4035.384521,4333.717773,4310.384766,4314.102539,4259.102539,4223.461426,4428.717773,4430.641113,4385.128418,0,3,69,,,,0,4,4,4,4,4,4,4,4,4,4,4,4,4,4,100,,,,,,,,,,,,,,,,,,,,,,,,,,,,,,,,,,,,,,,,,,,,,,,,,,,,,,,,,,,,,,,,,,,,,,,,,,,,,,,,,,,,,,,,,,,,,,,,,,,,,,,,,,,,,,,,,,,,,,,,,,,,,,,,,,,,,,
1702547477,1702547478,20,0,4273.333496,4293.205078,4335.384766,4248.974121,4424.871582,4007.820557,4326.282227,4308.589844,4287.692383,4260.641113,4222.179688,4425.128418,4426.410156,4366.410156,0,3,69,,,,0,4,4,4,4,4,4,4,4,4,4,4,4,4,4,100,,,,,,,,,,,,,,,,,5,0,0.672921,-0.490662,-0.433411,-0.34436,0.911244,-0.361372,0.142107,-11.848804,-0.92475,87.313263,,,,,,,,,,,,,,,,,,,,,,,,,,,,,,,,,,,,,,,,,,,,,,,,,,,,,,,,,,,,,,,,,,,,,,,,,,,,,,,,,,,,,,,,,,,,,,,,,,,,,,,,,,
1702547477,1702547478,21,0,4271.538574,4287.563965,4331.025879,4246.922852,4409.102539,3996.025635,4323.077148,4310.384766,4270,4248.846191,4245.256348,4426.282227,4429.102539,4353.974121,0,3,69,,,,0,4,4,4,4,4,4,4,4,4,4,4,4,4,4,100,,,,,,,,,,,,,,,,,,,,,,,,,,,,,,,,,,,,,,,,,,,,,,,,,,,,,,,,,,,,,,,,,,,,,,,,,,,,,,,,,,,,,,,,,,,,,,,,,,,,,,,,,,,,,,,,,,,,,,,,,,,,,,,,,,,,,,
1702547477,1702547478,22,0,4282.563965,4312.05127,4344.102539,4264.358887,4361.153809,4000.256348,4328.846191,4311.282227,4260.897461,4230.384766,4284.487305,4428.205078,4455.256348,4365.256348,0,3,69,,,,0,4,4,4,4,4,4,4,4,4,4,4,4,4,4,100,,,,,,,,,,,,,,,,,,,,,,,,,,,,,,,,,,,,,,,,,,,,,,,,,,,,,,,,,,,,,,,,,,,,,,,,,,,,,,,,,,,,,,,,,,,,,,,,,,,,,,,,,,,,,,,,,,,,,,,,,,,,,,,,,,,,,,
1702547477,1702547478,23,0,4281.794922,4311.538574,4347.179688,4263.333496,4388.205078,3996.153809,4326.410156,4307.307617,4239.615234,4219.743652,4310,4426.538574,4461.153809,4365.512695,0,3,69,,,,0,4,4,4,4,4,4,4,4,4,4,4,4,4,4,100,,,,,,,,,,,,,,,,,,,,,,,,,,,,,,,,,,,,,,,,,,,,,,,,,,,,,,,,,,,,,,,,,,,,,,,,,,,,,,,,,,,,,,,,,,,,,,,,,,,,,,,,,,,,,,,,,,,,,,,,,,,,,,,,,,,,,,
1702547477,1702547478,24,0,4275.641113,4283.333496,4343.333496,4257.179688,4456.410156,4004.871826,4321.410156,4304.871582,4223.205078,4237.692383,4338.461426,4426.282227,4454.230957,4352.820313,0,3,69,,,,0,4,4,4,4,4,4,4,4,4,4,4,4,4,4,100,,,,,,,,,,,,,,,,,6,0,0.672887,-0.490967,-0.433167,-0.344299,0.915639,-0.355024,0.144549,-11.73059,-0.782275,87.115273,,,,,,,,,,,,,,,,,,,,,,,,,,,,,,,,,,,,,,,,,,,,,,,,,,,,,,,,,,,,,,,,,,,,,,,,,,,,,,,,,,,,,,,,,,,,,,,,,,,,,,,,,,
1702547477,1702547478,25,0,4298.461426,4309.743652,4367.692383,4286.794922,4443.846191,4044.743652,4345,4317.179688,4237.307617,4269.102539,4400.384766,4436.666504,4481.538574,4372.94873,0,3,69,,,,0,4,4,4,4,4,4,4,4,4,4,4,4,4,4,100,,,,,,,,,,,,,,,,,,,,,,,,,,,,,,,,,,,,,,,,,,,,,,,,,,,,,,,,,,,,,,,,,,,,,,,,,,,,,,,,,,,,,,,,,,,,,,,,,,,,,,,,,,,,,,,,,,,,,,,,,,,,,,,,,,,,,,
1702547477,1702547478,26,0,4327.307617,4355.384766,4395.256348,4317.563965,4405.128418,4076.281982,4364.743652,4325.384766,4248.461426,4272.436035,4462.05127,4447.307617,4516.666504,4401.410156,0,3,69,,,,0,4,4,4,4,4,4,4,4,4,4,4,4,4,4,100,,,,,,,,,,,,,,,,,,,,,,,,,,,,,,,,,,,,,,,,,,,,,,,,,,,,,,,,,,,,,,,,,,,,,,,,,,,,,,,,,,,,,,,,,,,,,,,,,,,,,,,,,,,,,,,,,,,,,,,,,,,,,,,,,,,,,,
1702547477,1702547478,27,0,4331.025879,4351.025879,4394.102539,4313.846191,4426.025879,4080.641113,4349.102539,4318.077148,4238.846191,4257.05127,4496.922852,4446.922852,4530.897461,4403.974121,0,3,69,,,,0,4,4,4,4,4,4,4,4,4,4,4,4,4,4,100,,,,,,,,,,,,,,,,,,,,,,,,,,,,,,,,,,,,,,,,,,,,,,,,,,,,,,,,,,,,,,,,,,,,,,,,,,,,,,,,,,,,,,,,,,,,,,,,,,,,,,,,,,,,,,,,,,,,,,,,,,,,,,,,,,,,,,
1702547477,1702547478,28,0,4321.538574,4340.384766,4385.256348,4306.282227,4461.282227,4087.179443,4337.563965,4316.153809,4227.436035,4266.538574,4518.717773,4444.102539,4535.769043,4397.563965,0,3,69,,,,0,4,4,4,4,4,4,4,4,4,4,4,4,4,4,100,,,,,,,,,,,,,,,,,7,0,0.672913,-0.491028,-0.433105,-0.344238,0.917104,-0.354535,0.144549,-11.624197,-0.804048,87.137077,,,,,,,,,,,,,,,,,,,,,,,,,,,,,,,,,,,,,,,,,,,,,,,,,,,,,,,,,,,,,,,,,,,,,,,,,,,,,,,,,,,,,,,,,,,,,,,,,,,,,,,,,,
1702547477,1702547478,29,0,4316.282227,4349.358887,4386.282227,4311.538574,4449.102539,4102.05127,4343.461426,4317.179688,4218.846191,4280,4538.205078,4445,4538.589844,4392.436035,0,3,69,,,,0,4,4,4,4,4,4,4,4,4,4,4,4,4,4,100,,,,,,,,,,,,,,,,,,,,,,,,,,,,,,,,,,,,,,,,,,,,,,,,,,,,,,,,,,,,,,,,,,,,,,,,,,,,,,,,,,,,,,,,,,,,,,,,,,,,,,,,,,,,,,,,,,,,,,,,,,,,,,,,,,,,,,
1702547477,1702547478,30,0,4317.820313,4347.94873,4388.717773,4312.692383,4400.897461,4106.025879,4337.563965,4314.358887,4216.538574,4276.794922,4563.461426,4445.128418,4546.153809,4389.358887,0,3,69,,,,0,4,4,4,4,4,4,4,4,4,4,4,4,4,4,100,1,0,3,1,1,1,0,0,3,4,1,3,0,4,1,3,,,,,,,,,,,,,,,,,,,,,,,,,,,,,,,,,,,,,,,,,,,,,,,,,19.061207,1.920987,1.902714,1.407829,0.708693,31.882885,2.831066,1.769975,1.161544,0.72829,4.763162,2.748319,2.258174,1.184186,0.605809,9.798636,2.193813,1.057187,1.440253,0.674078,1.155664,1.572678,6.422595,6.915477,6.177812,27.823263,6.895076,2.655158,0.567557,0.444209,1.856406,0.901633,0.989544,0.797554,0.462821,0.88196,0.303231,0.293237,0.333393,0.3091,84.473671,37.440029,15.767935,4.003592,1.268755,3.717335,1.837914,2.15403,3.521948,3.389337,111.226555,19.213467,6.485795,3.2438,1.852087,0.492689,0.397821,0.403676,0.253369,0.129538,38.064404,12.627201,6.605262,2.597502,1.42642,18.292383,2.030951,2.684566,1.801446,0.855303
1702547477,1702547478,31,0,4317.692383,4348.846191,4384.487305,4311.666504,4405.256348,4113.589844,4332.692383,4313.205078,4218.205078,4258.589844,4590.897461,4442.94873,4552.692383,4388.974121,0,3,69,,,,0,4,4,4,4,4,4,4,4,4,4,4,4,4,4,100,,,,,,,,,,,,,,,,,,,,,,,,,,,,,,,,,,,,,,,,,,,,,,,,,,,,,,,,,,,,,,,,,,,,,,,,,,,,,,,,,,,,,,,,,,,,,,,,,,,,,,,,,,,,,,,,,,,,,,,,,,,,,,,,,,,,,,
1702547477,1702547478,32,0,4310.256348,4364.358887,4378.461426,4320.384766,4451.025879,4132.05127,4342.820313,4315.512695,4214.743652,4248.461426,4609.743652,4441.025879,4552.307617,4384.871582,0,3,69,,,,0,4,4,4,4,4,4,4,4,4,4,4,4,4,4,100,,,,,,,,,,,,,,,,,8,0,0.673004,-0.490967,-0.432983,-0.344299,0.924918,-0.363326,0.142107,-11.528444,-0.74031,87.190033,,,,,,,,,,,,,,,,,,,,,,,,,,,,,,,,,,,,,,,,,,,,,,,,,,,,,,,,,,,,,,,,,,,,,,,,,,,,,,,,,,,,,,,,,,,,,,,,,,,,,,,,,,
1702547478,1702547478,33,0,4310.384766,4376.538574,4383.077148,4329.102539,4432.94873,4140.641113,4343.717773,4318.333496,4209.871582,4262.179688,4627.436035,4440.897461,4559.230957,4385.256348,0,3,69,,,,0,4,4,4,4,4,4,4,4,4,4,4,4,4,4,100,,,,,,,,,,,,,,,,,,,,,,,,,,,,,,,,,,,,,,,,,,,,,,,,,,,,,,,,,,,,,,,,,,,,,,,,,,,,,,,,,,,,,,,,,,,,,,,,,,,,,,,,,,,,,,,,,,,,,,,,,,,,,,,,,,,,,,
1702547478,1702547478,34,0,4322.820313,4380.641113,4390.641113,4328.846191,4407.563965,4137.05127,4341.153809,4319.102539,4206.282227,4275.641113,4652.436035,4444.230957,4574.743652,4396.153809,0,3,69,,,,0,4,4,4,4,4,4,4,4,4,4,4,4,4,4,100,,,,,,,,,,,,,,,,,,,,,,,,,,,,,,,,,,,,,,,,,,,,,,,,,,,,,,,,,,,,,,,,,,,,,,,,,,,,,,,,,,,,,,,,,,,,,,,,,,,,,,,,,,,,,,,,,,,,,,,,,,,,,,,,,,,,,,
1702547478,1702547478,35,0,4319.230957,4374.102539,4384.743652,4323.205078,4432.179688,4133.205078,4342.179688,4313.717773,4193.077148,4260.128418,4668.974121,4445,4575.641113,4393.333496,0,3,69,,,,0,4,4,4,4,4,4,4,4,4,4,4,4,4,4,100,,,,,,,,,,,,,,,,,,,,,,,,,,,,,,,,,,,,,,,,,,,,,,,,,,,,,,,,,,,,,,,,,,,,,,,,,,,,,,,,,,,,,,,,,,,,,,,,,,,,,,,,,,,,,,,,,,,,,,,,,,,,,,,,,,,,,,
1702547478,1702547478,36,0,4308.974121,4370.641113,4383.589844,4321.666504,4441.666504,4136.025879,4334.230957,4309.615234,4183.205078,4248.974121,4673.461426,4441.410156,4566.025879,4380.384766,0,3,69,,,,0,4,4,4,4,4,4,4,4,4,4,4,4,4,4,100,,,,,,,,,,,,,,,,,9,0,0.673195,-0.491211,-0.432556,-0.344116,0.910267,-0.356,0.1382,-11.508933,-0.699612,87.187698,,,,,,,,,,,,,,,,,,,,,,,,,,,,,,,,,,,,,,,,,,,,,,,,,,,,,,,,,,,,,,,,,,,,,,,,,,,,,,,,,,,,,,,,,,,,,,,,,,,,,,,,,,
1702547478,1702547478,37,0,4311.538574,4378.717773,4395.128418,4323.717773,4413.333496,4143.205078,4323.205078,4310.769043,4179.487305,4261.666504,4678.717773,4438.461426,4563.846191,4381.025879,0,3,69,,,,0,4,4,4,4,4,4,4,4,4,4,4,4,4,4,100,,,,,,,,,,,,,,,,,,,,,,,,,,,,,,,,,,,,,,,,,,,,,,,,,,,,,,,,,,,,,,,,,,,,,,,,,,,,,,,,,,,,,,,,,,,,,,,,,,,,,,,,,,,,,,,,,,,,,,,,,,,,,,,,,,,,,,
1702547478,1702547478,38,0,4311.025879,4376.282227,4397.820313,4323.717773,4404.871582,4158.461426,4326.282227,4311.153809,4173.333496,4255.641113,4691.794922,4437.307617,4566.538574,4385.128418,0,3,69,,,,0,4,4,4,4,4,4,4,4,4,4,4,4,4,4,100,,,,,,,,,,,,,,,,,,,,,,,,,,,,,,,,,,,,,,,,,,,,,,,,,,,,,,,,,,,,,,,,,,,,,,,,,,,,,,,,,,,,,,,,,,,,,,,,,,,,,,,,,,,,,,,,,,,,,,,,,,,,,,,,,,,,,,
1702547478,1702547478,39,0,4317.436035,4386.410156,4403.077148,4337.436035,4441.282227,4184.102539,4339.871582,4319.230957,4177.436035,4247.563965,4721.410156,4442.05127,4582.563965,4392.05127,0,3,69,,,,0,4,4,4,4,4,4,4,4,4,4,4,4,4,4,100,,,,,,,,,,,,,,,,,,,,,,,,,,,,,,,,,,,,,,,,,,,,,,,,,,,,,,,,,,,,,,,,,,,,,,,,,,,,,,,,,,,,,,,,,,,,,,,,,,,,,,,,,,,,,,,,,,,,,,,,,,,,,,,,,,,,,,
1702547478,1702547478,40,0,4331.794922,4414.230957,4416.538574,4355.256348,4461.538574,4202.563965,4344.743652,4325.384766,4187.307617,4261.282227,4750,4448.846191,4599.230957,4401.282227,0,3,69,,,,0,4,4,4,4,4,4,4,4,4,4,4,4,4,4,100,,,,,,,,,,,,,,,,,10,0,0.673283,-0.491272,-0.432495,-0.343933,0.907337,-0.374069,0.144061,-11.374706,-0.829651,87.302261,,,,,,,,,,,,,,,,,,,,,,,,,,,,,,,,,,,,,,,,,,,,,,,,,,,,,,,,,,,,,,,,,,,,,,,,,,,,,,,,,,,,,,,,,,,,,,,,,,,,,,,,,,
1702547478,1702547478,41,0,4335.641113,4415.384766,4417.179688,4350.769043,4434.358887,4212.820313,4341.410156,4322.05127,4192.563965,4281.922852,4755.897461,4447.436035,4595,4405.128418,0,3,69,,,,0,4,4,4,4,4,4,4,4,4,4,4,4,4,4,100,,,,,,,,,,,,,,,,,,,,,,,,,,,,,,,,,,,,,,,,,,,,,,,,,,,,,,,,,,,,,,,,,,,,,,,,,,,,,,,,,,,,,,,,,,,,,,,,,,,,,,,,,,,,,,,,,,,,,,,,,,,,,,,,,,,,,,
1702547478,1702547478,42,0,4335.641113,4407.94873,4416.666504,4342.307617,4414.102539,4228.974121,4342.820313,4324.230957,4198.589844,4294.102539,4754.358887,4444.615234,4585.384766,4409.871582,0,3,69,,,,0,4,4,4,4,4,4,4,4,4,4,4,4,4,4,100,,,,,,,,,,,,,,,,,,,,,,,,,,,,,,,,,,,,,,,,,,,,,,,,,,,,,,,,,,,,,,,,,,,,,,,,,,,,,,,,,,,,,,,,,,,,,,,,,,,,,,,,,,,,,,,,,,,,,,,,,,,,,,,,,,,,,,
1702547478,1702547478,43,0,4337.05127,4411.666504,4419.615234,4339.358887,4417.820313,4244.487305,4341.538574,4325,4203.077148,4281.922852,4756.153809,4447.692383,4584.102539,4408.205078,0,3,69,,,,0,4,4,4,4,4,4,4,4,4,4,4,4,4,4,100,,,,,,,,,,,,,,,,,,,,,,,,,,,,,,,,,,,,,,,,,,,,,,,,,,,,,,,,,,,,,,,,,,,,,,,,,,,,,,,,,,,,,,,,,,,,,,,,,,,,,,,,,,,,,,,,,,,,,,,,,,,,,,,,,,,,,,
1702547478,1702547478,44,0,4326.666504,4400.512695,4414.743652,4324.230957,4424.487305,4251.538574,4337.05127,4318.974121,4200.384766,4264.871582,4758.461426,4447.436035,4584.358887,4399.871582,0,3,69,,,,0,4,4,4,4,4,4,4,4,4,4,4,4,4,4,100,,,,,,,,,,,,,,,,,11,0,0.67335,-0.491394,-0.432495,-0.343628,0.907826,-0.360884,0.157246,-11.353903,-0.730019,87.388702,,,,,,,,,,,,,,,,,,,,,,,,,,,,,,,,,,,,,,,,,,,,,,,,,,,,,,,,,,,,,,,,,,,,,,,,,,,,,,,,,,,,,,,,,,,,,,,,,,,,,,,,,,
1702547478,1702547478,45,0,4311.922852,4386.282227,4409.102539,4305.897461,4440.128418,4255.128418,4331.922852,4313.717773,4197.179688,4262.05127,4754.102539,4441.153809,4580.769043,4394.615234,0,3,69,,,,0,4,4,4,4,4,4,4,4,4,4,4,4,4,4,100,,,,,,,,,,,,,,,,,,,,,,,,,,,,,,,,,,,,,,,,,,,,,,,,,,,,,,,,,,,,,,,,,,,,,,,,,,,,,,,,,,,,,,,,,,,,,,,,,,,,,,,,,,,,,,,,,,,,,,,,,,,,,,,,,,,,,,
1702547478,1702547478,46,0,4312.563965,4401.153809,4409.102539,4306.282227,4454.358887,4260.641113,4330,4311.666504,4195.384766,4260.128418,4744.487305,4439.743652,4583.461426,4392.94873,0,3,69,,,,0,4,4,4,4,4,4,4,4,4,4,4,4,4,4,100,,,,,,,,,,,,,,,,,,,,,,,,,,,,,,,,,,,,,,,,,,,,,,,,,,,,,,,,,,,,,,,,,11.034697,2.240161,1.741026,1.56992,0.706864,19.835213,2.906337,1.644156,1.223836,0.771295,4.356028,3.535334,2.14831,1.302514,0.608014,7.826295,2.228333,1.120249,1.607585,0.64981,1.314083,1.418583,5.400904,8.444108,6.090882,33.963432,8.691228,2.785302,0.565317,0.455013,2.018743,1.039293,1.034199,0.86954,0.440165,0.970379,0.366699,0.311903,0.385244,0.314095,127.276314,51.239544,19.338366,4.722095,1.574799,4.128623,1.835399,2.239999,3.792807,3.368814,148.030121,25.820604,9.603432,4.135745,2.007774,0.422348,0.436333,0.395131,0.283976,0.128111,43.169037,18.885296,7.598871,3.190324,1.510768,13.574841,2.40702,2.342281,1.9844,0.81183
1702547478,1702547478,47,0,4328.077148,4410.641113,4422.05127,4318.717773,4451.922852,4280.897461,4344.487305,4321.282227,4199.615234,4274.871582,4751.025879,4447.05127,4589.358887,4403.205078,0,3,69,,,,0,4,4,4,4,4,4,4,4,4,4,4,4,4,4,100,,,,,,,,,,,,,,,,,,,,,,,,,,,,,,,,,,,,,,,,,,,,,,,,,,,,,,,,,,,,,,,,,,,,,,,,,,,,,,,,,,,,,,,,,,,,,,,,,,,,,,,,,,,,,,,,,,,,,,,,,,,,,,,,,,,,,,
1702547478,1702547478,48,0,4334.358887,4396.538574,4435,4319.487305,4448.846191,4297.563965,4351.538574,4329.871582,4201.666504,4299.487305,4757.307617,4451.922852,4582.563965,4410.128418,0,3,69,,,,0,4,4,4,4,4,4,4,4,4,4,4,4,4,4,100,,,,,,,,,,,,,,,,,12,0,0.673443,-0.491394,-0.432495,-0.343445,0.909779,-0.372604,0.135759,-11.401846,-0.773684,87.366501,,,,,,,,,,,,,,,,,,,,,,,,,,,,,,,,,,,,,,,,,,,,,,,,,,,,,,,,,,,,,,,,,,,,,,,,,,,,,,,,,,,,,,,,,,,,,,,,,,,,,,,,,,
1702547478,1702547478,49,0,4323.461426,4398.461426,4422.94873,4311.922852,4457.436035,4287.94873,4331.538574,4317.05127,4190.256348,4278.974121,4736.410156,4446.153809,4569.743652,4398.077148,0,3,69,,,,0,4,4,4,4,4,4,4,4,4,4,4,4,4,4,100,,,,,,,,,,,,,,,,,,,,,,,,,,,,,,,,,,,,,,,,,,,,,,,,,,,,,,,,,,,,,,,,,,,,,,,,,,,,,,,,,,,,,,,,,,,,,,,,,,,,,,,,,,,,,,,,,,,,,,,,,,,,,,,,,,,,,,
1702547478,1702547478,50,0,4320.897461,4426.666504,4411.282227,4318.205078,4448.205078,4287.05127,4322.692383,4308.974121,4187.563965,4251.794922,4714.871582,4443.461426,4558.846191,4387.05127,0,3,69,,,,0,4,4,4,4,4,4,4,4,4,4,4,4,4,4,100,,,,,,,,,,,,,,,,,,,,,,,,,,,,,,,,,,,,,,,,,,,,,,,,,,,,,,,,,,,,,,,,,,,,,,,,,,,,,,,,,,,,,,,,,,,,,,,,,,,,,,,,,,,,,,,,,,,,,,,,,,,,,,,,,,,,,,
1702547478,1702547478,51,0,4327.563965,4457.436035,4418.974121,4333.077148,4404.102539,4309.615234,4334.743652,4315,4193.589844,4256.153809,4699.487305,4447.307617,4530.256348,4385.384766,0,3,69,,,,0,4,4,4,4,4,4,4,4,4,4,4,4,4,4,100,,,,,,,,,,,,,,,,,,,,,,,,,,,,,,,,,,,,,,,,,,,,,,,,,,,,,,,,,,,,,,,,,,,,,,,,,,,,,,,,,,,,,,,,,,,,,,,,,,,,,,,,,,,,,,,,,,,,,,,,,,,,,,,,,,,,,,
1702547478,1702547478,52,0,4317.307617,4463.717773,4411.410156,4323.205078,4407.94873,4314.871582,4326.282227,4307.94873,4184.615234,4232.436035,4662.692383,4441.538574,4486.794922,4370.897461,0,3,69,,,,0,4,4,4,4,4,4,4,4,4,4,4,4,4,4,100,,,,,,,,,,,,,,,,,13,0,0.673439,-0.491516,-0.432556,-0.343201,0.900501,-0.359907,0.139177,-11.394995,-0.546315,87.263184,,,,,,,,,,,,,,,,,,,,,,,,,,,,,,,,,,,,,,,,,,,,,,,,,,,,,,,,,,,,,,,,,,,,,,,,,,,,,,,,,,,,,,,,,,,,,,,,,,,,,,,,,,
1702547478,1702547478,53,0,4305,4451.922852,4394.615234,4306.794922,4455.641113,4306.153809,4311.410156,4302.179688,4181.794922,4216.153809,4622.692383,4435.897461,4465.512695,4361.538574,0,3,69,,,,0,4,4,4,4,4,4,4,4,4,4,4,4,4,4,100,,,,,,,,,,,,,,,,,,,,,,,,,,,,,,,,,,,,,,,,,,,,,,,,,,,,,,,,,,,,,,,,,,,,,,,,,,,,,,,,,,,,,,,,,,,,,,,,,,,,,,,,,,,,,,,,,,,,,,,,,,,,,,,,,,,,,,
1702547478,1702547478,54,0,4304.230957,4441.538574,4395.769043,4314.487305,4433.205078,4315,4322.05127,4311.538574,4191.922852,4247.692383,4587.820313,4436.794922,4459.615234,4363.974121,0,3,69,,,,0,4,4,4,4,4,4,4,4,4,4,4,4,4,4,100,,,,,,,,,,,,,,,,,,,,,,,,,,,,,,,,,,,,,,,,,,,,,,,,,,,,,,,,,,,,,,,,,,,,,,,,,,,,,,,,,,,,,,,,,,,,,,,,,,,,,,,,,,,,,,,,,,,,,,,,,,,,,,,,,,,,,,
1702547478,1702547478,55,0,4292.94873,4432.563965,4387.179688,4311.410156,4398.461426,4324.358887,4326.153809,4306.666504,4181.410156,4256.410156,4536.410156,4431.922852,4438.461426,4348.077148,0,3,69,,,,0,4,4,4,4,4,4,4,4,4,4,4,4,4,4,100,,,,,,,,,,,,,,,,,,,,,,,,,,,,,,,,,,,,,,,,,,,,,,,,,,,,,,,,,,,,,,,,,,,,,,,,,,,,,,,,,,,,,,,,,,,,,,,,,,,,,,,,,,,,,,,,,,,,,,,,,,,,,,,,,,,,,,
1702547478,1702547478,56,0,4276.922852,4424.102539,4367.179688,4292.05127,4445.897461,4319.230957,4310,4292.94873,4153.333496,4235.128418,4491.153809,4424.871582,4418.974121,4328.589844,0,3,69,,,,0,4,4,4,4,4,4,4,4,4,4,4,4,4,4,100,,,,,,,,,,,,,,,,,14,0,0.673376,-0.491699,-0.432495,-0.34314,0.904407,-0.372604,0.143084,-11.288828,-0.508351,87.386864,,,,,,,,,,,,,,,,,,,,,,,,,,,,,,,,,,,,,,,,,,,,,,,,,,,,,,,,,,,,,,,,,,,,,,,,,,,,,,,,,,,,,,,,,,,,,,,,,,,,,,,,,,
1702547478,1702547478,57,0,4282.307617,4424.743652,4368.846191,4296.153809,4453.461426,4316.025879,4308.846191,4298.461426,4134.487305,4218.846191,4477.307617,4427.436035,4426.922852,4332.692383,0,3,69,,,,0,4,4,4,4,4,4,4,4,4,4,4,4,4,4,100,,,,,,,,,,,,,,,,,,,,,,,,,,,,,,,,,,,,,,,,,,,,,,,,,,,,,,,,,,,,,,,,,,,,,,,,,,,,,,,,,,,,,,,,,,,,,,,,,,,,,,,,,,,,,,,,,,,,,,,,,,,,,,,,,,,,,,
1702547478,1702547478,58,0,4304.871582,4435.897461,4387.179688,4321.922852,4390.128418,4322.563965,4327.94873,4312.436035,4125.641113,4210.128418,4474.615234,4437.05127,4446.922852,4350.256348,0,3,69,,,,0,4,4,4,4,4,4,4,4,4,4,4,4,4,4,100,,,,,,,,,,,,,,,,,,,,,,,,,,,,,,,,,,,,,,,,,,,,,,,,,,,,,,,,,,,,,,,,,,,,,,,,,,,,,,,,,,,,,,,,,,,,,,,,,,,,,,,,,,,,,,,,,,,,,,,,,,,,,,,,,,,,,,
1702547478,1702547478,59,0,4310.769043,4432.563965,4389.358887,4327.820313,4389.871582,4326.410156,4325.897461,4309.871582,4113.974121,4224.487305,4458.333496,4437.436035,4448.205078,4355.512695,0,3,69,,,,0,4,4,4,4,4,4,4,4,4,4,4,4,4,4,100,,,,,,,,,,,,,,,,,,,,,,,,,,,,,,,,,,,,,,,,,,,,,,,,,,,,,,,,,,,,,,,,,,,,,,,,,,,,,,,,,,,,,,,,,,,,,,,,,,,,,,,,,,,,,,,,,,,,,,,,,,,,,,,,,,,,,,
1702547478,1702547478,60,0,4303.846191,4425.128418,4384.358887,4321.922852,4438.077148,4324.487305,4311.666504,4301.410156,4101.153809,4245.769043,4443.461426,4432.563965,4442.179688,4353.333496,0,3,69,,,,0,4,4,4,4,4,4,4,4,4,4,4,4,4,4,100,,,,,,,,,,,,,,,,,15,0,0.673284,-0.49176,-0.432617,-0.343079,0.917592,-0.363326,0.143084,-11.259946,-0.524182,87.398178,,,,,,,,,,,,,,,,,,,,,,,,,,,,,,,,,,,,,,,,,,,,,,,,,,,,,,,,,,,,,,,,,,,,,,,,,,,,,,,,,,,,,,,,,,,,,,,,,,,,,,,,,,
1702547478,1702547478,61,0,4313.333496,4435.897461,4394.743652,4330.641113,4458.205078,4324.871582,4320.128418,4307.563965,4098.333496,4254.871582,4435,4436.794922,4455.641113,4363.589844,0,3,69,,,,0,4,4,4,4,4,4,4,4,4,4,4,4,4,4,100,,,,,,,,,,,,,,,,,,,,,,,,,,,,,,,,,,,,,,,,,,,,,,,,,,,,,,,,,,,,,,,,,,,,,,,,,,,,,,,,,,,,,,,,,,,,,,,,,,,,,,,,,,,,,,,,,,,,,,,,,,,,,,,,,,,,,,
1702547478,1702547478,62,0,4318.333496,4441.410156,4396.025879,4334.358887,4406.282227,4317.563965,4321.538574,4308.846191,4094.615479,4254.358887,4400.256348,4438.846191,4466.794922,4363.974121,0,3,69,,,,0,4,4,4,4,4,4,4,4,4,4,4,4,4,4,100,,,,,,,,,,,,,,,,,,,,,,,,,,,,,,,,,,,,,,,,,,,,,,,,,,,,,,,,,,,,,,,,,5.611388,2.637862,1.549263,1.640256,0.697294,11.546066,3.087639,1.672834,1.242262,0.799257,4.456964,4.32021,1.97457,1.343656,0.59105,6.590096,2.398933,1.229025,1.670635,0.613686,1.851387,1.459775,4.562666,9.899264,6.454181,39.644051,11.235761,2.875708,0.584082,0.463804,2.379384,1.152123,1.022792,0.886075,0.41241,1.113977,0.456218,0.314306,0.41409,0.308459,164.304291,64.353081,21.804161,5.343178,1.840625,4.550933,2.040157,2.322362,3.902303,3.225127,193.178101,33.260391,12.635692,4.858322,2.10401,0.416425,0.490747,0.350943,0.288449,0.12617,47.877705,25.192305,8.197279,3.603103,1.578676,10.552586,3.003862,1.881582,2.036992,0.750773
1702547478,1702547478,63,0,4304.615234,4430.897461,4381.922852,4325.897461,4346.922852,4309.358887,4308.846191,4297.94873,4083.461426,4233.205078,4353.717773,4435.512695,4458.717773,4348.333496,0,3,69,,,,0,4,4,4,4,4,4,4,4,4,4,4,4,4,4,100,,,,,,,,,,,,,,,,,,,,,,,,,,,,,,,,,,,,,,,,,,,,,,,,,,,,,,,,,,,,,,,,,,,,,,,,,,,,,,,,,,,,,,,,,,,,,,,,,,,,,,,,,,,,,,,,,,,,,,,,,,,,,,,,,,,,,,
1702547478,1702547478,64,0,4291.538574,4416.025879,4371.794922,4314.487305,4397.820313,4314.230957,4307.563965,4293.461426,4074.871826,4200.769043,4321.922852,4430.897461,4443.846191,4333.589844,5435,3,69,,,,0,4,4,4,4,4,4,4,4,4,4,4,4,4,4,100,,,,,,,,,,,,,,,,,16,0,0.673178,-0.491638,-0.432678,-0.343384,0.896105,-0.352582,0.154316,-11.383951,-0.738431,87.34169,,,,,,,,,,,,,,,,,,,,,,,,,,,,,,,,,,,,,,,,,,,,,,,,,,,,,,,,,,,,,,,,,,,,,,,,,,,,,,,,,,,,,,,,,,,,,,,,,,,,,,,,,,
1702547478,1702547478,65,0,4278.077148,4402.179688,4355,4297.94873,4438.717773,4314.871582,4303.205078,4292.436035,4062.307617,4207.05127,4271.025879,4422.820313,4426.282227,4312.307617,5669,3,69,,,,0,4,4,4,4,4,4,4,4,4,4,4,4,4,4,100,,,,,,,,,,,,,,,,,,,,,,,,,,,,,,,,,,,,,,,,,,,,,,,,,,,,,,,,,,,,,,,,,,,,,,,,,,,,,,,,,,,,,,,,,,,,,,,,,,,,,,,,,,,,,,,,,,,,,,,,,,,,,,,,,,,,,,
1702547478,1702547478,66,0,4279.615234,4407.94873,4348.589844,4299.871582,4414.230957,4312.692383,4300.512695,4295.256348,4052.820557,4234.871582,4221.282227,4424.358887,4432.94873,4309.615234,5614,3,69,,,,0,4,4,4,4,4,4,4,4,4,4,4,4,4,4,100,,,,,,,,,,,,,,,,,,,,,,,,,,,,,,,,,,,,,,,,,,,,,,,,,,,,,,,,,,,,,,,,,,,,,,,,,,,,,,,,,,,,,,,,,,,,,,,,,,,,,,,,,,,,,,,,,,,,,,,,,,,,,,,,,,,,,,
1702547478,1702547478,67,0,4303.077148,4427.563965,4368.077148,4324.230957,4411.282227,4313.589844,4313.717773,4304.358887,4056.666748,4223.717773,4214.871582,4434.358887,4459.743652,4335.641113,5522,3,69,,,,0,4,4,4,4,4,4,4,4,4,4,4,4,4,4,100,,,,,,,,,,,,,,,,,,,,,,,,,,,,,,,,,,,,,,,,,,,,,,,,,,,,,,,,,,,,,,,,,,,,,,,,,,,,,,,,,,,,,,,,,,,,,,,,,,,,,,,,,,,,,,,,,,,,,,,,,,,,,,,,,,,,,,
1702547478,1702547478,68,0,4309.358887,4427.179688,4373.333496,4327.820313,4388.589844,4299.230957,4314.743652,4302.820313,4054.871826,4204.871582,4205.897461,4432.820313,4462.692383,4338.205078,5335,3,69,,,,0,4,4,4,4,4,4,4,4,4,4,4,4,4,4,100,,,,,,,,,,,,,,,,,17,0,0.673103,-0.491699,-0.432678,-0.343445,0.910756,-0.360884,0.132829,-11.462222,-0.697921,87.357521,,,,,,,,,,,,,,,,,,,,,,,,,,,,,,,,,,,,,,,,,,,,,,,,,,,,,,,,,,,,,,,,,,,,,,,,,,,,,,,,,,,,,,,,,,,,,,,,,,,,,,,,,,
1702547478,1702547478,69,0,4306.538574,4421.794922,4368.205078,4328.333496,4378.589844,4293.974121,4310.384766,4303.717773,4055,4220.512695,4186.025879,4430.128418,4463.589844,4330.384766,4103,3,69,,,,0,4,4,4,4,4,4,4,4,4,4,4,4,4,4,100,,,,,,,,,,,,,,,,,,,,,,,,,,,,,,,,,,,,,,,,,,,,,,,,,,,,,,,,,,,,,,,,,,,,,,,,,,,,,,,,,,,,,,,,,,,,,,,,,,,,,,,,,,,,,,,,,,,,,,,,,,,,,,,,,,,,,,
1702547478,1702547478,70,0,4319.102539,4430.897461,4376.666504,4342.307617,4437.436035,4305.128418,4314.230957,4310,4065.384521,4238.846191,4178.974121,4436.153809,4476.153809,4341.666504,4667,3,69,,,,0,4,4,4,4,4,4,4,4,4,4,4,4,4,4,100,,,,,,,,,,,,,,,,,,,,,,,,,,,,,,,,,,,,,,,,,,,,,,,,,,,,,,,,,,,,,,,,,,,,,,,,,,,,,,,,,,,,,,,,,,,,,,,,,,,,,,,,,,,,,,,,,,,,,,,,,,,,,,,,,,,,,,
1702547478,1702547478,71,0,4320.128418,4429.358887,4376.666504,4328.589844,4443.461426,4301.153809,4304.102539,4301.922852,4058.333252,4226.025879,4160.256348,4433.333496,4471.410156,4337.563965,3411,3,69,,,,0,4,4,4,4,4,4,4,4,4,4,4,4,4,4,100,,,,,,,,,,,,,,,,,,,,,,,,,,,,,,,,,,,,,,,,,,,,,,,,,,,,,,,,,,,,,,,,,,,,,,,,,,,,,,,,,,,,,,,,,,,,,,,,,,,,,,,,,,,,,,,,,,,,,,,,,,,,,,,,,,,,,,
1702547478,1702547478,72,0,4319.102539,4427.05127,4377.05127,4306.794922,4381.153809,4299.743652,4300.512695,4298.974121,4048.205078,4213.205078,4142.94873,4430,4469.102539,4331.282227,4682,3,69,,,,0,4,4,4,4,4,4,4,4,4,4,4,4,4,4,100,,,,,,,,,,,,,,,,,18,0,0.673103,-0.491699,-0.432678,-0.343445,0.906361,-0.358931,0.142107,-11.366,-0.561462,87.371773,,,,,,,,,,,,,,,,,,,,,,,,,,,,,,,,,,,,,,,,,,,,,,,,,,,,,,,,,,,,,,,,,,,,,,,,,,,,,,,,,,,,,,,,,,,,,,,,,,,,,,,,,,
1702547478,1702547478,73,0,4330.769043,4432.179688,4387.436035,4305.897461,4395.384766,4315.897461,4310.641113,4307.436035,4055,4231.922852,4138.333496,4435.512695,4481.538574,4344.487305,5536,3,69,,,,0,4,4,4,4,4,4,4,4,4,4,4,4,4,4,100,,,,,,,,,,,,,,,,,,,,,,,,,,,,,,,,,,,,,,,,,,,,,,,,,,,,,,,,,,,,,,,,,,,,,,,,,,,,,,,,,,,,,,,,,,,,,,,,,,,,,,,,,,,,,,,,,,,,,,,,,,,,,,,,,,,,,,
1702547478,1702547478,74,0,4332.307617,4425.256348,4382.436035,4304.102539,4441.922852,4321.025879,4304.615234,4301.538574,4050.641113,4241.282227,4113.205078,4431.794922,4479.871582,4342.436035,5983,3,69,,,,0,4,4,4,4,4,4,4,4,4,4,4,4,4,4,100,,,,,,,,,,,,,,,,,,,,,,,,,,,,,,,,,,,,,,,,,,,,,,,,,,,,,,,,,,,,,,,,,,,,,,,,,,,,,,,,,,,,,,,,,,,,,,,,,,,,,,,,,,,,,,,,,,,,,,,,,,,,,,,,,,,,,,
1702547478,1702547478,75,0,4323.205078,4423.974121,4369.871582,4294.230957,4421.153809,4304.743652,4290.512695,4290.128418,4031.923096,4217.563965,4059.871826,4424.487305,4470.256348,4326.282227,6077,3,69,,,,0,4,4,4,4,4,4,4,4,4,4,4,4,4,4,100,,,,,,,,,,,,,,,,,,,,,,,,,,,,,,,,,,,,,,,,,,,,,,,,,,,,,,,,,,,,,,,,,,,,,,,,,,,,,,,,,,,,,,,,,,,,,,,,,,,,,,,,,,,,,,,,,,,,,,,,,,,,,,,,,,,,,,
1702547478,1702547478,76,0,4317.692383,4429.615234,4367.563965,4286.410156,4406.538574,4296.282227,4286.025879,4292.94873,4022.820557,4192.820313,4001.153809,4424.487305,4469.743652,4321.410156,6578,3,69,,,,0,4,4,4,4,4,4,4,4,4,4,4,4,4,4,100,,,,,,,,,,,,,,,,,19,0,0.673048,-0.491699,-0.432617,-0.343628,0.914662,-0.350629,0.13527,-11.512733,-0.521983,87.284592,,,,,,,,,,,,,,,,,,,,,,,,,,,,,,,,,,,,,,,,,,,,,,,,,,,,,,,,,,,,,,,,,,,,,,,,,,,,,,,,,,,,,,,,,,,,,,,,,,,,,,,,,,
1702547478,1702547478,77,0,4315.897461,4418.077148,4364.358887,4281.025879,4411.538574,4302.94873,4282.05127,4293.589844,4017.564209,4206.025879,3942.05127,4422.307617,4467.94873,4315.512695,2176,3,69,,,,0,4,4,4,4,4,4,4,4,4,4,4,4,4,4,100,,,,,,,,,,,,,,,,,,,,,,,,,,,,,,,,,,,,,,,,,,,,,,,,,,,,,,,,,,,,,,,,,,,,,,,,,,,,,,,,,,,,,,,,,,,,,,,,,,,,,,,,,,,,,,,,,,,,,,,,,,,,,,,,,,,,,,
1702547478,1702547478,78,0,4317.436035,4408.333496,4358.974121,4283.589844,4381.666504,4310.384766,4277.692383,4284.102539,4014.871826,4234.743652,3891.281982,4421.282227,4463.077148,4312.05127,5983,3,69,,,,0,4,4,4,4,4,4,4,4,4,4,4,4,4,4,100,,,,,,,,,,,,,,,,,,,,,,,,,,,,,,,,,,,,,,,,,,,,,,,,,,,,,,,,,,,,,,,,,3.169831,3.132966,1.374862,1.608737,0.670135,8.093665,3.298129,1.784532,1.207249,0.812179,5.067474,5.022287,1.778045,1.298101,0.552584,6.640854,2.789292,1.358975,1.6044,0.57032,2.379386,1.607189,4.243915,11.045938,6.911905,46.847477,14.93852,2.967577,0.666166,0.475509,2.803197,1.225759,0.960242,0.845062,0.389115,1.236531,0.551948,0.300226,0.413958,0.290523,182.701523,72.484657,22.212088,5.579583,1.970888,4.964202,2.422472,2.340054,3.876054,2.976143,235.518295,39.95681,14.569038,5.135691,2.104917,0.469845,0.563612,0.284802,0.266609,0.12168,50.339275,29.401352,8.113906,3.727369,1.597348,9.257404,3.885324,1.422549,1.958537,0.681771
1702547478,1702547478,79,0,4314.615234,4412.436035,4353.974121,4281.410156,4368.717773,4316.922852,4277.05127,4280.256348,4021.025635,4227.820313,3865.769287,4422.692383,4453.846191,4313.333496,6077,3,69,,,,0,4,4,4,4,4,4,4,4,4,4,4,4,4,4,100,,,,,,,,,,,,,,,,,,,,,,,,,,,,,,,,,,,,,,,,,,,,,,,,,,,,,,,,,,,,,,,,,,,,,,,,,,,,,,,,,,,,,,,,,,,,,,,,,,,,,,,,,,,,,,,,,,,,,,,,,,,,,,,,,,,,,,
1702547478,1702547478,80,0,4306.666504,4401.410156,4353.589844,4276.153809,4397.05127,4328.205078,4278.205078,4288.717773,4033.333252,4204.743652,3870.128174,4423.846191,4443.589844,4307.307617,6578,3,69,,,,0,4,4,4,4,4,4,4,4,4,4,4,4,4,4,100,,,,,,,,,,,,,,,,,20,0,0.67309,-0.49176,-0.432434,-0.343689,0.907337,-0.35307,0.143084,-11.544793,-0.619784,87.306137,,,,,,,,,,,,,,,,,,,,,,,,,,,,,,,,,,,,,,,,,,,,,,,,,,,,,,,,,,,,,,,,,,,,,,,,,,,,,,,,,,,,,,,,,,,,,,,,,,,,,,,,,,
1702547478,1702547478,81,0,4311.538574,4393.974121,4360.512695,4295.128418,4405.128418,4340.128418,4284.743652,4294.230957,4042.179443,4216.025879,3888.718018,4425,4444.743652,4304.487305,2176,3,69,,,,0,4,4,4,4,4,4,4,4,4,4,4,4,4,4,100,,,,,,,,,,,,,,,,,,,,,,,,,,,,,,,,,,,,,,,,,,,,,,,,,,,,,,,,,,,,,,,,,,,,,,,,,,,,,,,,,,,,,,,,,,,,,,,,,,,,,,,,,,,,,,,,,,,,,,,,,,,,,,,,,,,,,,
1702547478,1702547478,82,0,4311.794922,4410.769043,4351.282227,4299.743652,4388.333496,4336.538574,4278.974121,4280,4025.769287,4216.666504,3895.769287,4421.153809,4435.897461,4299.487305,5983,3,69,,,,0,4,4,4,4,4,4,4,4,4,4,4,4,4,4,100,,,,,,,,,,,,,,,,,,,,,,,,,,,,,,,,,,,,,,,,,,,,,,,,,,,,,,,,,,,,,,,,,,,,,,,,,,,,,,,,,,,,,,,,,,,,,,,,,,,,,,,,,,,,,,,,,,,,,,,,,,,,,,,,,,,,,,
1702547478,1702547478,83,0,4298.077148,4421.153809,4337.563965,4286.153809,4374.743652,4323.589844,4263.717773,4271.025879,3996.794922,4186.410156,3905.512939,4416.794922,4407.94873,4286.666504,6077,3,69,,,,0,4,4,4,4,4,4,4,4,4,4,4,4,4,4,100,,,,,,,,,,,,,,,,,,,,,,,,,,,,,,,,,,,,,,,,,,,,,,,,,,,,,,,,,,,,,,,,,,,,,,,,,,,,,,,,,,,,,,,,,,,,,,,,,,,,,,,,,,,,,,,,,,,,,,,,,,,,,,,,,,,,,,
1702547478,1702547478,84,0,4299.871582,4424.743652,4349.487305,4306.666504,4340.641113,4315.128418,4263.589844,4280,3987.435791,4180.641113,3931.410156,4415.897461,4393.333496,4283.205078,6578,3,69,,,,0,4,4,4,4,4,4,4,4,4,4,4,4,4,4,100,,,,,,,,,,,,,,,,,21,0,0.673192,-0.49176,-0.432373,-0.343567,0.908802,-0.355512,0.133805,-11.423648,-0.541139,87.308853,,,,,,,,,,,,,,,,,,,,,,,,,,,,,,,,,,,,,,,,,,,,,,,,,,,,,,,,,,,,,,,,,,,,,,,,,,,,,,,,,,,,,,,,,,,,,,,,,,,,,,,,,,
1702547478,1702547478,85,0,4305.512695,4430.128418,4352.563965,4322.820313,4334.871582,4304.102539,4263.205078,4276.794922,3984.358887,4192.563965,3942.692383,4413.846191,4393.333496,4277.05127,2176,3,69,,,,0,4,4,4,4,4,4,4,4,4,4,4,4,4,4,100,,,,,,,,,,,,,,,,,,,,,,,,,,,,,,,,,,,,,,,,,,,,,,,,,,,,,,,,,,,,,,,,,,,,,,,,,,,,,,,,,,,,,,,,,,,,,,,,,,,,,,,,,,,,,,,,,,,,,,,,,,,,,,,,,,,,,,
1702547478,1702547478,86,0,4293.974121,4425.384766,4335.897461,4306.538574,4403.846191,4295.769043,4255.384766,4260,3971.794922,4192.307617,3946.153809,4411.794922,4382.05127,4262.436035,5983,3,69,,,,0,4,4,4,4,4,4,4,4,4,4,4,4,4,4,100,,,,,,,,,,,,,,,,,,,,,,,,,,,,,,,,,,,,,,,,,,,,,,,,,,,,,,,,,,,,,,,,,,,,,,,,,,,,,,,,,,,,,,,,,,,,,,,,,,,,,,,,,,,,,,,,,,,,,,,,,,,,,,,,,,,,,,
1702547478,1702547478,87,0,4293.846191,4422.436035,4342.820313,4307.436035,4417.179688,4302.05127,4258.077148,4263.589844,3965.512939,4176.538574,3980.897461,4416.538574,4377.179688,4267.820313,6077,3,69,,,,0,4,4,4,4,4,4,4,4,4,4,4,4,4,4,100,,,,,,,,,,,,,,,,,,,,,,,,,,,,,,,,,,,,,,,,,,,,,,,,,,,,,,,,,,,,,,,,,,,,,,,,,,,,,,,,,,,,,,,,,,,,,,,,,,,,,,,,,,,,,,,,,,,,,,,,,,,,,,,,,,,,,,
1702547478,1702547478,88,0,4315.897461,4431.153809,4366.410156,4333.077148,4356.666504,4320.128418,4268.205078,4277.179688,3975.641113,4162.05127,4023.461426,4423.717773,4394.358887,4286.025879,6578,3,69,,,,0,4,4,4,4,4,4,4,4,4,4,4,4,4,4,100,,,,,,,,,,,,,,,,,22,0,0.67339,-0.491638,-0.432251,-0.343506,0.907826,-0.354535,0.1382,-11.531282,-0.537025,87.344635,,,,,,,,,,,,,,,,,,,,,,,,,,,,,,,,,,,,,,,,,,,,,,,,,,,,,,,,,,,,,,,,,,,,,,,,,,,,,,,,,,,,,,,,,,,,,,,,,,,,,,,,,,
1702547478,1702547478,89,0,4314.615234,4416.794922,4361.282227,4332.94873,4358.717773,4331.922852,4266.025879,4272.94873,3976.794922,4175.128418,4033.076904,4420.256348,4398.333496,4276.922852,2176,3,69,,,,0,4,4,4,4,4,4,4,4,4,4,4,4,4,4,100,,,,,,,,,,,,,,,,,,,,,,,,,,,,,,,,,,,,,,,,,,,,,,,,,,,,,,,,,,,,,,,,,,,,,,,,,,,,,,,,,,,,,,,,,,,,,,,,,,,,,,,,,,,,,,,,,,,,,,,,,,,,,,,,,,,,,,
1702547478,1702547478,90,0,4290.512695,4380.128418,4341.153809,4311.666504,4390,4340.128418,4260.512695,4265.897461,3963.461426,4197.307617,4038.718018,4412.820313,4379.871582,4258.974121,5983,3,69,,,,0,4,4,4,4,4,4,4,4,4,4,4,4,4,4,100,,,,,,,,,,,,,,,,,,,,,,,,,,,,,,,,,,,,,,,,,,,,,,,,,,,,,,,,,,,,,,,,,,,,,,,,,,,,,,,,,,,,,,,,,,,,,,,,,,,,,,,,,,,,,,,,,,,,,,,,,,,,,,,,,,,,,,
1702547478,1702547478,91,0,4287.436035,4365.384766,4340.128418,4309.230957,4353.974121,4352.94873,4264.230957,4271.282227,3963.333252,4177.820313,4066.025635,4410.897461,4377.94873,4260.897461,6077,3,69,,,,0,4,4,4,4,4,4,4,4,4,4,4,4,4,4,100,,,,,,,,,,,,,,,,,,,,,,,,,,,,,,,,,,,,,,,,,,,,,,,,,,,,,,,,,,,,,,,,,,,,,,,,,,,,,,,,,,,,,,,,,,,,,,,,,,,,,,,,,,,,,,,,,,,,,,,,,,,,,,,,,,,,,,
1702547478,1702547478,92,0,4295.897461,4372.94873,4350.897461,4321.025879,4314.615234,4362.94873,4265.384766,4273.333496,3975.769287,4151.410156,4095.641113,4413.461426,4396.538574,4261.666504,6578,3,69,,,,0,4,4,4,4,4,4,4,4,4,4,4,4,4,4,100,,,,,,,,,,,,,,,,,23,0,0.673358,-0.491821,-0.43219,-0.343384,0.908802,-0.372116,0.148944,-11.511488,-0.449989,87.393509,,,,,,,,,,,,,,,,,,,,,,,,,,,,,,,,,,,,,,,,,,,,,,,,,,,,,,,,,,,,,,,,,,,,,,,,,,,,,,,,,,,,,,,,,,,,,,,,,,,,,,,,,,
1702547478,1702547478,93,0,4295.256348,4372.94873,4355.641113,4324.871582,4358.717773,4372.820313,4265.256348,4268.589844,3976.025635,4168.717773,4122.436035,4415.769043,4409.102539,4258.589844,2176,3,69,,,,0,4,4,4,4,4,4,4,4,4,4,4,4,4,4,100,,,,,,,,,,,,,,,,,,,,,,,,,,,,,,,,,,,,,,,,,,,,,,,,,,,,,,,,,,,,,,,,,,,,,,,,,,,,,,,,,,,,,,,,,,,,,,,,,,,,,,,,,,,,,,,,,,,,,,,,,,,,,,,,,,,,,,
1702547478,1702547478,94,0,4295.769043,4363.461426,4353.717773,4320.769043,4389.358887,4387.436035,4269.358887,4269.615234,3967.692383,4180.641113,4156.282227,4415.512695,4416.025879,4265.128418,5983,3,69,,,,0,4,4,4,4,4,4,4,4,4,4,4,4,4,4,100,1,16.666666,3,1,1,1,1,1,4,4,1,3,0,4,1,3,,,,,,,,,,,,,,,,,,,,,,,,,,,,,,,,,,,,,,,,,,,,,,,,,2.825892,3.718091,1.260176,1.494392,0.625424,7.912957,3.45292,1.931175,1.141279,0.819356,5.942092,5.584203,1.585563,1.179823,0.501011,7.692064,3.373765,1.510054,1.428528,0.531898,3.006492,1.746972,4.502748,11.714526,7.249835,56.662239,19.595537,3.053507,0.823227,0.492777,3.194864,1.255009,0.865996,0.766568,0.380042,1.334291,0.62753,0.275809,0.388893,0.264265,176.139221,72.678558,20.240078,5.263558,1.910332,5.267599,2.86543,2.247213,3.798099,2.677765,257.824738,44.181644,14.701756,4.844896,1.988541,0.620001,0.649784,0.218932,0.227066,0.114687,49.876476,30.057894,7.311842,3.537222,1.541811,8.832537,5.007857,1.071475,1.782158,0.615801
1702547478,1702547478,95,0,4285.384766,4349.743652,4340.897461,4310.256348,4342.692383,4387.05127,4257.94873,4263.846191,3957.94873,4166.538574,4165.512695,4408.205078,4407.94873,4255.128418,6077,3,69,,,,0,4,4,4,4,4,4,4,4,4,4,4,4,4,4,100,,,,,,,,,,,,,,,,,,,,,,,,,,,,,,,,,,,,,,,,,,,,,,,,,,,,,,,,,,,,,,,,,,,,,,,,,,,,,,,,,,,,,,,,,,,,,,,,,,,,,,,,,,,,,,,,,,,,,,,,,,,,,,,,,,,,,,
1702547478,1702547478,96,0,4261.025879,4329.615234,4322.05127,4295.897461,4334.358887,4382.436035,4239.358887,4251.410156,3941.410156,4150,4156.794922,4398.205078,4386.153809,4227.179688,6578,3,69,,,,0,4,4,4,4,4,4,4,4,4,4,4,4,4,4,100,,,,,,,,,,,,,,,,,24,0,0.67341,-0.491943,-0.432068,-0.343262,0.922476,-0.34721,0.144061,-11.627006,-0.521657,87.487488,,,,,,,,,,,,,,,,,,,,,,,,,,,,,,,,,,,,,,,,,,,,,,,,,,,,,,,,,,,,,,,,,,,,,,,,,,,,,,,,,,,,,,,,,,,,,,,,,,,,,,,,,,
1702547478,1702547478,97,0,4272.94873,4333.077148,4330.128418,4313.461426,4350.897461,4401.153809,4258.077148,4264.102539,3948.846191,4147.820313,4202.436035,4406.410156,4407.436035,4242.05127,2176,3,69,,,,0,4,4,4,4,4,4,4,4,4,4,4,4,4,4,100,,,,,,,,,,,,,,,,,,,,,,,,,,,,,,,,,,,,,,,,,,,,,,,,,,,,,,,,,,,,,,,,,,,,,,,,,,,,,,,,,,,,,,,,,,,,,,,,,,,,,,,,,,,,,,,,,,,,,,,,,,,,,,,,,,,,,,
1702547478,1702547478,98,0,4302.563965,4353.205078,4349.487305,4339.871582,4333.205078,4419.487305,4285.384766,4281.666504,3971.281982,4164.358887,4249.358887,4415,4451.922852,4271.794922,5983,3,69,,,,0,4,4,4,4,4,4,4,4,4,4,4,4,4,4,100,,,,,,,,,,,,,,,,,,,,,,,,,,,,,,,,,,,,,,,,,,,,,,,,,,,,,,,,,,,,,,,,,,,,,,,,,,,,,,,,,,,,,,,,,,,,,,,,,,,,,,,,,,,,,,,,,,,,,,,,,,,,,,,,,,,,,,
1702547478,1702547478,99,0,4287.05127,4342.307617,4335.128418,4324.230957,4346.666504,4417.436035,4270.384766,4271.025879,3964.615479,4170.641113,4223.077148,4403.077148,4445.769043,4247.692383,6077,3,69,,,,0,4,4,4,4,4,4,4,4,4,4,4,4,4,4,100,,,,,,,,,,,,,,,,,,,,,,,,,,,,,,,,,,,,,,,,,,,,,,,,,,,,,,,,,,,,,,,,,,,,,,,,,,,,,,,,,,,,,,,,,,,,,,,,,,,,,,,,,,,,,,,,,,,,,,,,,,,,,,,,,,,,,,
1702547478,1702547478,100,0,4268.077148,4318.974121,4320.512695,4315.897461,4393.205078,4422.05127,4257.94873,4261.025879,3938.846191,4178.077148,4206.794922,4399.615234,4434.871582,4228.974121,6578,3,69,,,,0,4,4,4,4,4,4,4,4,4,4,4,4,4,4,100,,,,,,,,,,,,,,,,,25,0,0.67348,-0.491943,-0.432007,-0.343201,0.906361,-0.357466,0.139177,-11.564305,-0.536158,87.522072,,,,,,,,,,,,,,,,,,,,,,,,,,,,,,,,,,,,,,,,,,,,,,,,,,,,,,,,,,,,,,,,,,,,,,,,,,,,,,,,,,,,,,,,,,,,,,,,,,,,,,,,,,
1702547478,1702547478,101,0,4286.025879,4319.358887,4334.102539,4340,4379.358887,4437.436035,4273.589844,4269.871582,3889.230713,4187.94873,4246.794922,4410.897461,4461.410156,4255.384766,2176,3,69,,,,0,4,4,4,4,4,4,4,4,4,4,4,4,4,4,100,,,,,,,,,,,,,,,,,,,,,,,,,,,,,,,,,,,,,,,,,,,,,,,,,,,,,,,,,,,,,,,,,,,,,,,,,,,,,,,,,,,,,,,,,,,,,,,,,,,,,,,,,,,,,,,,,,,,,,,,,,,,,,,,,,,,,,
1702547478,1702547478,102,0,4286.282227,4316.538574,4335,4338.205078,4301.025879,4431.025879,4267.563965,4265.512695,3803.718018,4157.307617,4264.230957,4406.153809,4457.94873,4254.871582,5983,3,69,,,,0,4,4,4,4,4,4,4,4,4,4,4,4,4,4,100,,,,,,,,,,,,,,,,,,,,,,,,,,,,,,,,,,,,,,,,,,,,,,,,,,,,,,,,,,,,,,,,,,,,,,,,,,,,,,,,,,,,,,,,,,,,,,,,,,,,,,,,,,,,,,,,,,,,,,,,,,,,,,,,,,,,,,
1702547478,1702547478,103,0,4261.666504,4291.025879,4316.410156,4320.128418,4263.846191,4415.128418,4245.128418,4255.897461,3724.358887,4130.384766,4261.153809,4393.717773,4437.436035,4225.128418,6077,3,69,,,,0,4,4,4,4,4,4,4,4,4,4,4,4,4,4,100,,,,,,,,,,,,,,,,,,,,,,,,,,,,,,,,,,,,,,,,,,,,,,,,,,,,,,,,,,,,,,,,,,,,,,,,,,,,,,,,,,,,,,,,,,,,,,,,,,,,,,,,,,,,,,,,,,,,,,,,,,,,,,,,,,,,,,
1702547478,1702547478,104,0,4260.256348,4273.974121,4312.94873,4329.487305,4280.897461,4421.666504,4246.410156,4260.512695,3672.94873,4165.256348,4291.794922,4396.025879,4464.102539,4225.256348,6578,3,69,,,,0,4,4,4,4,4,4,4,4,4,4,4,4,4,4,100,,,,,,,,,,,,,,,,,26,0,0.673581,-0.491943,-0.431946,-0.343079,0.918081,-0.364302,0.148456,-11.591208,-0.549209,87.403198,,,,,,,,,,,,,,,,,,,,,,,,,,,,,,,,,,,,,,,,,,,,,,,,,,,,,,,,,,,,,,,,,,,,,,,,,,,,,,,,,,,,,,,,,,,,,,,,,,,,,,,,,,
1702547478,1702547478,105,0,4268.846191,4274.358887,4315.769043,4338.461426,4272.436035,4431.538574,4253.461426,4256.025879,3629.615479,4183.589844,4311.922852,4399.743652,4484.230957,4236.153809,2176,3,69,,,,0,4,4,4,4,4,4,4,4,4,4,4,4,4,4,100,,,,,,,,,,,,,,,,,,,,,,,,,,,,,,,,,,,,,,,,,,,,,,,,,,,,,,,,,,,,,,,,,,,,,,,,,,,,,,,,,,,,,,,,,,,,,,,,,,,,,,,,,,,,,,,,,,,,,,,,,,,,,,,,,,,,,,
1702547478,1702547478,106,0,4260.256348,4271.410156,4308.205078,4325.897461,4214.487305,4421.922852,4243.333496,4241.410156,3603.461426,4138.077148,4305.256348,4393.974121,4460.256348,4227.563965,5983,3,69,,,,0,4,4,4,4,4,4,4,4,4,4,4,4,4,4,100,,,,,,,,,,,,,,,,,,,,,,,,,,,,,,,,,,,,,,,,,,,,,,,,,,,,,,,,,,,,,,,,,,,,,,,,,,,,,,,,,,,,,,,,,,,,,,,,,,,,,,,,,,,,,,,,,,,,,,,,,,,,,,,,,,,,,,
