Timestamp,OriginalTimestamp,EEG.Counter,EEG.Interpolated,EEG.AF3,EEG.F7,EEG.F3,EEG.FC5,EEG.T7,EEG.P7,EEG.O1,EEG.O2,EEG.P8,EEG.T8,EEG.FC6,EEG.F4,EEG.F8,EEG.AF4,EEG.RawCq,EEG.Battery,EEG.BatteryPercent,MarkerIndex,MarkerType,MarkerValueInt,EEG.MarkerHardware,CQ.AF3,CQ.F7,CQ.F3,CQ.FC5,CQ.T7,CQ.P7,CQ.O1,CQ.O2,CQ.P8,CQ.T8,CQ.FC6,CQ.F4,CQ.F8,CQ.AF4,CQ.Overall,EQ.SampleRateQuality,EQ.OVERALL,EQ.AF3,EQ.F7,EQ.F3,EQ.FC5,EQ.T7,EQ.P7,EQ.O1,EQ.O2,EQ.P8,EQ.T8,EQ.FC6,EQ.F4,EQ.F8,EQ.AF4,MOT.CounterMems,MOT.InterpolatedMems,MOT.Q0,MOT.Q1,MOT.Q2,MOT.Q3,MOT.AccX,MOT.AccY,MOT.AccZ,MOT.MagX,MOT.MagY,MOT.MagZ,PM.Attention.IsActive,PM.Attention.Scaled,PM.Attention.Raw,PM.Attention.Min,PM.Attention.Max,PM.Engagement.IsActive,PM.Engagement.Scaled,PM.Engagement.Raw,PM.Engagement.Min,PM.Engagement.Max,PM.Excitement.IsActive,PM.Excitement.Scaled,PM.Excitement.Raw,PM.Excitement.Min,PM.Excitement.Max,PM.LongTermExcitement,PM.Stress.IsActive,PM.Stress.Scaled,PM.Stress.Raw,PM.Stress.Min,PM.Stress.Max,PM.Relaxation.IsActive,PM.Relaxation.Scaled,PM.Relaxation.Raw,PM.Relaxation.Min,PM.Relaxation.Max,PM.Interest.IsActive,PM.Interest.Scaled,PM.Interest.Raw,PM.Interest.Min,PM.Interest.Max,PM.Focus.IsActive,PM.Focus.Scaled,PM.Focus.Raw,PM.Focus.Min,PM.Focus.Max,POW.AF3.Theta,POW.AF3.Alpha,POW.AF3.BetaL,POW.AF3.BetaH,POW.AF3.Gamma,POW.F7.Theta,POW.F7.Alpha,POW.F7.BetaL,POW.F7.BetaH,POW.F7.Gamma,POW.F3.Theta,POW.F3.Alpha,POW.F3.BetaL,POW.F3.BetaH,POW.F3.Gamma,POW.FC5.Theta,POW.FC5.Alpha,POW.FC5.BetaL,POW.FC5.BetaH,POW.FC5.Gamma,POW.T7.Theta,POW.T7.Alpha,POW.T7.BetaL,POW.T7.BetaH,POW.T7.Gamma,POW.P7.Theta,POW.P7.Alpha,POW.P7.BetaL,POW.P7.BetaH,POW.P7.Gamma,POW.O1.Theta,POW.O1.Alpha,POW.O1.BetaL,POW.O1.BetaH,POW.O1.Gamma,POW.O2.Theta,POW.O2.Alpha,POW.O2.BetaL,POW.O2.BetaH,POW.O2.Gamma,POW.P8.Theta,POW.P8.Alpha,POW.P8.BetaL,POW.P8.BetaH,POW.P8.Gamma,POW.T8.Theta,POW.T8.Alpha,POW.T8.BetaL,POW.T8.BetaH,POW.T8.Gamma,POW.FC6.Theta,POW.FC6.Alpha,POW.FC6.BetaL,POW.FC6.BetaH,POW.FC6.Gamma,POW.F4.Theta,POW.F4.Alpha,POW.F4.BetaL,POW.F4.BetaH,POW.F4.Gamma,POW.F8.Theta,POW.F8.Alpha,POW.F8.BetaL,POW.F8.BetaH,POW.F8.Gamma,POW.AF4.Theta,POW.AF4.Alpha,POW.AF4.BetaL,POW.AF4.BetaH,POW.AF4.Gamma
,,,,,,,,,,,,,,,,,,,,,,,,,,,,,,,,,,,,,,,,,,,,,,,,,,,,,,,,,,,,,,,,,,,,,,,,,,,,,,,,,,,,,,,,,,,,,,,,,,,,,,,,,,,,,,,,,,,,,,,,,,,,,,,,,,,,,,,,,,,,,,,,,,,,,,,,,,,,,,,,,,,,,,,,,,,,,
1702547652,1702547653,19,0,4326.666504,4428.333496,4278.205078,4400.384766,4386.538574,4268.077148,4229.871582,4299.615234,4164.871582,4297.179688,4405.641113,4423.077148,4455.384766,4378.333496,0,3,69,,,,0,4,4,4,4,4,4,4,4,4,4,4,4,4,4,100,,,,,,,,,,,,,,,,,,,,,,,,,,,,,,,,,,,,,,,,,,,,,,,,,,,,,,,,,,,,,,,,,,,,,,,,,,,,,,,,,,,,,,,,,,,,,,,,,,,,,,,,,,,,,,,,,,,,,,,,,,,,,,,,,,,,,,
1702547652,1702547653,20,0,4327.436035,4426.538574,4279.871582,4404.358887,4385.641113,4273.589844,4225.641113,4293.974121,4156.410156,4278.717773,4411.794922,4422.436035,4462.436035,4387.94873,0,3,69,,,,0,4,4,4,4,4,4,4,4,4,4,4,4,4,4,100,,,,,,,,,,,,,,,,,5,0,0.660914,-0.499084,-0.425781,-0.364441,0.917592,-0.358442,0.158711,-10.415544,-3.509307,89.319603,,,,,,,,,,,,,,,,,,,,,,,,,,,,,,,,,,,,,,,,,,,,,,,,,,,,,,,,,,,,,,,,,,,,,,,,,,,,,,,,,,,,,,,,,,,,,,,,,,,,,,,,,,
1702547652,1702547653,21,0,4324.871582,4431.922852,4295.128418,4413.846191,4333.461426,4287.307617,4235.384766,4305.641113,4170,4307.94873,4429.358887,4426.538574,4470.769043,4387.94873,0,3,69,,,,0,4,4,4,4,4,4,4,4,4,4,4,4,4,4,100,,,,,,,,,,,,,,,,,,,,,,,,,,,,,,,,,,,,,,,,,,,,,,,,,,,,,,,,,,,,,,,,,,,,,,,,,,,,,,,,,,,,,,,,,,,,,,,,,,,,,,,,,,,,,,,,,,,,,,,,,,,,,,,,,,,,,,
1702547652,1702547653,22,0,4331.794922,4432.563965,4300.512695,4413.077148,4354.615234,4300.384766,4236.922852,4310.897461,4173.717773,4290.512695,4448.846191,4428.717773,4481.538574,4398.461426,0,3,69,,,,0,4,4,4,4,4,4,4,4,4,4,4,4,4,4,100,,,,,,,,,,,,,,,,,,,,,,,,,,,,,,,,,,,,,,,,,,,,,,,,,,,,,,,,,,,,,,,,,,,,,,,,,,,,,,,,,,,,,,,,,,,,,,,,,,,,,,,,,,,,,,,,,,,,,,,,,,,,,,,,,,,,,,
1702547652,1702547653,23,0,4325.384766,4411.282227,4293.846191,4396.794922,4384.102539,4304.102539,4233.077148,4306.794922,4173.846191,4255.512695,4448.846191,4425,4476.922852,4406.153809,0,3,69,,,,0,4,4,4,4,4,4,4,4,4,4,4,4,4,4,100,,,,,,,,,,,,,,,,,,,,,,,,,,,,,,,,,,,,,,,,,,,,,,,,,,,,,,,,,,,,,,,,,,,,,,,,,,,,,,,,,,,,,,,,,,,,,,,,,,,,,,,,,,,,,,,,,,,,,,,,,,,,,,,,,,,,,,
1702547652,1702547653,24,0,4315,4399.230957,4304.743652,4392.05127,4374.487305,4306.025879,4243.077148,4313.589844,4188.077148,4304.358887,4448.589844,4429.102539,4472.820313,4375.512695,0,3,69,,,,0,4,4,4,4,4,4,4,4,4,4,4,4,4,4,100,,,,,,,,,,,,,,,,,6,0,0.66103,-0.498901,-0.426025,-0.364197,0.918081,-0.329142,0.147967,-10.357323,-3.425043,89.320976,,,,,,,,,,,,,,,,,,,,,,,,,,,,,,,,,,,,,,,,,,,,,,,,,,,,,,,,,,,,,,,,,,,,,,,,,,,,,,,,,,,,,,,,,,,,,,,,,,,,,,,,,,
1702547652,1702547653,25,0,4345.128418,4428.205078,4327.05127,4414.871582,4387.94873,4307.820313,4251.025879,4319.358887,4195.769043,4340.769043,4471.410156,4437.436035,4497.179688,4370.512695,0,3,69,,,,0,4,4,4,4,4,4,4,4,4,4,4,4,4,4,100,,,,,,,,,,,,,,,,,,,,,,,,,,,,,,,,,,,,,,,,,,,,,,,,,,,,,,,,,,,,,,,,,,,,,,,,,,,,,,,,,,,,,,,,,,,,,,,,,,,,,,,,,,,,,,,,,,,,,,,,,,,,,,,,,,,,,,
1702547652,1702547653,26,0,4372.307617,4450.769043,4324.230957,4438.205078,4390.641113,4303.461426,4241.282227,4313.333496,4185.769043,4288.077148,4485.897461,4431.922852,4515.512695,4427.692383,0,3,69,,,,0,4,4,4,4,4,4,4,4,4,4,4,4,4,4,100,,,,,,,,,,,,,,,,,,,,,,,,,,,,,,,,,,,,,,,,,,,,,,,,,,,,,,,,,,,,,,,,,,,,,,,,,,,,,,,,,,,,,,,,,,,,,,,,,,,,,,,,,,,,,,,,,,,,,,,,,,,,,,,,,,,,,,
1702547652,1702547653,27,0,4346.282227,4426.922852,4298.077148,4431.282227,4371.794922,4291.025879,4226.666504,4304.358887,4176.794922,4267.05127,4470.897461,4418.717773,4501.794922,4447.307617,0,3,69,,,,0,4,4,4,4,4,4,4,4,4,4,4,4,4,4,100,,,,,,,,,,,,,,,,,,,,,,,,,,,,,,,,,,,,,,,,,,,,,,,,,,,,,,,,,,,,,,,,,,,,,,,,,,,,,,,,,,,,,,,,,,,,,,,,,,,,,,,,,,,,,,,,,,,,,,,,,,,,,,,,,,,,,,
1702547652,1702547653,28,0,4322.307617,4413.205078,4288.461426,4415.641113,4375,4287.692383,4227.563965,4305.384766,4181.282227,4327.179688,4464.615234,4418.077148,4498.717773,4412.820313,0,3,69,,,,0,4,4,4,4,4,4,4,4,4,4,4,4,4,4,100,,,,,,,,,,,,,,,,,7,0,0.660973,-0.498596,-0.426575,-0.364075,0.913686,-0.354047,0.147479,-10.388257,-3.382539,89.405548,,,,,,,,,,,,,,,,,,,,,,,,,,,,,,,,,,,,,,,,,,,,,,,,,,,,,,,,,,,,,,,,,,,,,,,,,,,,,,,,,,,,,,,,,,,,,,,,,,,,,,,,,,
1702547652,1702547653,29,0,4331.794922,4436.538574,4301.282227,4419.487305,4366.666504,4301.922852,4231.538574,4309.102539,4185.256348,4325.256348,4478.589844,4422.179688,4516.410156,4412.436035,0,3,69,,,,0,4,4,4,4,4,4,4,4,4,4,4,4,4,4,100,,,,,,,,,,,,,,,,,,,,,,,,,,,,,,,,,,,,,,,,,,,,,,,,,,,,,,,,,,,,,,,,,,,,,,,,,,,,,,,,,,,,,,,,,,,,,,,,,,,,,,,,,,,,,,,,,,,,,,,,,,,,,,,,,,,,,,
1702547652,1702547653,30,0,4344.615234,4455.512695,4310.256348,4432.307617,4351.153809,4311.410156,4222.179688,4298.717773,4170.128418,4249.230957,4478.333496,4421.666504,4522.563965,4428.333496,0,3,69,,,,0,4,4,4,4,4,4,4,4,4,4,4,4,4,4,100,1,16.666666,3,1,1,1,1,0,1,4,3,1,1,4,1,3,,,,,,,,,,,,,,,,,,,,,,,,,,,,,,,,,,,,,,,,,,,,,,,,,2.495326,2.434401,0.538578,1.828258,0.786753,4.503865,1.615578,0.787538,0.507393,0.61147,4.204513,1.63468,0.714231,0.740734,0.664452,3.452439,1.780275,1.036362,0.807213,0.615128,3.44878,1.910922,6.637007,9.577719,11.915988,24.919588,4.691098,0.882387,0.54069,0.535335,2.388124,1.191265,0.764788,0.372035,0.418399,0.750955,0.591427,0.272935,0.251321,0.262481,14.303912,4.559477,0.92585,0.670704,0.440207,2.584663,1.137816,0.574468,3.623405,3.658053,18.594694,4.939556,0.651732,0.792969,1.118139,0.303314,0.192642,0.081295,0.119391,0.147336,47.393948,5.213703,2.855333,1.445312,1.071904,6.662349,4.267919,0.947,1.678825,0.729198
1702547652,1702547653,31,0,4362.94873,4480.641113,4315.384766,4439.487305,4369.743652,4307.179688,4217.563965,4291.922852,4163.333496,4251.410156,4465.897461,4422.820313,4531.153809,4421.666504,0,3,69,,,,0,4,4,4,4,4,4,4,4,4,4,4,4,4,4,100,,,,,,,,,,,,,,,,,,,,,,,,,,,,,,,,,,,,,,,,,,,,,,,,,,,,,,,,,,,,,,,,,,,,,,,,,,,,,,,,,,,,,,,,,,,,,,,,,,,,,,,,,,,,,,,,,,,,,,,,,,,,,,,,,,,,,,
1702547652,1702547653,32,0,4399.487305,4544.871582,4336.410156,4457.05127,4385.897461,4315.641113,4229.871582,4307.179688,4192.436035,4330.512695,4480.256348,4428.974121,4564.743652,4456.538574,0,3,69,,,,0,4,4,4,4,4,4,4,4,4,4,4,4,4,4,100,,,,,,,,,,,,,,,,,8,0,0.660634,-0.498596,-0.427307,-0.363831,0.931266,-0.350629,0.151386,-10.466098,-3.344285,89.398323,,,,,,,,,,,,,,,,,,,,,,,,,,,,,,,,,,,,,,,,,,,,,,,,,,,,,,,,,,,,,,,,,,,,,,,,,,,,,,,,,,,,,,,,,,,,,,,,,,,,,,,,,,
1702547652,1702547653,33,0,4442.820313,4618.333496,4375.384766,4491.025879,4389.743652,4340.128418,4238.461426,4319.615234,4213.846191,4326.666504,4510.897461,4440.512695,4604.230957,4520.128418,0,3,69,,,,0,4,4,4,4,4,4,4,4,4,4,4,4,4,4,100,,,,,,,,,,,,,,,,,,,,,,,,,,,,,,,,,,,,,,,,,,,,,,,,,,,,,,,,,,,,,,,,,,,,,,,,,,,,,,,,,,,,,,,,,,,,,,,,,,,,,,,,,,,,,,,,,,,,,,,,,,,,,,,,,,,,,,
1702547652,1702547653,34,0,4506.025879,4686.538574,4407.05127,4536.282227,4403.846191,4347.05127,4233.717773,4311.666504,4204.743652,4244.358887,4526.025879,4448.974121,4639.743652,4551.153809,0,3,69,,,,0,4,4,4,4,4,4,4,4,4,4,4,4,4,4,100,,,,,,,,,,,,,,,,,,,,,,,,,,,,,,,,,,,,,,,,,,,,,,,,,,,,,,,,,,,,,,,,,,,,,,,,,,,,,,,,,,,,,,,,,,,,,,,,,,,,,,,,,,,,,,,,,,,,,,,,,,,,,,,,,,,,,,
1702547652,1702547653,35,0,4561.666504,4743.974121,4421.922852,4568.461426,4404.871582,4340.128418,4231.794922,4308.717773,4202.94873,4264.615234,4528.974121,4448.333496,4665.128418,4579.102539,0,3,69,,,,0,4,4,4,4,4,4,4,4,4,4,4,4,4,4,100,,,,,,,,,,,,,,,,,,,,,,,,,,,,,,,,,,,,,,,,,,,,,,,,,,,,,,,,,,,,,,,,,,,,,,,,,,,,,,,,,,,,,,,,,,,,,,,,,,,,,,,,,,,,,,,,,,,,,,,,,,,,,,,,,,,,,,
1702547652,1702547653,36,0,4553.333496,4753.205078,4434.102539,4552.179688,4402.692383,4348.974121,4230.128418,4307.94873,4203.333496,4333.589844,4523.205078,4448.974121,4670.512695,4597.94873,0,3,69,,,,0,4,4,4,4,4,4,4,4,4,4,4,4,4,4,100,,,,,,,,,,,,,,,,,9,0,0.660292,-0.498413,-0.428101,-0.36377,0.919057,-0.332072,0.141131,-10.486155,-3.309857,89.391823,,,,,,,,,,,,,,,,,,,,,,,,,,,,,,,,,,,,,,,,,,,,,,,,,,,,,,,,,,,,,,,,,,,,,,,,,,,,,,,,,,,,,,,,,,,,,,,,,,,,,,,,,,
1702547652,1702547653,37,0,4537.307617,4743.589844,4442.692383,4543.461426,4414.102539,4364.743652,4226.538574,4297.692383,4185.384766,4281.538574,4508.846191,4453.846191,4662.563965,4583.974121,0,3,69,,,,0,4,4,4,4,4,4,4,4,4,4,4,4,4,4,100,,,,,,,,,,,,,,,,,,,,,,,,,,,,,,,,,,,,,,,,,,,,,,,,,,,,,,,,,,,,,,,,,,,,,,,,,,,,,,,,,,,,,,,,,,,,,,,,,,,,,,,,,,,,,,,,,,,,,,,,,,,,,,,,,,,,,,
1702547652,1702547653,38,0,4579.871582,4773.333496,4439.615234,4599.615234,4429.358887,4371.282227,4228.333496,4298.461426,4181.025879,4240,4511.410156,4454.743652,4664.743652,4600.384766,0,3,69,,,,0,4,4,4,4,4,4,4,4,4,4,4,4,4,4,100,,,,,,,,,,,,,,,,,,,,,,,,,,,,,,,,,,,,,,,,,,,,,,,,,,,,,,,,,,,,,,,,,,,,,,,,,,,,,,,,,,,,,,,,,,,,,,,,,,,,,,,,,,,,,,,,,,,,,,,,,,,,,,,,,,,,,,
1702547652,1702547653,39,0,4596.922852,4791.025879,4426.666504,4631.794922,4438.846191,4367.820313,4225.384766,4305,4192.563965,4302.563965,4531.282227,4447.436035,4669.615234,4639.230957,0,3,69,,,,0,4,4,4,4,4,4,4,4,4,4,4,4,4,4,100,,,,,,,,,,,,,,,,,,,,,,,,,,,,,,,,,,,,,,,,,,,,,,,,,,,,,,,,,,,,,,,,,,,,,,,,,,,,,,,,,,,,,,,,,,,,,,,,,,,,,,,,,,,,,,,,,,,,,,,,,,,,,,,,,,,,,,
1702547652,1702547653,40,0,4541.410156,4739.487305,4403.717773,4586.282227,4426.282227,4361.666504,4213.974121,4299.358887,4179.102539,4306.794922,4531.282227,4438.717773,4654.743652,4611.666504,0,3,69,,,,0,4,4,4,4,4,4,4,4,4,4,4,4,4,4,100,,,,,,,,,,,,,,,,,10,0,0.659828,-0.497803,-0.428955,-0.364441,0.917104,-0.340374,0.152851,-10.537539,-3.262204,89.402641,,,,,,,,,,,,,,,,,,,,,,,,,,,,,,,,,,,,,,,,,,,,,,,,,,,,,,,,,,,,,,,,,,,,,,,,,,,,,,,,,,,,,,,,,,,,,,,,,,,,,,,,,,
1702547652,1702547653,41,0,4494.487305,4670.256348,4376.025879,4549.102539,4398.974121,4357.307617,4205.128418,4287.436035,4155,4226.410156,4518.077148,4434.358887,4634.358887,4553.974121,0,3,69,,,,0,4,4,4,4,4,4,4,4,4,4,4,4,4,4,100,,,,,,,,,,,,,,,,,,,,,,,,,,,,,,,,,,,,,,,,,,,,,,,,,,,,,,,,,,,,,,,,,,,,,,,,,,,,,,,,,,,,,,,,,,,,,,,,,,,,,,,,,,,,,,,,,,,,,,,,,,,,,,,,,,,,,,
1702547652,1702547653,42,0,4473.589844,4622.692383,4354.358887,4539.230957,4404.230957,4356.282227,4197.307617,4281.025879,4150.512695,4220.897461,4521.794922,4429.102539,4625.769043,4525.384766,0,3,69,,,,0,4,4,4,4,4,4,4,4,4,4,4,4,4,4,100,,,,,,,,,,,,,,,,,,,,,,,,,,,,,,,,,,,,,,,,,,,,,,,,,,,,,,,,,,,,,,,,,,,,,,,,,,,,,,,,,,,,,,,,,,,,,,,,,,,,,,,,,,,,,,,,,,,,,,,,,,,,,,,,,,,,,,
1702547652,1702547653,43,0,4425.769043,4571.282227,4339.102539,4506.025879,4415,4356.794922,4186.538574,4278.205078,4151.538574,4265.769043,4521.410156,4423.846191,4623.205078,4486.538574,0,3,69,,,,0,4,4,4,4,4,4,4,4,4,4,4,4,4,4,100,,,,,,,,,,,,,,,,,,,,,,,,,,,,,,,,,,,,,,,,,,,,,,,,,,,,,,,,,,,,,,,,,,,,,,,,,,,,,,,,,,,,,,,,,,,,,,,,,,,,,,,,,,,,,,,,,,,,,,,,,,,,,,,,,,,,,,
1702547652,1702547653,44,0,4387.179688,4524.358887,4322.692383,4483.333496,4388.974121,4358.333496,4183.974121,4278.846191,4149.615234,4261.794922,4509.615234,4423.461426,4616.153809,4451.153809,0,3,69,,,,0,4,4,4,4,4,4,4,4,4,4,4,4,4,4,100,,,,,,,,,,,,,,,,,11,0,0.659525,-0.49762,-0.429321,-0.364807,0.923453,-0.345745,0.149432,-10.450452,-3.335984,89.329048,,,,,,,,,,,,,,,,,,,,,,,,,,,,,,,,,,,,,,,,,,,,,,,,,,,,,,,,,,,,,,,,,,,,,,,,,,,,,,,,,,,,,,,,,,,,,,,,,,,,,,,,,,
1702547652,1702547653,45,0,4391.025879,4502.307617,4306.922852,4491.153809,4375.128418,4357.94873,4185.769043,4280.769043,4147.436035,4245.128418,4513.974121,4423.846191,4616.538574,4453.974121,0,3,69,,,,0,4,4,4,4,4,4,4,4,4,4,4,4,4,4,100,,,,,,,,,,,,,,,,,,,,,,,,,,,,,,,,,,,,,,,,,,,,,,,,,,,,,,,,,,,,,,,,,,,,,,,,,,,,,,,,,,,,,,,,,,,,,,,,,,,,,,,,,,,,,,,,,,,,,,,,,,,,,,,,,,,,,,
1702547653,1702547653,46,0,4388.974121,4486.153809,4294.358887,4491.025879,4398.846191,4354.102539,4181.282227,4280.256348,4145.641113,4247.05127,4523.461426,4421.025879,4627.820313,4446.794922,0,3,69,,,,0,4,4,4,4,4,4,4,4,4,4,4,4,4,4,100,,,,,,,,,,,,,,,,,,,,,,,,,,,,,,,,,,,,,,,,,,,,,,,,,,,,,,,,,,,,,,,,,2.210001,1.767707,0.472378,1.859787,0.681988,4.417607,1.901748,0.913325,0.532891,0.629531,4.350191,1.383825,0.721997,0.780857,0.756087,3.166822,1.498872,1.055222,0.817401,0.650526,3.208782,1.840119,7.178094,9.386454,12.737468,31.711689,5.265217,1.279841,0.806194,0.63529,2.043337,1.195456,0.937669,0.386979,0.445041,0.598707,0.658581,0.35106,0.293413,0.297484,22.716797,6.446777,1.410423,0.958481,0.518627,2.947728,1.322199,0.541253,3.750078,3.900662,17.695471,4.902329,0.636039,0.905112,1.074268,0.302288,0.157374,0.095641,0.13999,0.159927,83.410934,6.99875,4.183281,2.06973,1.314338,8.224586,4.260272,0.965143,1.989998,0.689983
1702547653,1702547653,47,0,4365.512695,4462.05127,4283.205078,4477.563965,4419.871582,4347.436035,4173.205078,4280.128418,4146.794922,4242.05127,4513.205078,4415.897461,4621.153809,4416.410156,0,3,69,,,,0,4,4,4,4,4,4,4,4,4,4,4,4,4,4,100,,,,,,,,,,,,,,,,,,,,,,,,,,,,,,,,,,,,,,,,,,,,,,,,,,,,,,,,,,,,,,,,,,,,,,,,,,,,,,,,,,,,,,,,,,,,,,,,,,,,,,,,,,,,,,,,,,,,,,,,,,,,,,,,,,,,,,
1702547653,1702547653,48,0,4346.153809,4438.846191,4270.769043,4464.615234,4385.128418,4340.641113,4162.820313,4277.179688,4151.666504,4222.563965,4499.743652,4411.538574,4593.461426,4402.307617,0,3,69,,,,0,4,4,4,4,4,4,4,4,4,4,4,4,4,4,100,,,,,,,,,,,,,,,,,12,0,0.658931,-0.497192,-0.430054,-0.365601,0.920034,-0.346234,0.146502,-10.33874,-3.285719,89.346138,,,,,,,,,,,,,,,,,,,,,,,,,,,,,,,,,,,,,,,,,,,,,,,,,,,,,,,,,,,,,,,,,,,,,,,,,,,,,,,,,,,,,,,,,,,,,,,,,,,,,,,,,,
1702547653,1702547653,49,0,4330,4420.256348,4256.153809,4450.128418,4347.563965,4343.974121,4159.102539,4271.538574,4155.512695,4206.922852,4494.743652,4407.820313,4570.769043,4400.512695,0,3,69,,,,0,4,4,4,4,4,4,4,4,4,4,4,4,4,4,100,,,,,,,,,,,,,,,,,,,,,,,,,,,,,,,,,,,,,,,,,,,,,,,,,,,,,,,,,,,,,,,,,,,,,,,,,,,,,,,,,,,,,,,,,,,,,,,,,,,,,,,,,,,,,,,,,,,,,,,,,,,,,,,,,,,,,,
1702547653,1702547653,50,0,4325.384766,4414.743652,4254.487305,4445.256348,4381.538574,4357.820313,4167.436035,4273.717773,4166.153809,4224.487305,4494.743652,4407.692383,4563.589844,4395.897461,0,3,69,,,,0,4,4,4,4,4,4,4,4,4,4,4,4,4,4,100,,,,,,,,,,,,,,,,,,,,,,,,,,,,,,,,,,,,,,,,,,,,,,,,,,,,,,,,,,,,,,,,,,,,,,,,,,,,,,,,,,,,,,,,,,,,,,,,,,,,,,,,,,,,,,,,,,,,,,,,,,,,,,,,,,,,,,
1702547653,1702547653,51,0,4340.128418,4416.922852,4270.512695,4456.025879,4415,4366.410156,4173.461426,4281.794922,4183.461426,4259.102539,4505.897461,4414.743652,4565,4394.871582,0,3,69,,,,0,4,4,4,4,4,4,4,4,4,4,4,4,4,4,100,,,,,,,,,,,,,,,,,,,,,,,,,,,,,,,,,,,,,,,,,,,,,,,,,,,,,,,,,,,,,,,,,,,,,,,,,,,,,,,,,,,,,,,,,,,,,,,,,,,,,,,,,,,,,,,,,,,,,,,,,,,,,,,,,,,,,,
1702547653,1702547653,52,0,4350.897461,4404.615234,4282.05127,4466.282227,4396.666504,4368.717773,4169.102539,4283.589844,4190.897461,4258.846191,4522.05127,4420.128418,4573.717773,4402.436035,0,3,69,,,,0,4,4,4,4,4,4,4,4,4,4,4,4,4,4,100,,,,,,,,,,,,,,,,,13,0,0.658293,-0.496826,-0.430725,-0.366455,0.916127,-0.33256,0.147967,-10.238199,-3.273814,89.328194,,,,,,,,,,,,,,,,,,,,,,,,,,,,,,,,,,,,,,,,,,,,,,,,,,,,,,,,,,,,,,,,,,,,,,,,,,,,,,,,,,,,,,,,,,,,,,,,,,,,,,,,,,
1702547653,1702547653,53,0,4340.641113,4389.102539,4278.589844,4463.717773,4389.487305,4369.487305,4162.563965,4277.692383,4183.461426,4228.077148,4522.436035,4420.769043,4579.358887,4403.205078,0,3,69,,,,0,4,4,4,4,4,4,4,4,4,4,4,4,4,4,100,,,,,,,,,,,,,,,,,,,,,,,,,,,,,,,,,,,,,,,,,,,,,,,,,,,,,,,,,,,,,,,,,,,,,,,,,,,,,,,,,,,,,,,,,,,,,,,,,,,,,,,,,,,,,,,,,,,,,,,,,,,,,,,,,,,,,,
1702547653,1702547653,54,0,4340.512695,4397.563965,4277.692383,4462.307617,4407.820313,4372.307617,4168.077148,4282.94873,4174.230957,4214.615234,4521.666504,4419.230957,4581.922852,4395.641113,0,3,69,,,,0,4,4,4,4,4,4,4,4,4,4,4,4,4,4,100,,,,,,,,,,,,,,,,,,,,,,,,,,,,,,,,,,,,,,,,,,,,,,,,,,,,,,,,,,,,,,,,,,,,,,,,,,,,,,,,,,,,,,,,,,,,,,,,,,,,,,,,,,,,,,,,,,,,,,,,,,,,,,,,,,,,,,
1702547653,1702547653,55,0,4350.512695,4403.846191,4280.641113,4465.384766,4385.384766,4374.487305,4177.179688,4290,4174.487305,4228.205078,4533.077148,4418.461426,4587.94873,4387.820313,0,3,69,,,,0,4,4,4,4,4,4,4,4,4,4,4,4,4,4,100,,,,,,,,,,,,,,,,,,,,,,,,,,,,,,,,,,,,,,,,,,,,,,,,,,,,,,,,,,,,,,,,,,,,,,,,,,,,,,,,,,,,,,,,,,,,,,,,,,,,,,,,,,,,,,,,,,,,,,,,,,,,,,,,,,,,,,
1702547653,1702547653,56,0,4331.410156,4375.641113,4266.538574,4453.717773,4368.717773,4367.05127,4160.128418,4275.256348,4167.05127,4237.563965,4527.563965,4412.692383,4575,4364.615234,0,3,69,,,,0,4,4,4,4,4,4,4,4,4,4,4,4,4,4,100,,,,,,,,,,,,,,,,,14,0,0.657457,-0.496643,-0.431641,-0.367126,0.919057,-0.321328,0.144549,-10.281046,-3.279766,89.328705,,,,,,,,,,,,,,,,,,,,,,,,,,,,,,,,,,,,,,,,,,,,,,,,,,,,,,,,,,,,,,,,,,,,,,,,,,,,,,,,,,,,,,,,,,,,,,,,,,,,,,,,,,
1702547653,1702547653,57,0,4309.743652,4360.256348,4260,4436.666504,4381.666504,4355.897461,4136.538574,4261.794922,4149.615234,4222.307617,4518.974121,4405.769043,4565.512695,4344.230957,0,3,69,,,,0,4,4,4,4,4,4,4,4,4,4,4,4,4,4,100,,,,,,,,,,,,,,,,,,,,,,,,,,,,,,,,,,,,,,,,,,,,,,,,,,,,,,,,,,,,,,,,,,,,,,,,,,,,,,,,,,,,,,,,,,,,,,,,,,,,,,,,,,,,,,,,,,,,,,,,,,,,,,,,,,,,,,
1702547653,1702547653,58,0,4327.436035,4381.794922,4280,4445.897461,4368.333496,4362.692383,4146.794922,4275.769043,4150.512695,4222.563965,4537.820313,4410.897461,4594.615234,4356.538574,0,3,69,,,,0,4,4,4,4,4,4,4,4,4,4,4,4,4,4,100,,,,,,,,,,,,,,,,,,,,,,,,,,,,,,,,,,,,,,,,,,,,,,,,,,,,,,,,,,,,,,,,,,,,,,,,,,,,,,,,,,,,,,,,,,,,,,,,,,,,,,,,,,,,,,,,,,,,,,,,,,,,,,,,,,,,,,
1702547653,1702547653,59,0,4341.666504,4392.94873,4285.128418,4462.692383,4363.589844,4376.922852,4158.461426,4285.384766,4159.615234,4242.820313,4540.512695,4412.05127,4604.487305,4364.487305,0,3,69,,,,0,4,4,4,4,4,4,4,4,4,4,4,4,4,4,100,,,,,,,,,,,,,,,,,,,,,,,,,,,,,,,,,,,,,,,,,,,,,,,,,,,,,,,,,,,,,,,,,,,,,,,,,,,,,,,,,,,,,,,,,,,,,,,,,,,,,,,,,,,,,,,,,,,,,,,,,,,,,,,,,,,,,,
1702547653,1702547653,60,0,4313.205078,4377.436035,4266.282227,4449.487305,4360.897461,4372.05127,4142.94873,4269.743652,4152.94873,4221.538574,4519.358887,4402.436035,4572.820313,4335.256348,0,3,69,,,,0,4,4,4,4,4,4,4,4,4,4,4,4,4,4,100,,,,,,,,,,,,,,,,,15,0,0.656951,-0.496216,-0.432434,-0.367676,0.923941,-0.327677,0.146502,-10.469608,-3.235122,89.395836,,,,,,,,,,,,,,,,,,,,,,,,,,,,,,,,,,,,,,,,,,,,,,,,,,,,,,,,,,,,,,,,,,,,,,,,,,,,,,,,,,,,,,,,,,,,,,,,,,,,,,,,,,
1702547653,1702547653,61,0,4297.05127,4363.205078,4257.307617,4429.871582,4353.717773,4361.666504,4134.102539,4261.538574,4147.307617,4177.94873,4507.05127,4400.769043,4567.692383,4313.461426,0,3,69,,,,0,4,4,4,4,4,4,4,4,4,4,4,4,4,4,100,,,,,,,,,,,,,,,,,,,,,,,,,,,,,,,,,,,,,,,,,,,,,,,,,,,,,,,,,,,,,,,,,,,,,,,,,,,,,,,,,,,,,,,,,,,,,,,,,,,,,,,,,,,,,,,,,,,,,,,,,,,,,,,,,,,,,,
1702547653,1702547653,62,0,4309.615234,4358.461426,4261.410156,4428.205078,4382.820313,4366.666504,4143.205078,4275,4161.666504,4201.666504,4455.512695,4407.05127,4583.333496,4320.641113,0,3,69,,,,0,4,4,4,4,4,4,4,4,4,4,4,4,4,4,100,,,,,,,,,,,,,,,,,,,,,,,,,,,,,,,,,,,,,,,,,,,,,,,,,,,,,,,,,,,,,,,,,2.479812,1.671523,0.514889,1.89418,0.610632,5.718535,2.994951,1.196761,0.604057,0.642824,4.457324,1.321803,0.83767,0.868779,0.807404,3.102203,1.476442,1.100206,0.858767,0.686948,2.825454,1.751176,7.10953,8.683444,12.712358,53.87553,7.734091,1.94308,1.227439,0.738777,1.857907,1.138296,1.082284,0.422802,0.449665,0.546917,0.705037,0.431925,0.355056,0.321531,31.675922,8.273153,2.011998,1.31833,0.598509,3.344189,1.461171,0.543436,4.075483,4.451631,20.213182,5.259892,0.747317,1.13683,1.008998,0.308443,0.16077,0.113369,0.163637,0.165239,122.51683,8.986806,5.561193,2.76333,1.529998,10.622766,4.619977,1.122376,2.343633,0.67705
1702547653,1702547653,63,0,4303.846191,4354.743652,4265.384766,4423.974121,4388.461426,4365.769043,4149.487305,4282.436035,4175.641113,4242.307617,4361.282227,4411.794922,4582.820313,4319.358887,0,3,69,,,,0,4,4,4,4,4,4,4,4,4,4,4,4,4,4,100,,,,,,,,,,,,,,,,,,,,,,,,,,,,,,,,,,,,,,,,,,,,,,,,,,,,,,,,,,,,,,,,,,,,,,,,,,,,,,,,,,,,,,,,,,,,,,,,,,,,,,,,,,,,,,,,,,,,,,,,,,,,,,,,,,,,,,
1702547653,1702547653,64,0,4284.743652,4348.077148,4258.846191,4405.384766,4342.179688,4341.025879,4143.717773,4271.410156,4163.717773,4216.794922,4301.794922,4406.794922,4576.282227,4296.794922,5480,3,69,,,,0,4,4,4,4,4,4,4,4,4,4,4,4,4,4,100,,,,,,,,,,,,,,,,,16,0,0.656552,-0.495789,-0.433167,-0.368103,0.927359,-0.32963,0.143572,-10.355981,-3.278277,89.40625,,,,,,,,,,,,,,,,,,,,,,,,,,,,,,,,,,,,,,,,,,,,,,,,,,,,,,,,,,,,,,,,,,,,,,,,,,,,,,,,,,,,,,,,,,,,,,,,,,,,,,,,,,
1702547653,1702547653,65,0,4277.179688,4349.358887,4257.692383,4400.641113,4324.230957,4332.307617,4138.205078,4268.589844,4151.666504,4193.589844,4289.743652,4400.128418,4577.692383,4287.05127,5666,3,69,,,,0,4,4,4,4,4,4,4,4,4,4,4,4,4,4,100,,,,,,,,,,,,,,,,,,,,,,,,,,,,,,,,,,,,,,,,,,,,,,,,,,,,,,,,,,,,,,,,,,,,,,,,,,,,,,,,,,,,,,,,,,,,,,,,,,,,,,,,,,,,,,,,,,,,,,,,,,,,,,,,,,,,,,
1702547653,1702547653,66,0,4284.871582,4363.205078,4274.871582,4422.692383,4327.05127,4351.666504,4142.820313,4276.794922,4161.282227,4195.769043,4286.410156,4405.641113,4587.436035,4294.871582,5601,3,69,,,,0,4,4,4,4,4,4,4,4,4,4,4,4,4,4,100,,,,,,,,,,,,,,,,,,,,,,,,,,,,,,,,,,,,,,,,,,,,,,,,,,,,,,,,,,,,,,,,,,,,,,,,,,,,,,,,,,,,,,,,,,,,,,,,,,,,,,,,,,,,,,,,,,,,,,,,,,,,,,,,,,,,,,
1702547653,1702547653,67,0,4300,4370.641113,4281.538574,4436.153809,4348.333496,4355,4143.717773,4271.922852,4161.538574,4181.666504,4280.641113,4412.436035,4601.922852,4296.153809,5504,3,69,,,,0,4,4,4,4,4,4,4,4,4,4,4,4,4,4,100,,,,,,,,,,,,,,,,,,,,,,,,,,,,,,,,,,,,,,,,,,,,,,,,,,,,,,,,,,,,,,,,,,,,,,,,,,,,,,,,,,,,,,,,,,,,,,,,,,,,,,,,,,,,,,,,,,,,,,,,,,,,,,,,,,,,,,
1702547653,1702547653,68,0,4303.205078,4362.307617,4262.692383,4421.794922,4383.205078,4343.974121,4132.94873,4261.666504,4148.205078,4192.179688,4272.692383,4403.846191,4600.384766,4296.794922,5360,3,69,,,,0,4,4,4,4,4,4,4,4,4,4,4,4,4,4,100,,,,,,,,,,,,,,,,,17,0,0.65639,-0.495605,-0.433777,-0.36792,0.941521,-0.330607,0.141131,-10.453716,-3.350449,89.382294,,,,,,,,,,,,,,,,,,,,,,,,,,,,,,,,,,,,,,,,,,,,,,,,,,,,,,,,,,,,,,,,,,,,,,,,,,,,,,,,,,,,,,,,,,,,,,,,,,,,,,,,,,
1702547653,1702547653,69,0,4300.256348,4365.384766,4255.128418,4413.846191,4343.461426,4345.897461,4126.538574,4264.230957,4149.487305,4228.846191,4282.307617,4398.974121,4602.436035,4307.179688,5011,3,69,,,,0,4,4,4,4,4,4,4,4,4,4,4,4,4,4,100,,,,,,,,,,,,,,,,,,,,,,,,,,,,,,,,,,,,,,,,,,,,,,,,,,,,,,,,,,,,,,,,,,,,,,,,,,,,,,,,,,,,,,,,,,,,,,,,,,,,,,,,,,,,,,,,,,,,,,,,,,,,,,,,,,,,,,
1702547653,1702547653,70,0,4295.641113,4370,4264.487305,4414.487305,4300.512695,4349.743652,4122.563965,4262.820313,4145.256348,4204.615234,4294.358887,4406.025879,4615,4302.05127,4762,3,69,,,,0,4,4,4,4,4,4,4,4,4,4,4,4,4,4,100,,,,,,,,,,,,,,,,,,,,,,,,,,,,,,,,,,,,,,,,,,,,,,,,,,,,,,,,,,,,,,,,,,,,,,,,,,,,,,,,,,,,,,,,,,,,,,,,,,,,,,,,,,,,,,,,,,,,,,,,,,,,,,,,,,,,,,
1702547653,1702547653,71,0,4282.179688,4355.897461,4262.179688,4398.205078,4335.512695,4347.692383,4118.333496,4257.436035,4132.05127,4151.794922,4277.692383,4404.615234,4607.05127,4288.846191,3825,3,69,,,,0,4,4,4,4,4,4,4,4,4,4,4,4,4,4,100,,,,,,,,,,,,,,,,,,,,,,,,,,,,,,,,,,,,,,,,,,,,,,,,,,,,,,,,,,,,,,,,,,,,,,,,,,,,,,,,,,,,,,,,,,,,,,,,,,,,,,,,,,,,,,,,,,,,,,,,,,,,,,,,,,,,,,
1702547653,1702547653,72,0,4276.922852,4352.05127,4263.461426,4391.794922,4359.102539,4358.846191,4126.410156,4265.256348,4149.102539,4180.769043,4279.358887,4400.256348,4604.230957,4297.179688,5056,3,69,,,,0,4,4,4,4,4,4,4,4,4,4,4,4,4,4,100,,,,,,,,,,,,,,,,,18,0,0.656341,-0.4953,-0.434509,-0.367554,0.924918,-0.334025,0.136247,-10.391678,-3.232071,89.294067,,,,,,,,,,,,,,,,,,,,,,,,,,,,,,,,,,,,,,,,,,,,,,,,,,,,,,,,,,,,,,,,,,,,,,,,,,,,,,,,,,,,,,,,,,,,,,,,,,,,,,,,,,
1702547653,1702547653,73,0,4282.307617,4361.666504,4264.487305,4401.666504,4332.563965,4363.205078,4126.794922,4262.436035,4160,4207.05127,4298.846191,4402.94873,4610.769043,4295.512695,5444,3,69,,,,0,4,4,4,4,4,4,4,4,4,4,4,4,4,4,100,,,,,,,,,,,,,,,,,,,,,,,,,,,,,,,,,,,,,,,,,,,,,,,,,,,,,,,,,,,,,,,,,,,,,,,,,,,,,,,,,,,,,,,,,,,,,,,,,,,,,,,,,,,,,,,,,,,,,,,,,,,,,,,,,,,,,,
1702547653,1702547653,74,0,4277.307617,4367.307617,4259.871582,4394.871582,4320.769043,4347.563965,4118.461426,4252.820313,4141.794922,4180.128418,4300.897461,4405.769043,4607.692383,4288.717773,5960,3,69,,,,0,4,4,4,4,4,4,4,4,4,4,4,4,4,4,100,,,,,,,,,,,,,,,,,,,,,,,,,,,,,,,,,,,,,,,,,,,,,,,,,,,,,,,,,,,,,,,,,,,,,,,,,,,,,,,,,,,,,,,,,,,,,,,,,,,,,,,,,,,,,,,,,,,,,,,,,,,,,,,,,,,,,,
1702547653,1702547653,75,0,4269.743652,4351.025879,4276.922852,4351.666504,4322.563965,4343.077148,4122.05127,4262.692383,4145,4170.897461,4312.692383,4406.922852,4612.563965,4309.615234,6120,3,69,,,,0,4,4,4,4,4,4,4,4,4,4,4,4,4,4,100,,,,,,,,,,,,,,,,,,,,,,,,,,,,,,,,,,,,,,,,,,,,,,,,,,,,,,,,,,,,,,,,,,,,,,,,,,,,,,,,,,,,,,,,,,,,,,,,,,,,,,,,,,,,,,,,,,,,,,,,,,,,,,,,,,,,,,
1702547653,1702547653,76,0,4276.794922,4326.282227,4293.205078,4335.384766,4331.922852,4345.769043,4122.820313,4267.820313,4156.666504,4179.487305,4327.563965,4404.230957,4618.846191,4317.307617,6619,3,69,,,,0,4,4,4,4,4,4,4,4,4,4,4,4,4,4,100,,,,,,,,,,,,,,,,,19,0,0.655823,-0.494568,-0.435608,-0.368164,0.928336,-0.31498,0.126969,-10.385843,-3.12553,89.264656,,,,,,,,,,,,,,,,,,,,,,,,,,,,,,,,,,,,,,,,,,,,,,,,,,,,,,,,,,,,,,,,,,,,,,,,,,,,,,,,,,,,,,,,,,,,,,,,,,,,,,,,,,
1702547653,1702547653,77,0,4278.077148,4315.769043,4280.384766,4359.487305,4332.05127,4328.717773,4110.256348,4251.538574,4139.871582,4168.333496,4315.897461,4402.692383,4605.128418,4288.974121,2010,3,69,,,,0,4,4,4,4,4,4,4,4,4,4,4,4,4,4,100,,,,,,,,,,,,,,,,,,,,,,,,,,,,,,,,,,,,,,,,,,,,,,,,,,,,,,,,,,,,,,,,,,,,,,,,,,,,,,,,,,,,,,,,,,,,,,,,,,,,,,,,,,,,,,,,,,,,,,,,,,,,,,,,,,,,,,
1702547653,1702547653,78,0,4276.025879,4303.974121,4271.282227,4308.589844,4317.307617,4311.025879,4108.589844,4247.307617,4132.307617,4148.461426,4311.025879,4411.282227,4595.384766,4281.922852,5960,3,69,,,,0,4,4,4,4,4,4,4,4,4,4,4,4,4,4,100,,,,,,,,,,,,,,,,,,,,,,,,,,,,,,,,,,,,,,,,,,,,,,,,,,,,,,,,,,,,,,,,,6.17262,2.637449,0.707297,1.936453,0.593983,14.296273,5.62914,1.6123,0.73424,0.664122,5.451427,1.737458,1.072353,0.977122,0.806502,4.158693,1.856943,1.150333,0.957704,0.728127,2.468362,1.739475,6.419454,7.653419,11.841161,90.388748,11.90575,2.771968,1.755749,0.832889,1.775701,1.036804,1.169477,0.471959,0.433545,0.557294,0.734985,0.496695,0.419724,0.332273,38.981346,9.414153,2.576514,1.656256,0.66705,3.614436,1.494865,0.58983,4.368818,5.328436,23.621361,6.141747,1.001302,1.444674,0.932301,0.344034,0.233315,0.135308,0.184766,0.162025,154.508804,10.688225,6.618277,3.299371,1.645625,14.80444,5.290156,1.376781,2.709996,0.711416
1702547653,1702547653,79,0,4269.230957,4297.820313,4275.256348,4237.692383,4350.512695,4312.307617,4112.179688,4255.128418,4155.256348,4165.897461,4322.563965,4410.641113,4579.871582,4303.846191,6120,3,69,,,,0,4,4,4,4,4,4,4,4,4,4,4,4,4,4,100,,,,,,,,,,,,,,,,,,,,,,,,,,,,,,,,,,,,,,,,,,,,,,,,,,,,,,,,,,,,,,,,,,,,,,,,,,,,,,,,,,,,,,,,,,,,,,,,,,,,,,,,,,,,,,,,,,,,,,,,,,,,,,,,,,,,,,
1702547653,1702547653,80,0,4256.922852,4340.384766,4249.230957,4294.615234,4370.897461,4308.846191,4100.128418,4243.333496,4160.641113,4195.384766,4331.282227,4392.692383,4561.666504,4313.205078,6619,3,69,,,,0,4,4,4,4,4,4,4,4,4,4,4,4,4,4,100,,,,,,,,,,,,,,,,,20,0,0.655683,-0.494385,-0.435974,-0.368225,0.928336,-0.336955,0.1382,-10.513926,-3.112978,89.23819,,,,,,,,,,,,,,,,,,,,,,,,,,,,,,,,,,,,,,,,,,,,,,,,,,,,,,,,,,,,,,,,,,,,,,,,,,,,,,,,,,,,,,,,,,,,,,,,,,,,,,,,,,
1702547653,1702547653,81,0,4250.897461,4392.05127,4210.512695,4396.282227,4314.871582,4288.461426,4088.333252,4227.94873,4147.692383,4176.794922,4320.897461,4390.512695,4532.563965,4293.333496,2010,3,69,,,,0,4,4,4,4,4,4,4,4,4,4,4,4,4,4,100,,,,,,,,,,,,,,,,,,,,,,,,,,,,,,,,,,,,,,,,,,,,,,,,,,,,,,,,,,,,,,,,,,,,,,,,,,,,,,,,,,,,,,,,,,,,,,,,,,,,,,,,,,,,,,,,,,,,,,,,,,,,,,,,,,,,,,
1702547653,1702547653,82,0,4215.128418,4309.871582,4218.205078,4321.153809,4298.077148,4276.922852,4091.666748,4228.077148,4190.769043,4142.820313,4293.589844,4394.871582,4422.05127,4292.179688,5960,3,69,,,,0,4,4,4,4,4,4,4,4,4,4,4,4,4,4,100,,,,,,,,,,,,,,,,,,,,,,,,,,,,,,,,,,,,,,,,,,,,,,,,,,,,,,,,,,,,,,,,,,,,,,,,,,,,,,,,,,,,,,,,,,,,,,,,,,,,,,,,,,,,,,,,,,,,,,,,,,,,,,,,,,,,,,
1702547653,1702547653,83,0,4165.512695,4172.94873,4257.05127,4142.05127,4371.410156,4275.256348,4097.307617,4233.589844,4296.025879,4147.179688,4313.846191,4379.102539,4293.717773,4384.102539,6120,3,69,,,,0,4,4,4,4,4,4,4,4,4,4,4,4,4,4,100,,,,,,,,,,,,,,,,,,,,,,,,,,,,,,,,,,,,,,,,,,,,,,,,,,,,,,,,,,,,,,,,,,,,,,,,,,,,,,,,,,,,,,,,,,,,,,,,,,,,,,,,,,,,,,,,,,,,,,,,,,,,,,,,,,,,,,
1702547653,1702547653,84,0,4092.179443,4188.205078,4299.230957,4103.974121,4388.717773,4249.230957,4092.692383,4237.94873,4357.820313,4132.05127,4269.615234,4417.94873,4150.897461,4326.153809,6619,3,69,,,,0,4,4,4,4,4,4,4,4,4,4,4,4,4,4,100,,,,,,,,,,,,,,,,,21,0,0.655525,-0.494263,-0.436401,-0.368164,0.963497,-0.342815,0.133317,-10.5292,-3.185013,89.081039,,,,,,,,,,,,,,,,,,,,,,,,,,,,,,,,,,,,,,,,,,,,,,,,,,,,,,,,,,,,,,,,,,,,,,,,,,,,,,,,,,,,,,,,,,,,,,,,,,,,,,,,,,
1702547653,1702547653,85,0,4034.487061,4291.153809,4265.384766,4213.846191,4283.205078,4191.666504,4059.487061,4223.205078,4311.025879,4062.307617,4116.153809,4464.487305,4012.179443,4133.461426,2010,3,69,,,,0,4,4,4,4,4,4,4,4,4,4,4,4,4,4,100,,,,,,,,,,,,,,,,,,,,,,,,,,,,,,,,,,,,,,,,,,,,,,,,,,,,,,,,,,,,,,,,,,,,,,,,,,,,,,,,,,,,,,,,,,,,,,,,,,,,,,,,,,,,,,,,,,,,,,,,,,,,,,,,,,,,,,
1702547653,1702547653,86,0,4078.589844,4322.307617,4115.769043,4287.820313,4205.384766,4126.666504,4000.256348,4177.436035,4227.820313,4009.743652,4112.820313,4377.692383,4026.666748,4196.282227,5960,3,69,,,,0,4,4,4,4,4,4,4,4,4,4,4,4,4,4,100,,,,,,,,,,,,,,,,,,,,,,,,,,,,,,,,,,,,,,,,,,,,,,,,,,,,,,,,,,,,,,,,,,,,,,,,,,,,,,,,,,,,,,,,,,,,,,,,,,,,,,,,,,,,,,,,,,,,,,,,,,,,,,,,,,,,,,
1702547653,1702547653,87,0,4137.820313,4335.384766,4016.410156,4217.94873,4248.974121,4090,3966.410156,4152.820313,4201.922852,4032.435791,4272.563965,4276.666504,4136.538574,4382.94873,6120,3,69,,,,0,4,4,4,4,4,4,4,4,4,4,4,4,4,4,100,,,,,,,,,,,,,,,,,,,,,,,,,,,,,,,,,,,,,,,,,,,,,,,,,,,,,,,,,,,,,,,,,,,,,,,,,,,,,,,,,,,,,,,,,,,,,,,,,,,,,,,,,,,,,,,,,,,,,,,,,,,,,,,,,,,,,,
1702547653,1702547653,88,0,4086.923096,4388.077148,4059.230713,4123.333496,4290,4086.410156,3969.102539,4168.205078,4210.128418,4073.589844,4303.333496,4307.94873,4137.94873,4325.641113,6619,3,69,,,,0,4,4,4,4,4,4,4,4,4,4,4,4,4,4,100,,,,,,,,,,,,,,,,,22,0,0.655502,-0.495483,-0.435669,-0.367432,0.887315,-0.284214,0.129899,-10.659613,-3.149845,89.006271,,,,,,,,,,,,,,,,,,,,,,,,,,,,,,,,,,,,,,,,,,,,,,,,,,,,,,,,,,,,,,,,,,,,,,,,,,,,,,,,,,,,,,,,,,,,,,,,,,,,,,,,,,
1702547653,1702547653,89,0,4008.846191,4393.077148,4092.94873,4080.769287,4230,4084.487061,3958.461426,4167.563965,4180.769043,4003.461426,4223.205078,4351.282227,4090.384521,4195.128418,2010,3,69,,,,0,4,4,4,4,4,4,4,4,4,4,4,4,4,4,100,,,,,,,,,,,,,,,,,,,,,,,,,,,,,,,,,,,,,,,,,,,,,,,,,,,,,,,,,,,,,,,,,,,,,,,,,,,,,,,,,,,,,,,,,,,,,,,,,,,,,,,,,,,,,,,,,,,,,,,,,,,,,,,,,,,,,,
1702547653,1702547653,90,0,4010.128174,4380.641113,4056.410156,4024.102539,4174.743652,4073.589844,3929.102539,4146.666504,4147.563965,3913.333252,4235.384766,4331.922852,4117.307617,4202.436035,5960,3,69,,,,0,4,4,4,4,4,4,4,4,4,4,4,4,4,4,100,,,,,,,,,,,,,,,,,,,,,,,,,,,,,,,,,,,,,,,,,,,,,,,,,,,,,,,,,,,,,,,,,,,,,,,,,,,,,,,,,,,,,,,,,,,,,,,,,,,,,,,,,,,,,,,,,,,,,,,,,,,,,,,,,,,,,,
1702547653,1702547653,91,0,4011.794922,4431.153809,4049.743652,3972.435791,4196.538574,4066.794922,3902.564209,4142.179688,4164.487305,3989.358887,4267.179688,4334.230957,4134.743652,4192.692383,6120,3,69,,,,0,4,4,4,4,4,4,4,4,4,4,4,4,4,4,100,,,,,,,,,,,,,,,,,,,,,,,,,,,,,,,,,,,,,,,,,,,,,,,,,,,,,,,,,,,,,,,,,,,,,,,,,,,,,,,,,,,,,,,,,,,,,,,,,,,,,,,,,,,,,,,,,,,,,,,,,,,,,,,,,,,,,,
1702547653,1702547653,92,0,3968.974365,4491.410156,4052.692383,3956.666748,4203.333496,4055,3857.692383,4130.897461,4163.077148,4041.666748,4230.128418,4340.897461,4112.94873,4137.692383,6619,3,69,,,,0,4,4,4,4,4,4,4,4,4,4,4,4,4,4,100,,,,,,,,,,,,,,,,,23,0,0.656006,-0.496582,-0.434326,-0.366638,0.922476,-0.311073,0.128434,-10.760319,-3.218194,89.038979,,,,,,,,,,,,,,,,,,,,,,,,,,,,,,,,,,,,,,,,,,,,,,,,,,,,,,,,,,,,,,,,,,,,,,,,,,,,,,,,,,,,,,,,,,,,,,,,,,,,,,,,,,
1702547653,1702547653,93,0,3914.358887,4487.820313,3995.897461,3920.512939,4133.846191,4019.871826,3788.461426,4096.410156,4105.256348,3923.589844,4168.846191,4317.692383,4061.153809,4075.512939,2010,3,69,,,,0,4,4,4,4,4,4,4,4,4,4,4,4,4,4,100,,,,,,,,,,,,,,,,,,,,,,,,,,,,,,,,,,,,,,,,,,,,,,,,,,,,,,,,,,,,,,,,,,,,,,,,,,,,,,,,,,,,,,,,,,,,,,,,,,,,,,,,,,,,,,,,,,,,,,,,,,,,,,,,,,,,,,
1702547653,1702547653,94,0,3871.410156,4442.94873,3937.820557,3844.615479,4065.384521,3986.923096,3737.435791,4072.05127,4062.435791,3885.256348,4124.871582,4300,4007.05127,3996.025635,5960,3,69,,,,0,4,4,4,4,4,4,4,4,4,4,4,4,4,4,100,1,0,1,1,1,0,0,0,1,3,3,1,1,3,0,1,,,,,,,,,,,,,,,,,,,,,,,,,,,,,,,,,,,,,,,,,,,,,,,,,16.561178,5.07335,1.070156,2.001197,0.647264,37.294647,10.334106,2.086899,0.946687,0.71112,8.797707,2.866453,1.416524,1.06846,0.759189,8.014328,2.764561,1.190865,1.144023,0.788168,2.217502,1.885015,5.278547,6.50203,10.337676,132.053055,16.511684,3.54755,2.267606,0.899512,1.741346,0.931713,1.187405,0.518466,0.405413,0.591496,0.756073,0.531657,0.469817,0.332963,41.37244,9.470867,2.957735,1.875401,0.712292,3.606127,1.40656,0.679389,4.430748,6.438696,26.669323,7.596224,1.437341,1.782616,0.855766,0.471144,0.391307,0.16559,0.198867,0.152158,167.533859,11.610272,7.089615,3.501209,1.614256,22.000866,6.345647,1.654184,3.063157,0.802539
1702547653,1702547653,95,0,3846.923096,4437.05127,3916.281982,3787.435791,4056.153809,3975.256348,3711.153809,4065.512939,4045.641113,3907.435791,4097.436035,4291.538574,3981.410156,3947.307617,6120,3,69,,,,0,4,4,4,4,4,4,4,4,4,4,4,4,4,4,100,,,,,,,,,,,,,,,,,,,,,,,,,,,,,,,,,,,,,,,,,,,,,,,,,,,,,,,,,,,,,,,,,,,,,,,,,,,,,,,,,,,,,,,,,,,,,,,,,,,,,,,,,,,,,,,,,,,,,,,,,,,,,,,,,,,,,,
1702547653,1702547653,96,0,3804.487061,4467.307617,3911.538574,3753.333252,4059.615479,3965.128174,3691.281982,4065.897461,4023.076904,3831.153809,4058.333252,4293.717773,3938.589844,3888.205078,6619,3,69,,,,0,4,4,4,4,4,4,4,4,4,4,4,4,4,4,100,,,,,,,,,,,,,,,,,24,0,0.656711,-0.497803,-0.433044,-0.365234,0.906849,-0.323282,0.137224,-10.784286,-3.046375,89.168411,,,,,,,,,,,,,,,,,,,,,,,,,,,,,,,,,,,,,,,,,,,,,,,,,,,,,,,,,,,,,,,,,,,,,,,,,,,,,,,,,,,,,,,,,,,,,,,,,,,,,,,,,,
1702547653,1702547653,97,0,3770.384521,4467.94873,3883.333252,3738.333252,4033.974365,3945.512939,3659.102539,4056.666748,3990.256348,3796.025635,4029.871826,4285.512695,3901.281982,3834.358887,2010,3,69,,,,0,4,4,4,4,4,4,4,4,4,4,4,4,4,4,100,,,,,,,,,,,,,,,,,,,,,,,,,,,,,,,,,,,,,,,,,,,,,,,,,,,,,,,,,,,,,,,,,,,,,,,,,,,,,,,,,,,,,,,,,,,,,,,,,,,,,,,,,,,,,,,,,,,,,,,,,,,,,,,,,,,,,,
1702547653,1702547653,98,0,3761.025635,4436.922852,3838.974365,3741.281982,4011.281982,3911.153809,3617.179443,4032.564209,3946.538574,3841.923096,4026.666748,4265,3905,3806.281982,5960,3,69,,,,0,4,4,4,4,4,4,4,4,4,4,4,4,4,4,100,,,,,,,,,,,,,,,,,,,,,,,,,,,,,,,,,,,,,,,,,,,,,,,,,,,,,,,,,,,,,,,,,,,,,,,,,,,,,,,,,,,,,,,,,,,,,,,,,,,,,,,,,,,,,,,,,,,,,,,,,,,,,,,,,,,,,,
1702547653,1702547653,99,0,3755.641113,4427.820313,3829.615479,3733.461426,4018.589844,3856.794922,3594.615479,4021.025635,3916.794922,3856.666748,4041.410156,4258.589844,3934.487061,3782.179443,6120,3,69,,,,0,4,4,4,4,4,4,4,4,4,4,4,4,4,4,100,,,,,,,,,,,,,,,,,,,,,,,,,,,,,,,,,,,,,,,,,,,,,,,,,,,,,,,,,,,,,,,,,,,,,,,,,,,,,,,,,,,,,,,,,,,,,,,,,,,,,,,,,,,,,,,,,,,,,,,,,,,,,,,,,,,,,,
1702547653,1702547653,100,0,3754.871826,4427.05127,3854.102539,3732.435791,4023.076904,3800.769287,3596.538574,4032.05127,3916.923096,3820.641113,4059.615479,4264.230957,3963.461426,3762.307617,6619,3,69,,,,0,4,4,4,4,4,4,4,4,4,4,4,4,4,4,100,,,,,,,,,,,,,,,,,25,0,0.657555,-0.498413,-0.43219,-0.363892,0.914174,-0.342815,0.141131,-10.805858,-3.02507,89.168236,,,,,,,,,,,,,,,,,,,,,,,,,,,,,,,,,,,,,,,,,,,,,,,,,,,,,,,,,,,,,,,,,,,,,,,,,,,,,,,,,,,,,,,,,,,,,,,,,,,,,,,,,,
1702547653,1702547653,101,0,3772.435791,4412.05127,3876.538574,3769.230713,4052.564209,3791.281982,3608.205078,4043.205078,3923.846191,3805,4077.692383,4268.333496,3996.666748,3771.281982,2010,3,69,,,,0,4,4,4,4,4,4,4,4,4,4,4,4,4,4,100,,,,,,,,,,,,,,,,,,,,,,,,,,,,,,,,,,,,,,,,,,,,,,,,,,,,,,,,,,,,,,,,,,,,,,,,,,,,,,,,,,,,,,,,,,,,,,,,,,,,,,,,,,,,,,,,,,,,,,,,,,,,,,,,,,,,,,
1702547653,1702547653,102,0,3816.281982,4429.615234,3904.871826,3836.153809,4127.179688,3842.820557,3644.102539,4065.512939,3948.205078,3865.641113,4118.461426,4279.743652,4044.487061,3812.435791,5960,3,69,,,,0,4,4,4,4,4,4,4,4,4,4,4,4,4,4,100,,,,,,,,,,,,,,,,,,,,,,,,,,,,,,,,,,,,,,,,,,,,,,,,,,,,,,,,,,,,,,,,,,,,,,,,,,,,,,,,,,,,,,,,,,,,,,,,,,,,,,,,,,,,,,,,,,,,,,,,,,,,,,,,,,,,,,
1702547653,1702547653,103,0,3861.666748,4466.666504,3949.615479,3905.128174,4138.717773,3897.820557,3695.769287,4103.846191,3994.102539,3923.461426,4172.307617,4301.538574,4106.666504,3838.974365,6120,3,69,,,,0,4,4,4,4,4,4,4,4,4,4,4,4,4,4,100,,,,,,,,,,,,,,,,,,,,,,,,,,,,,,,,,,,,,,,,,,,,,,,,,,,,,,,,,,,,,,,,,,,,,,,,,,,,,,,,,,,,,,,,,,,,,,,,,,,,,,,,,,,,,,,,,,,,,,,,,,,,,,,,,,,,,,
1702547653,1702547653,104,0,3877.435791,4459.102539,3969.230713,3938.718018,4104.102539,3922.179443,3716.538574,4112.94873,4007.564209,3904.871826,4205.769043,4306.666504,4158.974121,3845.641113,6619,3,69,,,,0,4,4,4,4,4,4,4,4,4,4,4,4,4,4,100,,,,,,,,,,,,,,,,,26,0,0.658072,-0.498291,-0.432007,-0.363342,0.935173,-0.34721,0.126969,-10.708606,-3.105897,89.184746,,,,,,,,,,,,,,,,,,,,,,,,,,,,,,,,,,,,,,,,,,,,,,,,,,,,,,,,,,,,,,,,,,,,,,,,,,,,,,,,,,,,,,,,,,,,,,,,,,,,,,,,,,
1702547653,1702547653,105,0,3871.666748,4421.410156,3953.205078,3951.410156,4129.358887,3943.718018,3715,4092.564209,3986.153809,3905.512939,4209.743652,4297.179688,4178.461426,3863.333252,2010,3,69,,,,0,4,4,4,4,4,4,4,4,4,4,4,4,4,4,100,,,,,,,,,,,,,,,,,,,,,,,,,,,,,,,,,,,,,,,,,,,,,,,,,,,,,,,,,,,,,,,,,,,,,,,,,,,,,,,,,,,,,,,,,,,,,,,,,,,,,,,,,,,,,,,,,,,,,,,,,,,,,,,,,,,,,,
1702547653,1702547653,106,0,3894.358887,4424.230957,3958.846191,3997.307617,4167.436035,3983.461426,3737.05127,4099.358887,3994.102539,3973.846191,4219.871582,4299.487305,4206.538574,3886.794922,5960,3,69,,,,0,4,4,4,4,4,4,4,4,4,4,4,4,4,4,100,,,,,,,,,,,,,,,,,,,,,,,,,,,,,,,,,,,,,,,,,,,,,,,,,,,,,,,,,,,,,,,,,,,,,,,,,,,,,,,,,,,,,,,,,,,,,,,,,,,,,,,,,,,,,,,,,,,,,,,,,,,,,,,,,,,,,,
1702547653,1702547653,107,0,3944.743652,4446.538574,4005.641113,4049.102539,4172.94873,4022.307617,3775.512939,4133.077148,4031.666748,3983.718018,4262.820313,4318.333496,4270.384766,3903.461426,6120,3,69,,,,0,4,4,4,4,4,4,4,4,4,4,4,4,4,4,100,,,,,,,,,,,,,,,,,,,,,,,,,,,,,,,,,,,,,,,,,,,,,,,,,,,,,,,,,,,,,,,,,,,,,,,,,,,,,,,,,,,,,,,,,,,,,,,,,,,,,,,,,,,,,,,,,,,,,,,,,,,,,,,,,,,,,,
1702547653,1702547653,108,0,3972.564209,4437.179688,4042.05127,4078.589844,4186.538574,4040.384521,3792.94873,4135.512695,4034.743652,3947.94873,4305,4331.025879,4331.538574,3924.487061,6619,3,69,,,,0,4,4,4,4,4,4,4,4,4,4,4,4,4,4,100,,,,,,,,,,,,,,,,,27,0,0.657514,-0.497253,-0.433228,-0.364319,0.922964,-0.362837,0.12648,-10.704412,-2.895307,89.116272,,,,,,,,,,,,,,,,,,,,,,,,,,,,,,,,,,,,,,,,,,,,,,,,,,,,,,,,,,,,,,,,,,,,,,,,,,,,,,,,,,,,,,,,,,,,,,,,,,,,,,,,,,
1702547653,1702547653,109,0,3981.794922,4427.179688,4046.923096,4116.282227,4206.794922,4056.923096,3797.307617,4119.871582,4013.076904,3973.974365,4310,4328.846191,4358.333496,3948.846191,2010,3,69,,,,0,4,4,4,4,4,4,4,4,4,4,4,4,4,4,100,,,,,,,,,,,,,,,,,,,,,,,,,,,,,,,,,,,,,,,,,,,,,,,,,,,,,,,,,,,,,,,,,,,,,,,,,,,,,,,,,,,,,,,,,,,,,,,,,,,,,,,,,,,,,,,,,,,,,,,,,,,,,,,,,,,,,,
1702547653,1702547653,110,0,4004.615479,4441.282227,4058.589844,4156.538574,4211.153809,4084.487061,3818.333252,4132.94873,4021.923096,4031.281982,4309.358887,4334.743652,4379.487305,3966.794922,5960,3,69,,,,0,4,4,4,4,4,4,4,4,4,4,4,4,4,4,100,,,,,,,,,,,,,,,,,,,,,,,,,,,,,,,,,,,,,,,,,,,,,,,,,,,,,,,,,,,,,,,,,34.699936,8.95792,1.617715,2.108999,0.778088,79.595993,16.59963,2.570069,1.357696,0.814303,15.062831,4.717234,1.86396,1.177515,0.702777,15.066242,4.261658,1.241962,1.555888,0.948793,2.310492,2.215354,3.958454,5.424723,8.571276,166.502411,19.794428,4.020353,2.617674,0.921679,1.726846,0.865731,1.15587,0.55194,0.37986,0.612876,0.765961,0.538271,0.494062,0.333433,38.911087,8.411377,3.197743,1.9376,0.741143,3.323132,1.240264,0.842124,4.209011,7.580849,30.949421,9.621292,2.191653,2.165603,0.818732,0.708467,0.627092,0.222295,0.227887,0.15199,161.341385,12.074443,7.07304,3.391819,1.450165,32.457401,7.880319,1.881696,3.396686,1.004813
1702547653,1702547653,111,0,4036.025635,4452.692383,4089.230713,4177.820313,4206.410156,4113.461426,3852.564209,4159.743652,4046.538574,4057.05127,4340.641113,4349.230957,4422.820313,3992.692383,6120,3,69,,,,0,4,4,4,4,4,4,4,4,4,4,4,4,4,4,100,,,,,,,,,,,,,,,,,,,,,,,,,,,,,,,,,,,,,,,,,,,,,,,,,,,,,,,,,,,,,,,,,,,,,,,,,,,,,,,,,,,,,,,,,,,,,,,,,,,,,,,,,,,,,,,,,,,,,,,,,,,,,,,,,,,,,,
1702547653,1702547653,112,0,4054.487061,4454.615234,4113.589844,4207.179688,4218.974121,4150.897461,3888.205078,4175.128418,4056.153809,4051.923096,4375.128418,4358.461426,4470.641113,4020.512939,6619,3,69,,,,0,4,4,4,4,4,4,4,4,4,4,4,4,4,4,100,,,,,,,,,,,,,,,,,28,0,0.657185,-0.496521,-0.433899,-0.365112,0.931754,-0.32963,0.131852,-10.617304,-2.905776,89.104645,,,,,,,,,,,,,,,,,,,,,,,,,,,,,,,,,,,,,,,,,,,,,,,,,,,,,,,,,,,,,,,,,,,,,,,,,,,,,,,,,,,,,,,,,,,,,,,,,,,,,,,,,,
1702547653,1702547653,113,0,4078.205078,4472.179688,4136.794922,4258.461426,4277.94873,4206.025879,3931.025635,4188.589844,4071.794922,4096.410156,4398.205078,4366.794922,4518.333496,4042.692383,2010,3,69,,,,0,4,4,4,4,4,4,4,4,4,4,4,4,4,4,100,,,,,,,,,,,,,,,,,,,,,,,,,,,,,,,,,,,,,,,,,,,,,,,,,,,,,,,,,,,,,,,,,,,,,,,,,,,,,,,,,,,,,,,,,,,,,,,,,,,,,,,,,,,,,,,,,,,,,,,,,,,,,,,,,,,,,,
1702547653,1702547653,114,0,4126.153809,4513.974121,4177.436035,4304.743652,4333.974121,4259.230957,3975.897461,4210.384766,4101.794922,4153.077148,4435,4380,4572.436035,4081.153809,5960,3,69,,,,0,4,4,4,4,4,4,4,4,4,4,4,4,4,4,100,,,,,,,,,,,,,,,,,,,,,,,,,,,,,,,,,,,,,,,,,,,,,,,,,,,,,,,,,,,,,,,,,,,,,,,,,,,,,,,,,,,,,,,,,,,,,,,,,,,,,,,,,,,,,,,,,,,,,,,,,,,,,,,,,,,,,,
1702547653,1702547653,115,0,4177.307617,4553.461426,4226.025879,4338.589844,4328.333496,4295.128418,4012.05127,4235.512695,4131.025879,4158.077148,4482.820313,4396.282227,4627.820313,4126.410156,6120,3,69,,,,0,4,4,4,4,4,4,4,4,4,4,4,4,4,4,100,,,,,,,,,,,,,,,,,,,,,,,,,,,,,,,,,,,,,,,,,,,,,,,,,,,,,,,,,,,,,,,,,,,,,,,,,,,,,,,,,,,,,,,,,,,,,,,,,,,,,,,,,,,,,,,,,,,,,,,,,,,,,,,,,,,,,,
1702547653,1702547653,116,0,4206.794922,4559.487305,4252.179688,4362.05127,4324.230957,4323.205078,4040.512939,4254.230957,4155.384766,4190.897461,4508.589844,4405,4677.05127,4153.717773,6619,3,69,,,,0,4,4,4,4,4,4,4,4,4,4,4,4,4,4,100,,,,,,,,,,,,,,,,,29,0,0.656758,-0.495544,-0.434631,-0.366333,0.939079,-0.343304,0.127457,-10.57224,-2.981865,89.194183,,,,,,,,,,,,,,,,,,,,,,,,,,,,,,,,,,,,,,,,,,,,,,,,,,,,,,,,,,,,,,,,,,,,,,,,,,,,,,,,,,,,,,,,,,,,,,,,,,,,,,,,,,
1702547653,1702547653,117,0,4204.102539,4542.436035,4251.538574,4367.179688,4363.077148,4342.692383,4050.256348,4249.102539,4156.153809,4225.769043,4489.358887,4398.846191,4691.922852,4163.846191,2010,3,69,,,,0,4,4,4,4,4,4,4,4,4,4,4,4,4,4,100,,,,,,,,,,,,,,,,,,,,,,,,,,,,,,,,,,,,,,,,,,,,,,,,,,,,,,,,,,,,,,,,,,,,,,,,,,,,,,,,,,,,,,,,,,,,,,,,,,,,,,,,,,,,,,,,,,,,,,,,,,,,,,,,,,,,,,
1702547653,1702547653,118,0,4203.461426,4538.589844,4249.743652,4370.769043,4387.307617,4350,4040.641113,4237.820313,4141.282227,4209.487305,4461.666504,4392.94873,4683.333496,4176.538574,5960,3,69,,,,0,4,4,4,4,4,4,4,4,4,4,4,4,4,4,100,,,,,,,,,,,,,,,,,,,,,,,,,,,,,,,,,,,,,,,,,,,,,,,,,,,,,,,,,,,,,,,,,,,,,,,,,,,,,,,,,,,,,,,,,,,,,,,,,,,,,,,,,,,,,,,,,,,,,,,,,,,,,,,,,,,,,,
1702547653,1702547653,119,0,4224.102539,4543.589844,4252.436035,4382.179688,4387.820313,4354.743652,4038.589844,4243.205078,4143.077148,4202.692383,4460.128418,4398.461426,4692.436035,4196.410156,6120,3,69,,,,0,4,4,4,4,4,4,4,4,4,4,4,4,4,4,100,,,,,,,,,,,,,,,,,,,,,,,,,,,,,,,,,,,,,,,,,,,,,,,,,,,,,,,,,,,,,,,,,,,,,,,,,,,,,,,,,,,,,,,,,,,,,,,,,,,,,,,,,,,,,,,,,,,,,,,,,,,,,,,,,,,,,,
1702547653,1702547653,120,0,4242.692383,4542.05127,4255.128418,4402.05127,4363.077148,4365.641113,4055.512939,4249.102539,4151.666504,4225.128418,4461.025879,4404.230957,4711.410156,4210,6619,3,69,,,,0,4,4,4,4,4,4,4,4,4,4,4,4,4,4,100,,,,,,,,,,,,,,,,,30,0,0.656314,-0.495422,-0.434875,-0.367004,0.928824,-0.333537,0.144061,-10.565016,-3.217012,89.191429,,,,,,,,,,,,,,,,,,,,,,,,,,,,,,,,,,,,,,,,,,,,,,,,,,,,,,,,,,,,,,,,,,,,,,,,,,,,,,,,,,,,,,,,,,,,,,,,,,,,,,,,,,
1702547653,1702547653,121,0,4254.615234,4551.153809,4269.487305,4422.94873,4342.563965,4383.461426,4074.871826,4251.410156,4156.410156,4217.436035,4449.615234,4406.538574,4716.922852,4220.384766,2010,3,69,,,,0,4,4,4,4,4,4,4,4,4,4,4,4,4,4,100,,,,,,,,,,,,,,,,,,,,,,,,,,,,,,,,,,,,,,,,,,,,,,,,,,,,,,,,,,,,,,,,,,,,,,,,,,,,,,,,,,,,,,,,,,,,,,,,,,,,,,,,,,,,,,,,,,,,,,,,,,,,,,,,,,,,,,
1702547653,1702547653,122,0,4264.743652,4568.589844,4292.692383,4416.794922,4400.256348,4399.743652,4082.435791,4259.615234,4167.820313,4210.897461,4453.461426,4415.897461,4725.641113,4236.538574,5960,3,69,,,,0,4,4,4,4,4,4,4,4,4,4,4,4,4,4,100,,,,,,,,,,,,,,,,,,,,,,,,,,,,,,,,,,,,,,,,,,,,,,,,,,,,,,,,,,,,,,,,,,,,,,,,,,,,,,,,,,,,,,,,,,,,,,,,,,,,,,,,,,,,,,,,,,,,,,,,,,,,,,,,,,,,,,
1702547653,1702547653,123,0,4266.538574,4556.282227,4297.307617,4401.410156,4464.743652,4401.666504,4072.307617,4261.666504,4172.436035,4236.666504,4463.846191,4421.922852,4741.666504,4246.794922,6120,3,69,,,,0,4,4,4,4,4,4,4,4,4,4,4,4,4,4,100,,,,,,,,,,,,,,,,,,,,,,,,,,,,,,,,,,,,,,,,,,,,,,,,,,,,,,,,,,,,,,,,,,,,,,,,,,,,,,,,,,,,,,,,,,,,,,,,,,,,,,,,,,,,,,,,,,,,,,,,,,,,,,,,,,,,,,
1702547653,1702547653,124,0,4265.769043,4537.05127,4290.897461,4406.410156,4452.820313,4394.102539,4057.05127,4254.358887,4166.410156,4221.538574,4446.794922,4415,4742.94873,4248.974121,6619,3,69,,,,0,4,4,4,4,4,4,4,4,4,4,4,4,4,4,100,,,,,,,,,,,,,,,,,31,0,0.655883,-0.495972,-0.434692,-0.367249,0.929801,-0.314492,0.137224,-10.441848,-3.128644,89.222282,,,,,,,,,,,,,,,,,,,,,,,,,,,,,,,,,,,,,,,,,,,,,,,,,,,,,,,,,,,,,,,,,,,,,,,,,,,,,,,,,,,,,,,,,,,,,,,,,,,,,,,,,,
1702547653,1702547654,125,0,4294.487305,4568.205078,4302.436035,4433.974121,4422.436035,4399.615234,4063.589844,4263.846191,4179.358887,4207.820313,4434.871582,4416.410156,4751.410156,4272.436035,2010,3,69,,,,0,4,4,4,4,4,4,4,4,4,4,4,4,4,4,100,,,,,,,,,,,,,,,,,,,,,,,,,,,,,,,,,,,,,,,,,,,,,,,,,,,,,,,,,,,,,,,,,,,,,,,,,,,,,,,,,,,,,,,,,,,,,,,,,,,,,,,,,,,,,,,,,,,,,,,,,,,,,,,,,,,,,,
1702547653,1702547654,126,0,4315.256348,4583.974121,4312.692383,4447.692383,4446.794922,4407.179688,4073.589844,4275.769043,4193.461426,4250.512695,4441.153809,4426.153809,4763.589844,4295.641113,5960,3,69,,,,0,4,4,4,4,4,4,4,4,4,4,4,4,4,4,100,,,,,,,,,,,,,,,,,,,,,,,,,,,,,,,,,,,,,,,,,,,,,,,,,,,,,,,,,,,,,,,,,56.496906,13.646174,2.31958,2.310722,1.003069,136.126831,23.132597,3.0611,2.234134,1.030612,23.264093,6.90663,2.574351,1.54795,0.717405,24.99464,6.091931,1.33485,2.594229,1.404595,3.912678,2.704899,2.789202,4.590658,6.997916,184.388168,20.518064,4.08397,2.747484,0.894068,3.443602,0.896485,1.121472,0.607207,0.371018,0.80584,0.777126,0.53475,0.506986,0.346307,33.891693,6.992374,3.716009,1.948918,0.797028,3.741426,1.205435,1.126782,3.815481,8.562488,41.82478,12.762985,3.492204,2.70429,0.950393,1.089615,0.907982,0.372214,0.367908,0.209346,146.322464,15.031233,7.335774,3.26382,1.25771,44.425804,9.859542,2.015983,3.802112,1.546615
1702547653,1702547654,127,0,4297.94873,4548.974121,4309.487305,4419.358887,4476.794922,4404.871582,4070.384521,4269.102539,4187.692383,4258.846191,4436.666504,4425.512695,4755.256348,4291.794922,69,3,69,,,,0,4,4,4,4,4,4,4,4,4,4,4,4,4,4,100,,,,,,,,,,,,,,,,,,,,,,,,,,,,,,,,,,,,,,,,,,,,,,,,,,,,,,,,,,,,,,,,,,,,,,,,,,,,,,,,,,,,,,,,,,,,,,,,,,,,,,,,,,,,,,,,,,,,,,,,,,,,,,,,,,,,,,
1702547653,1702547654,0,0,4305.512695,4566.153809,4324.230957,4413.461426,4469.871582,4412.563965,4079.102539,4270.897461,4192.692383,4236.410156,4432.820313,4425.384766,4754.743652,4305.512695,5495,3,69,,,,0,4,4,4,4,4,4,4,4,4,4,4,4,4,4,100,,,,,,,,,,,,,,,,,0,0,0.655821,-0.496277,-0.434387,-0.36731,0.941033,-0.290074,0.131364,-10.297663,-3.082447,89.233391,,,,,,,,,,,,,,,,,,,,,,,,,,,,,,,,,,,,,,,,,,,,,,,,,,,,,,,,,,,,,,,,,,,,,,,,,,,,,,,,,,,,,,,,,,,,,,,,,,,,,,,,,,
1702547653,1702547654,1,0,4336.538574,4630.897461,4348.974121,4454.615234,4480.641113,4422.692383,4089.871826,4278.333496,4201.282227,4242.05127,4431.922852,4434.102539,4758.974121,4324.615234,5681,3,69,,,,0,4,4,4,4,4,4,4,4,4,4,4,4,4,4,100,,,,,,,,,,,,,,,,,,,,,,,,,,,,,,,,,,,,,,,,,,,,,,,,,,,,,,,,,,,,,,,,,,,,,,,,,,,,,,,,,,,,,,,,,,,,,,,,,,,,,,,,,,,,,,,,,,,,,,,,,,,,,,,,,,,,,,
1702547653,1702547654,2,0,4338.461426,4652.307617,4351.282227,4472.179688,4519.102539,4418.974121,4079.615479,4269.743652,4187.820313,4233.589844,4409.615234,4437.94873,4729.871582,4312.692383,5612,3,69,,,,0,4,4,4,4,4,4,4,4,4,4,4,4,4,4,100,,,,,,,,,,,,,,,,,,,,,,,,,,,,,,,,,,,,,,,,,,,,,,,,,,,,,,,,,,,,,,,,,,,,,,,,,,,,,,,,,,,,,,,,,,,,,,,,,,,,,,,,,,,,,,,,,,,,,,,,,,,,,,,,,,,,,,
1702547653,1702547654,3,0,4332.179688,4652.05127,4346.538574,4458.717773,4526.538574,4414.487305,4073.205078,4264.743652,4180.769043,4222.05127,4388.077148,4431.922852,4696.794922,4309.102539,5504,3,69,,,,0,4,4,4,4,4,4,4,4,4,4,4,4,4,4,100,,,,,,,,,,,,,,,,,,,,,,,,,,,,,,,,,,,,,,,,,,,,,,,,,,,,,,,,,,,,,,,,,,,,,,,,,,,,,,,,,,,,,,,,,,,,,,,,,,,,,,,,,,,,,,,,,,,,,,,,,,,,,,,,,,,,,,
1702547653,1702547654,4,0,4342.05127,4655.769043,4348.461426,4457.436035,4481.025879,4407.692383,4080.384521,4267.692383,4184.102539,4227.179688,4386.025879,4425,4690.641113,4318.461426,5442,3,69,,,,0,4,4,4,4,4,4,4,4,4,4,4,4,4,4,100,,,,,,,,,,,,,,,,,1,0,0.655648,-0.496033,-0.434875,-0.367371,0.935661,-0.33256,0.1382,-10.284563,-3.090868,89.226715,,,,,,,,,,,,,,,,,,,,,,,,,,,,,,,,,,,,,,,,,,,,,,,,,,,,,,,,,,,,,,,,,,,,,,,,,,,,,,,,,,,,,,,,,,,,,,,,,,,,,,,,,,
1702547653,1702547654,5,0,4336.666504,4633.461426,4345,4448.974121,4459.743652,4389.615234,4075.897461,4257.692383,4168.205078,4206.922852,4370.256348,4425.897461,4685.256348,4302.94873,5040,3,69,,,,0,4,4,4,4,4,4,4,4,4,4,4,4,4,4,100,,,,,,,,,,,,,,,,,,,,,,,,,,,,,,,,,,,,,,,,,,,,,,,,,,,,,,,,,,,,,,,,,,,,,,,,,,,,,,,,,,,,,,,,,,,,,,,,,,,,,,,,,,,,,,,,,,,,,,,,,,,,,,,,,,,,,,
1702547653,1702547654,6,0,4315.641113,4603.077148,4338.333496,4423.461426,4432.94873,4350.769043,4063.974365,4244.615234,4147.436035,4180.128418,4341.794922,4425.512695,4670.512695,4271.025879,4804,3,69,,,,0,4,4,4,4,4,4,4,4,4,4,4,4,4,4,100,,,,,,,,,,,,,,,,,,,,,,,,,,,,,,,,,,,,,,,,,,,,,,,,,,,,,,,,,,,,,,,,,,,,,,,,,,,,,,,,,,,,,,,,,,,,,,,,,,,,,,,,,,,,,,,,,,,,,,,,,,,,,,,,,,,,,,
1702547653,1702547654,7,0,4306.794922,4586.794922,4335.641113,4410.769043,4383.077148,4296.153809,4062.692383,4248.589844,4154.102539,4189.743652,4330.512695,4418.846191,4658.077148,4255.641113,3857,3,69,,,,0,4,4,4,4,4,4,4,4,4,4,4,4,4,4,100,,,,,,,,,,,,,,,,,,,,,,,,,,,,,,,,,,,,,,,,,,,,,,,,,,,,,,,,,,,,,,,,,,,,,,,,,,,,,,,,,,,,,,,,,,,,,,,,,,,,,,,,,,,,,,,,,,,,,,,,,,,,,,,,,,,,,,
1702547653,1702547654,8,0,4313.846191,4586.282227,4343.717773,4411.666504,4412.820313,4271.666504,4078.333252,4261.666504,4184.102539,4217.563965,4342.692383,4421.666504,4654.743652,4268.205078,5100,3,69,,,,0,4,4,4,4,4,4,4,4,4,4,4,4,4,4,100,,,,,,,,,,,,,,,,,2,0,0.655893,-0.495667,-0.435181,-0.367065,0.914662,-0.33256,0.13234,-10.322774,-3.198448,89.320717,,,,,,,,,,,,,,,,,,,,,,,,,,,,,,,,,,,,,,,,,,,,,,,,,,,,,,,,,,,,,,,,,,,,,,,,,,,,,,,,,,,,,,,,,,,,,,,,,,,,,,,,,,
1702547653,1702547654,9,0,4343.205078,4612.563965,4372.05127,4431.794922,4445.769043,4286.282227,4106.922852,4276.922852,4214.487305,4225.641113,4371.153809,4436.538574,4672.436035,4303.974121,5502,3,69,,,,0,4,4,4,4,4,4,4,4,4,4,4,4,4,4,100,,,,,,,,,,,,,,,,,,,,,,,,,,,,,,,,,,,,,,,,,,,,,,,,,,,,,,,,,,,,,,,,,,,,,,,,,,,,,,,,,,,,,,,,,,,,,,,,,,,,,,,,,,,,,,,,,,,,,,,,,,,,,,,,,,,,,,
1702547653,1702547654,10,0,4364.102539,4631.025879,4397.563965,4455.256348,4437.563965,4298.846191,4129.743652,4288.717773,4230.897461,4214.743652,4375.128418,4442.94873,4689.358887,4329.615234,5960,3,69,,,,0,4,4,4,4,4,4,4,4,4,4,4,4,4,4,100,,,,,,,,,,,,,,,,,,,,,,,,,,,,,,,,,,,,,,,,,,,,,,,,,,,,,,,,,,,,,,,,,,,,,,,,,,,,,,,,,,,,,,,,,,,,,,,,,,,,,,,,,,,,,,,,,,,,,,,,,,,,,,,,,,,,,,
1702547653,1702547654,11,0,4359.743652,4628.717773,4397.94873,4461.538574,4456.794922,4303.846191,4138.205078,4288.461426,4235.641113,4211.025879,4335.769043,4437.820313,4681.282227,4340.512695,6127,3,69,,,,0,4,4,4,4,4,4,4,4,4,4,4,4,4,4,100,,,,,,,,,,,,,,,,,,,,,,,,,,,,,,,,,,,,,,,,,,,,,,,,,,,,,,,,,,,,,,,,,,,,,,,,,,,,,,,,,,,,,,,,,,,,,,,,,,,,,,,,,,,,,,,,,,,,,,,,,,,,,,,,,,,,,,
1702547653,1702547654,12,0,4353.589844,4627.94873,4388.974121,4455.128418,4417.820313,4302.94873,4142.179688,4280.384766,4234.358887,4242.94873,4302.692383,4436.538574,4666.538574,4344.743652,6623,3,69,,,,0,4,4,4,4,4,4,4,4,4,4,4,4,4,4,100,,,,,,,,,,,,,,,,,3,0,0.65593,-0.496094,-0.434998,-0.366638,0.943475,-0.3267,0.128922,-10.390496,-3.111937,89.421974,,,,,,,,,,,,,,,,,,,,,,,,,,,,,,,,,,,,,,,,,,,,,,,,,,,,,,,,,,,,,,,,,,,,,,,,,,,,,,,,,,,,,,,,,,,,,,,,,,,,,,,,,,
1702547653,1702547654,13,0,4360.769043,4629.230957,4397.05127,4450.256348,4333.846191,4301.153809,4150.769043,4281.794922,4234.615234,4268.077148,4314.487305,4438.589844,4673.077148,4343.846191,2022,3,69,,,,0,4,4,4,4,4,4,4,4,4,4,4,4,4,4,100,,,,,,,,,,,,,,,,,,,,,,,,,,,,,,,,,,,,,,,,,,,,,,,,,,,,,,,,,,,,,,,,,,,,,,,,,,,,,,,,,,,,,,,,,,,,,,,,,,,,,,,,,,,,,,,,,,,,,,,,,,,,,,,,,,,,,,
1702547653,1702547654,14,0,4372.563965,4640.256348,4409.487305,4465.769043,4378.333496,4313.846191,4158.077148,4285.897461,4235.512695,4232.563965,4336.794922,4440.641113,4694.871582,4360.512695,5960,3,69,,,,0,4,4,4,4,4,4,4,4,4,4,4,4,4,4,100,,,,,,,,,,,,,,,,,,,,,,,,,,,,,,,,,,,,,,,,,,,,,,,,,,,,,,,,,,,,,,,,,76.876289,18.401398,3.09078,2.656361,1.327392,196.821625,28.426317,3.601725,3.795304,1.411551,32.160603,9.070802,3.807746,2.500501,0.888587,40.188423,8.127259,1.519858,4.659904,2.318287,8.448482,3.41851,2.031543,4.086847,5.994833,179.717621,19.059494,3.889791,2.740017,0.82971,9.820789,1.225595,1.15485,0.758257,0.387121,1.660933,0.854119,0.550654,0.547557,0.384227,33.440678,6.134806,5.06839,2.106537,0.938775,5.891066,1.646008,1.535109,3.446831,9.277247,62.856457,17.900837,5.40115,3.517509,1.405754,1.678475,1.215829,0.702642,0.738298,0.378086,131.572021,24.742714,8.834165,3.50829,1.177942,60.630234,12.222508,2.041374,4.39001,2.68643
1702547653,1702547654,15,0,4376.025879,4661.282227,4405.256348,4485.256348,4451.025879,4321.538574,4156.538574,4285.256348,4232.179688,4191.922852,4336.666504,4441.410156,4698.461426,4380.256348,6127,3,69,,,,0,4,4,4,4,4,4,4,4,4,4,4,4,4,4,100,,,,,,,,,,,,,,,,,,,,,,,,,,,,,,,,,,,,,,,,,,,,,,,,,,,,,,,,,,,,,,,,,,,,,,,,,,,,,,,,,,,,,,,,,,,,,,,,,,,,,,,,,,,,,,,,,,,,,,,,,,,,,,,,,,,,,,
1702547653,1702547654,16,0,4379.743652,4669.102539,4403.846191,4481.410156,4393.846191,4313.077148,4152.179688,4286.410156,4229.487305,4222.692383,4332.436035,4438.333496,4685.769043,4378.205078,0,3,69,,,,0,4,4,4,4,4,4,4,4,4,4,4,4,4,4,100,,,,,,,,,,,,,,,,,4,0,0.655842,-0.496338,-0.435059,-0.366394,0.906361,-0.31205,0.125015,-10.38478,-3.134076,89.379776,,,,,,,,,,,,,,,,,,,,,,,,,,,,,,,,,,,,,,,,,,,,,,,,,,,,,,,,,,,,,,,,,,,,,,,,,,,,,,,,,,,,,,,,,,,,,,,,,,,,,,,,,,
1702547653,1702547654,17,0,4403.717773,4686.922852,4421.025879,4484.871582,4320.769043,4313.589844,4148.205078,4286.025879,4230.897461,4269.871582,4344.743652,4441.410156,4701.153809,4389.871582,0,3,69,,,,0,4,4,4,4,4,4,4,4,4,4,4,4,4,4,100,,,,,,,,,,,,,,,,,,,,,,,,,,,,,,,,,,,,,,,,,,,,,,,,,,,,,,,,,,,,,,,,,,,,,,,,,,,,,,,,,,,,,,,,,,,,,,,,,,,,,,,,,,,,,,,,,,,,,,,,,,,,,,,,,,,,,,
1702547653,1702547654,18,0,4455.641113,4743.077148,4454.102539,4526.410156,4333.333496,4333.717773,4159.743652,4289.358887,4241.666504,4226.410156,4378.717773,4454.102539,4745.897461,4447.692383,0,3,69,,,,0,4,4,4,4,4,4,4,4,4,4,4,4,4,4,100,,,,,,,,,,,,,,,,,,,,,,,,,,,,,,,,,,,,,,,,,,,,,,,,,,,,,,,,,,,,,,,,,,,,,,,,,,,,,,,,,,,,,,,,,,,,,,,,,,,,,,,,,,,,,,,,,,,,,,,,,,,,,,,,,,,,,,
1702547653,1702547654,19,0,4507.94873,4793.974121,4487.820313,4565.769043,4387.307617,4359.743652,4182.436035,4302.307617,4263.974121,4200.897461,4406.025879,4462.820313,4772.94873,4507.436035,0,3,69,,,,0,4,4,4,4,4,4,4,4,4,4,4,4,4,4,100,,,,,,,,,,,,,,,,,,,,,,,,,,,,,,,,,,,,,,,,,,,,,,,,,,,,,,,,,,,,,,,,,,,,,,,,,,,,,,,,,,,,,,,,,,,,,,,,,,,,,,,,,,,,,,,,,,,,,,,,,,,,,,,,,,,,,,
1702547653,1702547654,20,0,4533.717773,4817.436035,4497.563965,4570.641113,4406.282227,4366.794922,4184.102539,4301.794922,4272.94873,4272.820313,4397.692383,4461.666504,4783.333496,4531.794922,0,3,69,,,,0,4,4,4,4,4,4,4,4,4,4,4,4,4,4,100,,,,,,,,,,,,,,,,,5,0,0.655367,-0.496277,-0.435791,-0.366455,0.921499,-0.305213,0.132829,-10.329636,-3.320669,89.40847,,,,,,,,,,,,,,,,,,,,,,,,,,,,,,,,,,,,,,,,,,,,,,,,,,,,,,,,,,,,,,,,,,,,,,,,,,,,,,,,,,,,,,,,,,,,,,,,,,,,,,,,,,
1702547653,1702547654,21,0,4549.871582,4850,4493.333496,4571.410156,4364.358887,4354.743652,4170.128418,4287.436035,4258.717773,4276.794922,4388.077148,4461.025879,4802.05127,4550.769043,0,3,69,,,,0,4,4,4,4,4,4,4,4,4,4,4,4,4,4,100,,,,,,,,,,,,,,,,,,,,,,,,,,,,,,,,,,,,,,,,,,,,,,,,,,,,,,,,,,,,,,,,,,,,,,,,,,,,,,,,,,,,,,,,,,,,,,,,,,,,,,,,,,,,,,,,,,,,,,,,,,,,,,,,,,,,,,
1702547653,1702547654,22,0,4573.717773,4886.025879,4506.666504,4591.410156,4336.922852,4358.589844,4175,4293.333496,4257.563965,4199.102539,4401.922852,4468.461426,4814.230957,4581.794922,0,3,69,,,,0,4,4,4,4,4,4,4,4,4,4,4,4,4,4,100,,,,,,,,,,,,,,,,,,,,,,,,,,,,,,,,,,,,,,,,,,,,,,,,,,,,,,,,,,,,,,,,,,,,,,,,,,,,,,,,,,,,,,,,,,,,,,,,,,,,,,,,,,,,,,,,,,,,,,,,,,,,,,,,,,,,,,
1702547653,1702547654,23,0,4599.358887,4905.641113,4530.512695,4619.102539,4382.94873,4385.897461,4201.794922,4315,4283.974121,4208.974121,4426.025879,4477.820313,4821.282227,4609.871582,0,3,69,,,,0,4,4,4,4,4,4,4,4,4,4,4,4,4,4,100,,,,,,,,,,,,,,,,,,,,,,,,,,,,,,,,,,,,,,,,,,,,,,,,,,,,,,,,,,,,,,,,,,,,,,,,,,,,,,,,,,,,,,,,,,,,,,,,,,,,,,,,,,,,,,,,,,,,,,,,,,,,,,,,,,,,,,
1702547653,1702547654,24,0,4618.974121,4929.358887,4542.692383,4635.512695,4442.820313,4410.512695,4226.153809,4324.615234,4303.077148,4287.94873,4441.410156,4482.820313,4848.077148,4628.974121,0,3,69,,,,0,4,4,4,4,4,4,4,4,4,4,4,4,4,4,100,,,,,,,,,,,,,,,,,6,0,0.655173,-0.495483,-0.436523,-0.367004,0.922964,-0.33549,0.130875,-10.313338,-3.271935,89.33429,,,,,,,,,,,,,,,,,,,,,,,,,,,,,,,,,,,,,,,,,,,,,,,,,,,,,,,,,,,,,,,,,,,,,,,,,,,,,,,,,,,,,,,,,,,,,,,,,,,,,,,,,,
1702547653,1702547654,25,0,4631.794922,4956.538574,4552.563965,4643.461426,4452.94873,4424.487305,4235.769043,4325.641113,4295.256348,4294.230957,4450.256348,4486.538574,4878.717773,4643.974121,0,3,69,,,,0,4,4,4,4,4,4,4,4,4,4,4,4,4,4,100,,,,,,,,,,,,,,,,,,,,,,,,,,,,,,,,,,,,,,,,,,,,,,,,,,,,,,,,,,,,,,,,,,,,,,,,,,,,,,,,,,,,,,,,,,,,,,,,,,,,,,,,,,,,,,,,,,,,,,,,,,,,,,,,,,,,,,
1702547653,1702547654,26,0,4637.94873,4962.436035,4557.94873,4649.487305,4424.871582,4430.769043,4241.282227,4328.205078,4287.05127,4259.615234,4455.512695,4488.205078,4882.820313,4653.333496,0,3,69,,,,0,4,4,4,4,4,4,4,4,4,4,4,4,4,4,100,,,,,,,,,,,,,,,,,,,,,,,,,,,,,,,,,,,,,,,,,,,,,,,,,,,,,,,,,,,,,,,,,,,,,,,,,,,,,,,,,,,,,,,,,,,,,,,,,,,,,,,,,,,,,,,,,,,,,,,,,,,,,,,,,,,,,,
1702547653,1702547654,27,0,4642.820313,4954.871582,4557.05127,4653.333496,4411.282227,4433.974121,4255.256348,4337.820313,4304.487305,4285.256348,4460.512695,4490,4879.487305,4665.384766,0,3,69,,,,0,4,4,4,4,4,4,4,4,4,4,4,4,4,4,100,,,,,,,,,,,,,,,,,,,,,,,,,,,,,,,,,,,,,,,,,,,,,,,,,,,,,,,,,,,,,,,,,,,,,,,,,,,,,,,,,,,,,,,,,,,,,,,,,,,,,,,,,,,,,,,,,,,,,,,,,,,,,,,,,,,,,,
1702547653,1702547654,28,0,4644.871582,4955.769043,4559.230957,4654.102539,4428.717773,4433.846191,4260.256348,4337.820313,4311.153809,4303.333496,4467.94873,4491.794922,4893.333496,4677.94873,0,3,69,,,,0,4,4,4,4,4,4,4,4,4,4,4,4,4,4,100,,,,,,,,,,,,,,,,,7,0,0.655024,-0.494751,-0.437012,-0.367676,0.925406,-0.326212,0.12941,-10.298672,-3.061409,89.350861,,,,,,,,,,,,,,,,,,,,,,,,,,,,,,,,,,,,,,,,,,,,,,,,,,,,,,,,,,,,,,,,,,,,,,,,,,,,,,,,,,,,,,,,,,,,,,,,,,,,,,,,,,
1702547653,1702547654,29,0,4636.410156,4959.230957,4554.358887,4649.871582,4442.05127,4427.436035,4247.692383,4316.794922,4281.922852,4253.461426,4460.512695,4488.077148,4897.05127,4672.307617,0,3,69,,,,0,4,4,4,4,4,4,4,4,4,4,4,4,4,4,100,,,,,,,,,,,,,,,,,,,,,,,,,,,,,,,,,,,,,,,,,,,,,,,,,,,,,,,,,,,,,,,,,,,,,,,,,,,,,,,,,,,,,,,,,,,,,,,,,,,,,,,,,,,,,,,,,,,,,,,,,,,,,,,,,,,,,,
1702547653,1702547654,30,0,4626.794922,4946.794922,4543.974121,4638.974121,4435.641113,4426.666504,4243.846191,4307.94873,4273.461426,4248.589844,4440.512695,4483.974121,4879.358887,4657.436035,0,3,69,,,,0,4,4,4,4,4,4,4,4,4,4,4,4,4,4,100,1,0,1,1,0,0,0,0,0,1,1,1,1,3,0,1,,,,,,,,,,,,,,,,,,,,,,,,,,,,,,,,,,,,,,,,,,,,,,,,,90.416252,22.442539,3.793401,3.142043,1.720054,243.694687,31.366171,4.267118,5.993034,1.952304,40.774521,10.910671,5.683877,4.194563,1.244876,63.625523,10.209001,1.822845,7.778727,3.662823,16.484213,4.512323,1.780219,3.959435,5.722562,155.611496,16.827833,3.767454,2.749882,0.755481,25.148567,2.149906,1.334684,1.070447,0.427244,3.716824,1.127257,0.619321,0.653931,0.452508,43.016865,6.600325,7.492134,2.565796,1.19555,11.207152,2.940802,1.994524,3.239213,9.701524,94.68821,25.428595,7.721907,4.616046,2.243646,2.577869,1.533158,1.243686,1.387725,0.674111,121.582848,43.300083,11.954039,4.349628,1.305859,82.790855,14.771678,1.996246,5.161267,4.475132
1702547653,1702547654,31,0,4626.794922,4925.128418,4547.179688,4629.743652,4431.922852,4434.871582,4249.102539,4322.307617,4300.512695,4308.717773,4430.641113,4486.538574,4873.077148,4656.666504,0,3,69,,,,0,4,4,4,4,4,4,4,4,4,4,4,4,4,4,100,,,,,,,,,,,,,,,,,,,,,,,,,,,,,,,,,,,,,,,,,,,,,,,,,,,,,,,,,,,,,,,,,,,,,,,,,,,,,,,,,,,,,,,,,,,,,,,,,,,,,,,,,,,,,,,,,,,,,,,,,,,,,,,,,,,,,,
1702547653,1702547654,32,0,4627.563965,4911.794922,4554.230957,4631.922852,4443.589844,4450.897461,4258.205078,4330.897461,4314.487305,4297.563965,4433.974121,4488.333496,4876.922852,4665.128418,0,3,69,,,,0,4,4,4,4,4,4,4,4,4,4,4,4,4,4,100,,,,,,,,,,,,,,,,,8,0,0.654405,-0.494446,-0.437256,-0.368896,0.920523,-0.313515,0.133805,-10.218804,-3.055268,89.349106,,,,,,,,,,,,,,,,,,,,,,,,,,,,,,,,,,,,,,,,,,,,,,,,,,,,,,,,,,,,,,,,,,,,,,,,,,,,,,,,,,,,,,,,,,,,,,,,,,,,,,,,,,
1702547653,1702547654,33,0,4622.692383,4906.153809,4546.922852,4632.692383,4437.563965,4465.128418,4265.897461,4326.922852,4313.846191,4254.615234,4431.282227,4479.358887,4869.102539,4663.333496,0,3,69,,,,0,4,4,4,4,4,4,4,4,4,4,4,4,4,4,100,,,,,,,,,,,,,,,,,,,,,,,,,,,,,,,,,,,,,,,,,,,,,,,,,,,,,,,,,,,,,,,,,,,,,,,,,,,,,,,,,,,,,,,,,,,,,,,,,,,,,,,,,,,,,,,,,,,,,,,,,,,,,,,,,,,,,,
1702547653,1702547654,34,0,4613.974121,4900.384766,4537.179688,4620.641113,4430.512695,4464.102539,4254.871582,4325.384766,4317.436035,4272.307617,4413.589844,4473.461426,4852.692383,4651.282227,0,3,69,,,,0,4,4,4,4,4,4,4,4,4,4,4,4,4,4,100,,,,,,,,,,,,,,,,,,,,,,,,,,,,,,,,,,,,,,,,,,,,,,,,,,,,,,,,,,,,,,,,,,,,,,,,,,,,,,,,,,,,,,,,,,,,,,,,,,,,,,,,,,,,,,,,,,,,,,,,,,,,,,,,,,,,,,
1702547653,1702547654,35,0,4598.589844,4885.641113,4530.897461,4608.589844,4439.615234,4456.025879,4233.077148,4321.153809,4307.94873,4282.179688,4390.512695,4473.461426,4831.794922,4636.025879,0,3,69,,,,0,4,4,4,4,4,4,4,4,4,4,4,4,4,4,100,,,,,,,,,,,,,,,,,,,,,,,,,,,,,,,,,,,,,,,,,,,,,,,,,,,,,,,,,,,,,,,,,,,,,,,,,,,,,,,,,,,,,,,,,,,,,,,,,,,,,,,,,,,,,,,,,,,,,,,,,,,,,,,,,,,,,,
1702547653,1702547654,36,0,4583.589844,4863.077148,4525.512695,4603.974121,4426.410156,4457.179688,4228.461426,4317.307617,4299.230957,4266.025879,4378.205078,4471.282227,4823.717773,4626.922852,0,3,69,,,,0,4,4,4,4,4,4,4,4,4,4,4,4,4,4,100,,,,,,,,,,,,,,,,,9,0,0.653853,-0.494202,-0.437378,-0.370056,0.931754,-0.315957,0.121597,-10.096924,-3.133074,89.264198,,,,,,,,,,,,,,,,,,,,,,,,,,,,,,,,,,,,,,,,,,,,,,,,,,,,,,,,,,,,,,,,,,,,,,,,,,,,,,,,,,,,,,,,,,,,,,,,,,,,,,,,,,
1702547653,1702547654,37,0,4591.282227,4853.974121,4538.589844,4608.589844,4428.205078,4468.846191,4244.230957,4327.94873,4321.794922,4257.179688,4397.05127,4477.05127,4854.615234,4640.256348,0,3,69,,,,0,4,4,4,4,4,4,4,4,4,4,4,4,4,4,100,,,,,,,,,,,,,,,,,,,,,,,,,,,,,,,,,,,,,,,,,,,,,,,,,,,,,,,,,,,,,,,,,,,,,,,,,,,,,,,,,,,,,,,,,,,,,,,,,,,,,,,,,,,,,,,,,,,,,,,,,,,,,,,,,,,,,,
1702547653,1702547654,38,0,4618.589844,4865.256348,4563.717773,4616.410156,4477.436035,4482.820313,4262.05127,4340.897461,4350.512695,4249.871582,4423.717773,4487.179688,4889.615234,4667.563965,0,3,69,,,,0,4,4,4,4,4,4,4,4,4,4,4,4,4,4,100,,,,,,,,,,,,,,,,,,,,,,,,,,,,,,,,,,,,,,,,,,,,,,,,,,,,,,,,,,,,,,,,,,,,,,,,,,,,,,,,,,,,,,,,,,,,,,,,,,,,,,,,,,,,,,,,,,,,,,,,,,,,,,,,,,,,,,
1702547653,1702547654,39,0,4625.769043,4862.692383,4569.102539,4606.410156,4485.512695,4494.358887,4275.256348,4344.743652,4364.743652,4303.974121,4432.820313,4488.846191,4889.358887,4675.897461,0,3,69,,,,0,4,4,4,4,4,4,4,4,4,4,4,4,4,4,100,,,,,,,,,,,,,,,,,,,,,,,,,,,,,,,,,,,,,,,,,,,,,,,,,,,,,,,,,,,,,,,,,,,,,,,,,,,,,,,,,,,,,,,,,,,,,,,,,,,,,,,,,,,,,,,,,,,,,,,,,,,,,,,,,,,,,,
1702547653,1702547654,40,0,4618.717773,4841.538574,4568.461426,4591.538574,4477.692383,4510.384766,4288.077148,4351.153809,4380,4391.282227,4445,4493.333496,4894.743652,4675.512695,0,3,69,,,,0,4,4,4,4,4,4,4,4,4,4,4,4,4,4,100,,,,,,,,,,,,,,,,,10,0,0.654106,-0.494324,-0.436707,-0.370239,0.938103,-0.302283,0.130387,-10.187231,-3.269767,89.287773,,,,,,,,,,,,,,,,,,,,,,,,,,,,,,,,,,,,,,,,,,,,,,,,,,,,,,,,,,,,,,,,,,,,,,,,,,,,,,,,,,,,,,,,,,,,,,,,,,,,,,,,,,
1702547653,1702547654,41,0,4615.769043,4825.641113,4571.410156,4580.128418,4520.769043,4525.897461,4298.205078,4358.077148,4388.205078,4369.871582,4447.179688,4497.820313,4896.025879,4675.256348,0,3,69,,,,0,4,4,4,4,4,4,4,4,4,4,4,4,4,4,100,,,,,,,,,,,,,,,,,,,,,,,,,,,,,,,,,,,,,,,,,,,,,,,,,,,,,,,,,,,,,,,,,,,,,,,,,,,,,,,,,,,,,,,,,,,,,,,,,,,,,,,,,,,,,,,,,,,,,,,,,,,,,,,,,,,,,,
1702547653,1702547654,42,0,4604.615234,4812.436035,4563.333496,4562.179688,4512.436035,4525.512695,4301.922852,4359.358887,4389.102539,4311.153809,4427.820313,4493.846191,4868.589844,4662.692383,0,3,69,,,,0,4,4,4,4,4,4,4,4,4,4,4,4,4,4,100,,,,,,,,,,,,,,,,,,,,,,,,,,,,,,,,,,,,,,,,,,,,,,,,,,,,,,,,,,,,,,,,,,,,,,,,,,,,,,,,,,,,,,,,,,,,,,,,,,,,,,,,,,,,,,,,,,,,,,,,,,,,,,,,,,,,,,
1702547653,1702547654,43,0,4596.410156,4805.512695,4554.871582,4553.077148,4448.077148,4514.615234,4285.384766,4358.205078,4399.871582,4331.282227,4423.717773,4491.794922,4866.025879,4657.05127,0,3,69,,,,0,4,4,4,4,4,4,4,4,4,4,4,4,4,4,100,,,,,,,,,,,,,,,,,,,,,,,,,,,,,,,,,,,,,,,,,,,,,,,,,,,,,,,,,,,,,,,,,,,,,,,,,,,,,,,,,,,,,,,,,,,,,,,,,,,,,,,,,,,,,,,,,,,,,,,,,,,,,,,,,,,,,,
1702547653,1702547654,44,0,4601.410156,4801.794922,4558.974121,4552.436035,4437.436035,4511.025879,4259.615234,4353.974121,4401.153809,4329.102539,4426.666504,4492.820313,4881.922852,4664.743652,0,3,69,,,,0,4,4,4,4,4,4,4,4,4,4,4,4,4,4,100,,,,,,,,,,,,,,,,,11,0,0.654542,-0.494385,-0.436035,-0.370178,0.930289,-0.328165,0.135759,-10.068508,-3.126123,89.209,,,,,,,,,,,,,,,,,,,,,,,,,,,,,,,,,,,,,,,,,,,,,,,,,,,,,,,,,,,,,,,,,,,,,,,,,,,,,,,,,,,,,,,,,,,,,,,,,,,,,,,,,,
1702547653,1702547654,45,0,4600.128418,4788.846191,4558.205078,4545.641113,4471.666504,4509.743652,4249.230957,4345.769043,4380.256348,4288.589844,4410.128418,4490.256348,4864.230957,4663.589844,0,3,69,,,,0,4,4,4,4,4,4,4,4,4,4,4,4,4,4,100,,,,,,,,,,,,,,,,,,,,,,,,,,,,,,,,,,,,,,,,,,,,,,,,,,,,,,,,,,,,,,,,,,,,,,,,,,,,,,,,,,,,,,,,,,,,,,,,,,,,,,,,,,,,,,,,,,,,,,,,,,,,,,,,,,,,,,
1702547654,1702547654,46,0,4585.897461,4768.333496,4541.794922,4530.256348,4465.256348,4499.102539,4240,4334.615234,4365.641113,4297.94873,4394.743652,4484.615234,4841.666504,4646.025879,0,3,69,,,,0,4,4,4,4,4,4,4,4,4,4,4,4,4,4,100,,,,,,,,,,,,,,,,,,,,,,,,,,,,,,,,,,,,,,,,,,,,,,,,,,,,,,,,,,,,,,,,,93.838852,25.251904,4.242767,3.685055,2.110305,263.050934,31.657707,5.059675,8.437829,2.568258,47.783195,12.300836,7.977009,6.437187,1.724171,94.840469,12.272113,2.215703,11.412709,5.171262,26.748409,6.149431,1.930919,4.20332,6.117875,123.235863,15.524939,4.041598,2.907371,0.701697,49.149601,3.841562,1.691296,1.547215,0.482281,6.839972,1.699793,0.757187,0.835819,0.543162,63.116383,8.515695,10.634259,3.318846,1.534813,19.378876,5.201875,2.411191,3.195701,9.867854,130.600479,34.707527,9.974773,5.835772,3.34514,3.659384,1.835295,1.919777,2.227141,1.049691,116.23336,68.463104,16.095514,5.65334,1.631602,110.095184,17.339046,1.936339,5.961618,6.621982
1702547654,1702547654,47,0,4581.538574,4760.769043,4540.512695,4525.128418,4405.128418,4487.94873,4229.358887,4334.615234,4374.230957,4340.512695,4404.743652,4484.871582,4853.846191,4641.025879,0,3,69,,,,0,4,4,4,4,4,4,4,4,4,4,4,4,4,4,100,,,,,,,,,,,,,,,,,,,,,,,,,,,,,,,,,,,,,,,,,,,,,,,,,,,,,,,,,,,,,,,,,,,,,,,,,,,,,,,,,,,,,,,,,,,,,,,,,,,,,,,,,,,,,,,,,,,,,,,,,,,,,,,,,,,,,,
1702547654,1702547654,48,0,4586.282227,4757.179688,4554.871582,4532.436035,4406.410156,4489.615234,4236.922852,4348.717773,4397.563965,4335.128418,4428.589844,4490.128418,4868.461426,4654.615234,0,3,69,,,,0,4,4,4,4,4,4,4,4,4,4,4,4,4,4,100,,,,,,,,,,,,,,,,,12,0,0.654583,-0.494385,-0.435974,-0.370178,0.935173,-0.327677,0.140154,-10.028324,-3.046844,89.121429,,,,,,,,,,,,,,,,,,,,,,,,,,,,,,,,,,,,,,,,,,,,,,,,,,,,,,,,,,,,,,,,,,,,,,,,,,,,,,,,,,,,,,,,,,,,,,,,,,,,,,,,,,
1702547654,1702547654,49,0,4590.128418,4751.153809,4561.666504,4545.256348,4477.820313,4496.922852,4252.05127,4354.102539,4413.333496,4293.077148,4448.974121,4494.230957,4870.384766,4663.461426,0,3,69,,,,0,4,4,4,4,4,4,4,4,4,4,4,4,4,4,100,,,,,,,,,,,,,,,,,,,,,,,,,,,,,,,,,,,,,,,,,,,,,,,,,,,,,,,,,,,,,,,,,,,,,,,,,,,,,,,,,,,,,,,,,,,,,,,,,,,,,,,,,,,,,,,,,,,,,,,,,,,,,,,,,,,,,,
1702547654,1702547654,50,0,4581.538574,4745.512695,4552.307617,4540.384766,4498.077148,4482.563965,4242.179688,4342.05127,4397.94873,4296.410156,4443.974121,4490.128418,4858.205078,4650.641113,0,3,69,,,,0,4,4,4,4,4,4,4,4,4,4,4,4,4,4,100,,,,,,,,,,,,,,,,,,,,,,,,,,,,,,,,,,,,,,,,,,,,,,,,,,,,,,,,,,,,,,,,,,,,,,,,,,,,,,,,,,,,,,,,,,,,,,,,,,,,,,,,,,,,,,,,,,,,,,,,,,,,,,,,,,,,,,
1702547654,1702547654,51,0,4559.230957,4720.769043,4539.102539,4520.769043,4456.410156,4461.666504,4230.512695,4335,4382.05127,4317.563965,4428.461426,4482.563965,4837.436035,4630.256348,0,3,69,,,,0,4,4,4,4,4,4,4,4,4,4,4,4,4,4,100,,,,,,,,,,,,,,,,,,,,,,,,,,,,,,,,,,,,,,,,,,,,,,,,,,,,,,,,,,,,,,,,,,,,,,,,,,,,,,,,,,,,,,,,,,,,,,,,,,,,,,,,,,,,,,,,,,,,,,,,,,,,,,,,,,,,,,
1702547654,1702547654,52,0,4551.922852,4693.846191,4539.871582,4525.769043,4413.461426,4465.512695,4243.333496,4340.769043,4395.769043,4304.102539,4442.820313,4486.538574,4844.358887,4631.666504,0,3,69,,,,0,4,4,4,4,4,4,4,4,4,4,4,4,4,4,100,,,,,,,,,,,,,,,,,13,0,0.654427,-0.49408,-0.436035,-0.370789,0.928336,-0.313515,0.133317,-9.975492,-3.008827,89.175957,,,,,,,,,,,,,,,,,,,,,,,,,,,,,,,,,,,,,,,,,,,,,,,,,,,,,,,,,,,,,,,,,,,,,,,,,,,,,,,,,,,,,,,,,,,,,,,,,,,,,,,,,,
1702547654,1702547654,53,0,4554.615234,4685.128418,4541.794922,4541.538574,4424.102539,4475.897461,4260.512695,4340.641113,4411.538574,4288.589844,4458.717773,4489.615234,4861.922852,4632.436035,0,3,69,,,,0,4,4,4,4,4,4,4,4,4,4,4,4,4,4,100,,,,,,,,,,,,,,,,,,,,,,,,,,,,,,,,,,,,,,,,,,,,,,,,,,,,,,,,,,,,,,,,,,,,,,,,,,,,,,,,,,,,,,,,,,,,,,,,,,,,,,,,,,,,,,,,,,,,,,,,,,,,,,,,,,,,,,
1702547654,1702547654,54,0,4551.666504,4690,4545.897461,4548.205078,4490.897461,4478.717773,4274.358887,4345,4424.615234,4297.05127,4459.743652,4488.461426,4866.025879,4627.179688,0,3,69,,,,0,4,4,4,4,4,4,4,4,4,4,4,4,4,4,100,,,,,,,,,,,,,,,,,,,,,,,,,,,,,,,,,,,,,,,,,,,,,,,,,,,,,,,,,,,,,,,,,,,,,,,,,,,,,,,,,,,,,,,,,,,,,,,,,,,,,,,,,,,,,,,,,,,,,,,,,,,,,,,,,,,,,,
1702547654,1702547654,55,0,4557.179688,4694.871582,4559.487305,4557.563965,4525.128418,4476.666504,4282.05127,4356.922852,4447.179688,4313.205078,4475.256348,4493.589844,4873.974121,4639.743652,0,3,69,,,,0,4,4,4,4,4,4,4,4,4,4,4,4,4,4,100,,,,,,,,,,,,,,,,,,,,,,,,,,,,,,,,,,,,,,,,,,,,,,,,,,,,,,,,,,,,,,,,,,,,,,,,,,,,,,,,,,,,,,,,,,,,,,,,,,,,,,,,,,,,,,,,,,,,,,,,,,,,,,,,,,,,,,
1702547654,1702547654,56,0,4576.538574,4689.230957,4575.128418,4572.436035,4481.282227,4468.717773,4282.179688,4361.153809,4464.230957,4340.256348,4510.256348,4500.128418,4904.871582,4669.230957,0,3,69,,,,0,4,4,4,4,4,4,4,4,4,4,4,4,4,4,100,,,,,,,,,,,,,,,,,14,0,0.65401,-0.493835,-0.436157,-0.371704,0.934196,-0.33842,0.135759,-10.077943,-3.024611,89.175026,,,,,,,,,,,,,,,,,,,,,,,,,,,,,,,,,,,,,,,,,,,,,,,,,,,,,,,,,,,,,,,,,,,,,,,,,,,,,,,,,,,,,,,,,,,,,,,,,,,,,,,,,,
1702547654,1702547654,57,0,4580.769043,4675.128418,4577.436035,4573.589844,4465.512695,4457.94873,4279.615234,4354.743652,4461.410156,4332.179688,4529.487305,4501.666504,4923.461426,4680.641113,0,3,69,,,,0,4,4,4,4,4,4,4,4,4,4,4,4,4,4,100,,,,,,,,,,,,,,,,,,,,,,,,,,,,,,,,,,,,,,,,,,,,,,,,,,,,,,,,,,,,,,,,,,,,,,,,,,,,,,,,,,,,,,,,,,,,,,,,,,,,,,,,,,,,,,,,,,,,,,,,,,,,,,,,,,,,,,
1702547654,1702547654,58,0,4561.410156,4658.974121,4565.256348,4559.102539,4489.615234,4445.897461,4274.358887,4346.025879,4447.563965,4291.282227,4516.666504,4496.538574,4895.897461,4659.871582,0,3,69,,,,0,4,4,4,4,4,4,4,4,4,4,4,4,4,4,100,,,,,,,,,,,,,,,,,,,,,,,,,,,,,,,,,,,,,,,,,,,,,,,,,,,,,,,,,,,,,,,,,,,,,,,,,,,,,,,,,,,,,,,,,,,,,,,,,,,,,,,,,,,,,,,,,,,,,,,,,,,,,,,,,,,,,,
1702547654,1702547654,59,0,4555,4651.922852,4556.666504,4554.102539,4491.666504,4426.538574,4268.589844,4343.461426,4441.538574,4313.077148,4506.922852,4492.05127,4868.717773,4650.897461,0,3,69,,,,0,4,4,4,4,4,4,4,4,4,4,4,4,4,4,100,,,,,,,,,,,,,,,,,,,,,,,,,,,,,,,,,,,,,,,,,,,,,,,,,,,,,,,,,,,,,,,,,,,,,,,,,,,,,,,,,,,,,,,,,,,,,,,,,,,,,,,,,,,,,,,,,,,,,,,,,,,,,,,,,,,,,,
1702547654,1702547654,60,0,4554.230957,4632.563965,4554.230957,4546.922852,4505.128418,4406.153809,4269.487305,4342.563965,4439.358887,4322.179688,4510.897461,4490.641113,4865.128418,4656.538574,0,3,69,,,,0,4,4,4,4,4,4,4,4,4,4,4,4,4,4,100,,,,,,,,,,,,,,,,,15,0,0.65348,-0.493347,-0.436462,-0.372925,0.929801,-0.328165,0.138689,-10.003482,-3.038816,89.040855,,,,,,,,,,,,,,,,,,,,,,,,,,,,,,,,,,,,,,,,,,,,,,,,,,,,,,,,,,,,,,,,,,,,,,,,,,,,,,,,,,,,,,,,,,,,,,,,,,,,,,,,,,
1702547654,1702547654,61,0,4546.794922,4617.820313,4559.102539,4538.846191,4500.512695,4395.384766,4279.871582,4347.94873,4438.333496,4292.179688,4515.897461,4493.077148,4865.897461,4657.307617,0,3,69,,,,0,4,4,4,4,4,4,4,4,4,4,4,4,4,4,100,,,,,,,,,,,,,,,,,,,,,,,,,,,,,,,,,,,,,,,,,,,,,,,,,,,,,,,,,,,,,,,,,,,,,,,,,,,,,,,,,,,,,,,,,,,,,,,,,,,,,,,,,,,,,,,,,,,,,,,,,,,,,,,,,,,,,,
1702547654,1702547654,62,0,4543.461426,4621.153809,4558.717773,4540.897461,4472.436035,4383.717773,4280,4353.589844,4442.692383,4322.563965,4513.205078,4495,4859.230957,4650.897461,0,3,69,,,,0,4,4,4,4,4,4,4,4,4,4,4,4,4,4,100,,,,,,,,,,,,,,,,,,,,,,,,,,,,,,,,,,,,,,,,,,,,,,,,,,,,,,,,,,,,,,,,,88.14801,26.434486,4.3557,4.142138,2.402603,254.108185,29.544678,5.926034,10.499223,3.112108,52.335827,13.168393,10.135892,8.674129,2.190444,127.157394,14.060311,2.64572,14.580594,6.414971,36.23484,8.327343,2.271171,4.751758,6.965765,93.36586,16.054325,4.820483,3.242925,0.687324,78.247864,6.232877,2.184455,2.114296,0.540135,10.556525,2.570058,0.950596,1.06136,0.636855,88.077103,11.321825,13.637366,4.167312,1.870486,28.984419,8.153135,2.691844,3.224229,9.836824,159.678528,43.80949,11.552295,6.861588,4.427738,4.740697,2.085007,2.560726,3.037063,1.403264,109.546539,93.621239,19.793415,6.961325,2.034295,139.160034,19.569481,1.993599,6.530606,8.547871
1702547654,1702547654,63,0,4529.102539,4604.358887,4544.358887,4532.436035,4476.410156,4368.974121,4270,4347.563965,4445.897461,4322.179688,4501.794922,4490.769043,4842.05127,4636.025879,0,3,69,,,,0,4,4,4,4,4,4,4,4,4,4,4,4,4,4,100,,,,,,,,,,,,,,,,,,,,,,,,,,,,,,,,,,,,,,,,,,,,,,,,,,,,,,,,,,,,,,,,,,,,,,,,,,,,,,,,,,,,,,,,,,,,,,,,,,,,,,,,,,,,,,,,,,,,,,,,,,,,,,,,,,,,,,
1702547654,1702547654,64,0,4497.94873,4564.871582,4525.512695,4509.743652,4485,4354.487305,4260.384766,4335.769043,4432.179688,4268.077148,4478.333496,4484.615234,4814.358887,4611.538574,5507,3,69,,,,0,4,4,4,4,4,4,4,4,4,4,4,4,4,4,100,,,,,,,,,,,,,,,,,16,0,0.652717,-0.492676,-0.436951,-0.374573,0.94494,-0.33256,0.143084,-10.036467,-3.068268,89.036774,,,,,,,,,,,,,,,,,,,,,,,,,,,,,,,,,,,,,,,,,,,,,,,,,,,,,,,,,,,,,,,,,,,,,,,,,,,,,,,,,,,,,,,,,,,,,,,,,,,,,,,,,,
1702547654,1702547654,65,0,4476.410156,4542.05127,4512.307617,4499.871582,4468.974121,4346.025879,4259.871582,4333.461426,4422.820313,4279.358887,4459.871582,4480,4800.769043,4589.743652,5703,3,69,,,,0,4,4,4,4,4,4,4,4,4,4,4,4,4,4,100,,,,,,,,,,,,,,,,,,,,,,,,,,,,,,,,,,,,,,,,,,,,,,,,,,,,,,,,,,,,,,,,,,,,,,,,,,,,,,,,,,,,,,,,,,,,,,,,,,,,,,,,,,,,,,,,,,,,,,,,,,,,,,,,,,,,,,
1702547654,1702547654,66,0,4466.922852,4531.282227,4503.589844,4500.897461,4455.256348,4352.436035,4277.179688,4342.179688,4440.256348,4300.897461,4461.025879,4481.153809,4805.128418,4581.794922,5621,3,69,,,,0,4,4,4,4,4,4,4,4,4,4,4,4,4,4,100,,,,,,,,,,,,,,,,,,,,,,,,,,,,,,,,,,,,,,,,,,,,,,,,,,,,,,,,,,,,,,,,,,,,,,,,,,,,,,,,,,,,,,,,,,,,,,,,,,,,,,,,,,,,,,,,,,,,,,,,,,,,,,,,,,,,,,
1702547654,1702547654,67,0,4447.179688,4501.666504,4493.205078,4487.307617,4464.102539,4360,4290.512695,4342.94873,4447.179688,4280.384766,4449.871582,4481.153809,4790.641113,4568.589844,5546,3,69,,,,0,4,4,4,4,4,4,4,4,4,4,4,4,4,4,100,,,,,,,,,,,,,,,,,,,,,,,,,,,,,,,,,,,,,,,,,,,,,,,,,,,,,,,,,,,,,,,,,,,,,,,,,,,,,,,,,,,,,,,,,,,,,,,,,,,,,,,,,,,,,,,,,,,,,,,,,,,,,,,,,,,,,,
1702547654,1702547654,68,0,4429.358887,4476.922852,4481.538574,4472.692383,4480.256348,4357.179688,4280.641113,4334.487305,4428.077148,4297.820313,4418.717773,4473.974121,4771.282227,4552.563965,5402,3,69,,,,0,4,4,4,4,4,4,4,4,4,4,4,4,4,4,100,,,,,,,,,,,,,,,,,17,0,0.651906,-0.492371,-0.437195,-0.376099,0.935173,-0.310096,0.146014,-9.83282,-3.078108,89.133095,,,,,,,,,,,,,,,,,,,,,,,,,,,,,,,,,,,,,,,,,,,,,,,,,,,,,,,,,,,,,,,,,,,,,,,,,,,,,,,,,,,,,,,,,,,,,,,,,,,,,,,,,,
1702547654,1702547654,69,0,4428.077148,4476.153809,4475.256348,4475.512695,4488.333496,4354.615234,4274.487305,4336.410156,4422.563965,4301.410156,4397.94873,4470.897461,4768.846191,4549.743652,5046,3,69,,,,0,4,4,4,4,4,4,4,4,4,4,4,4,4,4,100,,,,,,,,,,,,,,,,,,,,,,,,,,,,,,,,,,,,,,,,,,,,,,,,,,,,,,,,,,,,,,,,,,,,,,,,,,,,,,,,,,,,,,,,,,,,,,,,,,,,,,,,,,,,,,,,,,,,,,,,,,,,,,,,,,,,,,
1702547654,1702547654,70,0,4427.436035,4470.641113,4475.512695,4478.461426,4453.589844,4351.794922,4278.846191,4346.282227,4437.307617,4271.410156,4391.794922,4475.769043,4765.128418,4552.94873,4804,3,69,,,,0,4,4,4,4,4,4,4,4,4,4,4,4,4,4,100,,,,,,,,,,,,,,,,,,,,,,,,,,,,,,,,,,,,,,,,,,,,,,,,,,,,,,,,,,,,,,,,,,,,,,,,,,,,,,,,,,,,,,,,,,,,,,,,,,,,,,,,,,,,,,,,,,,,,,,,,,,,,,,,,,,,,,
1702547654,1702547654,71,0,4415.256348,4440.897461,4470.641113,4462.307617,4410.128418,4341.666504,4267.94873,4342.05127,4432.05127,4280.769043,4378.077148,4476.666504,4745.384766,4542.692383,3877,3,69,,,,0,4,4,4,4,4,4,4,4,4,4,4,4,4,4,100,,,,,,,,,,,,,,,,,,,,,,,,,,,,,,,,,,,,,,,,,,,,,,,,,,,,,,,,,,,,,,,,,,,,,,,,,,,,,,,,,,,,,,,,,,,,,,,,,,,,,,,,,,,,,,,,,,,,,,,,,,,,,,,,,,,,,,
1702547654,1702547654,72,0,4397.05127,4412.436035,4457.179688,4443.717773,4449.487305,4336.025879,4259.615234,4335.384766,4417.820313,4277.05127,4366.666504,4472.692383,4722.563965,4525.256348,5116,3,69,,,,0,4,4,4,4,4,4,4,4,4,4,4,4,4,4,100,,,,,,,,,,,,,,,,,18,0,0.651159,-0.491577,-0.437622,-0.37793,0.924918,-0.290563,0.12941,-9.732871,-3.136964,89.219788,,,,,,,,,,,,,,,,,,,,,,,,,,,,,,,,,,,,,,,,,,,,,,,,,,,,,,,,,,,,,,,,,,,,,,,,,,,,,,,,,,,,,,,,,,,,,,,,,,,,,,,,,,
1702547654,1702547654,73,0,4389.615234,4409.102539,4453.205078,4444.487305,4500.897461,4340.128418,4278.717773,4346.410156,4436.282227,4269.615234,4382.820313,4475.512695,4717.179688,4522.307617,5601,3,69,,,,0,4,4,4,4,4,4,4,4,4,4,4,4,4,4,100,,,,,,,,,,,,,,,,,,,,,,,,,,,,,,,,,,,,,,,,,,,,,,,,,,,,,,,,,,,,,,,,,,,,,,,,,,,,,,,,,,,,,,,,,,,,,,,,,,,,,,,,,,,,,,,,,,,,,,,,,,,,,,,,,,,,,,
1702547654,1702547654,74,0,4402.05127,4408.333496,4469.358887,4450.128418,4481.410156,4344.871582,4298.717773,4359.743652,4463.205078,4305.897461,4418.333496,4483.846191,4727.179688,4535.769043,5996,3,69,,,,0,4,4,4,4,4,4,4,4,4,4,4,4,4,4,100,,,,,,,,,,,,,,,,,,,,,,,,,,,,,,,,,,,,,,,,,,,,,,,,,,,,,,,,,,,,,,,,,,,,,,,,,,,,,,,,,,,,,,,,,,,,,,,,,,,,,,,,,,,,,,,,,,,,,,,,,,,,,,,,,,,,,,
1702547654,1702547654,75,0,4407.05127,4388.589844,4479.102539,4433.974121,4468.333496,4341.538574,4296.794922,4358.589844,4456.153809,4298.717773,4434.487305,4488.461426,4728.461426,4542.179688,6148,3,69,,,,0,4,4,4,4,4,4,4,4,4,4,4,4,4,4,100,,,,,,,,,,,,,,,,,,,,,,,,,,,,,,,,,,,,,,,,,,,,,,,,,,,,,,,,,,,,,,,,,,,,,,,,,,,,,,,,,,,,,,,,,,,,,,,,,,,,,,,,,,,,,,,,,,,,,,,,,,,,,,,,,,,,,,
1702547654,1702547654,76,0,4381.794922,4357.820313,4460.641113,4400.384766,4484.102539,4332.179688,4286.666504,4347.820313,4429.615234,4280.897461,4418.589844,4481.794922,4709.615234,4523.333496,6671,3,69,,,,0,4,4,4,4,4,4,4,4,4,4,4,4,4,4,100,,,,,,,,,,,,,,,,,19,0,0.650511,-0.490417,-0.438354,-0.3797,0.940544,-0.295446,0.135759,-9.792917,-2.806601,89.314476,,,,,,,,,,,,,,,,,,,,,,,,,,,,,,,,,,,,,,,,,,,,,,,,,,,,,,,,,,,,,,,,,,,,,,,,,,,,,,,,,,,,,,,,,,,,,,,,,,,,,,,,,,
1702547654,1702547654,77,0,4372.307617,4355.384766,4448.333496,4382.820313,4457.692383,4321.922852,4279.615234,4341.153809,4421.922852,4297.692383,4420,4475,4703.333496,4510.256348,2025,3,69,,,,0,4,4,4,4,4,4,4,4,4,4,4,4,4,4,100,,,,,,,,,,,,,,,,,,,,,,,,,,,,,,,,,,,,,,,,,,,,,,,,,,,,,,,,,,,,,,,,,,,,,,,,,,,,,,,,,,,,,,,,,,,,,,,,,,,,,,,,,,,,,,,,,,,,,,,,,,,,,,,,,,,,,,
1702547654,1702547654,78,0,4396.922852,4373.717773,4457.179688,4384.871582,4451.538574,4317.820313,4271.282227,4340.128418,4424.102539,4252.820313,4445.256348,4478.333496,4709.102539,4524.230957,5996,3,69,,,,0,4,4,4,4,4,4,4,4,4,4,4,4,4,4,100,,,,,,,,,,,,,,,,,,,,,,,,,,,,,,,,,,,,,,,,,,,,,,,,,,,,,,,,,,,,,,,,,79.15966,25.896143,4.20636,4.373997,2.513376,222.974503,25.807266,6.746266,11.55999,3.427506,55.00267,13.443675,11.483643,10.202609,2.488842,153.858765,15.231227,3.035195,16.266268,6.984154,42.839535,10.79109,2.607724,5.467427,7.964206,76.17437,17.987946,5.870916,3.657984,0.708031,104.50354,9.027369,2.690308,2.639544,0.589772,13.859087,3.603636,1.142829,1.27057,0.708791,108.69809,14.07158,15.417583,4.818282,2.099751,37.851738,11.185966,2.822545,3.266457,9.666049,174.139267,50.134525,12.05337,7.382271,5.158213,5.665265,2.239814,2.960531,3.553982,1.619879,103.077492,110.594879,21.689621,7.731848,2.347259,164.892166,21.008142,2.275534,6.634482,9.624228
1702547654,1702547654,79,0,4392.307617,4351.025879,4452.820313,4368.461426,4462.692383,4311.153809,4260.256348,4338.333496,4427.307617,4233.333496,4449.358887,4478.846191,4685,4530,6148,3,69,,,,0,4,4,4,4,4,4,4,4,4,4,4,4,4,4,100,,,,,,,,,,,,,,,,,,,,,,,,,,,,,,,,,,,,,,,,,,,,,,,,,,,,,,,,,,,,,,,,,,,,,,,,,,,,,,,,,,,,,,,,,,,,,,,,,,,,,,,,,,,,,,,,,,,,,,,,,,,,,,,,,,,,,,
1702547654,1702547654,80,0,4357.692383,4310.897461,4434.358887,4345.256348,4411.282227,4304.743652,4263.077148,4342.179688,4448.717773,4309.615234,4437.820313,4473.461426,4648.461426,4514.871582,6671,3,69,,,,0,4,4,4,4,4,4,4,4,4,4,4,4,4,4,100,,,,,,,,,,,,,,,,,20,0,0.649853,-0.488953,-0.43927,-0.381653,0.924429,-0.288609,0.131364,-9.780293,-2.925941,89.333023,,,,,,,,,,,,,,,,,,,,,,,,,,,,,,,,,,,,,,,,,,,,,,,,,,,,,,,,,,,,,,,,,,,,,,,,,,,,,,,,,,,,,,,,,,,,,,,,,,,,,,,,,,
1702547654,1702547654,81,0,4360.769043,4320.384766,4436.794922,4354.230957,4411.922852,4316.025879,4274.487305,4350.256348,4470.256348,4334.871582,4441.410156,4471.282227,4641.025879,4517.563965,2025,3,69,,,,0,4,4,4,4,4,4,4,4,4,4,4,4,4,4,100,,,,,,,,,,,,,,,,,,,,,,,,,,,,,,,,,,,,,,,,,,,,,,,,,,,,,,,,,,,,,,,,,,,,,,,,,,,,,,,,,,,,,,,,,,,,,,,,,,,,,,,,,,,,,,,,,,,,,,,,,,,,,,,,,,,,,,
1702547654,1702547654,82,0,4380.384766,4342.05127,4448.846191,4371.538574,4473.589844,4328.205078,4270.512695,4346.410156,4464.230957,4276.153809,4455.512695,4473.974121,4651.282227,4534.615234,5996,3,69,,,,0,4,4,4,4,4,4,4,4,4,4,4,4,4,4,100,,,,,,,,,,,,,,,,,,,,,,,,,,,,,,,,,,,,,,,,,,,,,,,,,,,,,,,,,,,,,,,,,,,,,,,,,,,,,,,,,,,,,,,,,,,,,,,,,,,,,,,,,,,,,,,,,,,,,,,,,,,,,,,,,,,,,,
1702547654,1702547654,83,0,4364.230957,4324.230957,4446.282227,4365.512695,4468.846191,4328.846191,4262.436035,4341.410156,4458.461426,4260.512695,4463.717773,4475,4646.538574,4530,6148,3,69,,,,0,4,4,4,4,4,4,4,4,4,4,4,4,4,4,100,,,,,,,,,,,,,,,,,,,,,,,,,,,,,,,,,,,,,,,,,,,,,,,,,,,,,,,,,,,,,,,,,,,,,,,,,,,,,,,,,,,,,,,,,,,,,,,,,,,,,,,,,,,,,,,,,,,,,,,,,,,,,,,,,,,,,,
1702547654,1702547654,84,0,4340.641113,4319.230957,4433.589844,4357.820313,4439.615234,4327.820313,4261.153809,4343.333496,4461.025879,4292.692383,4453.205078,4472.94873,4627.692383,4512.820313,6671,3,69,,,,0,4,4,4,4,4,4,4,4,4,4,4,4,4,4,100,,,,,,,,,,,,,,,,,21,0,0.649504,-0.48822,-0.439697,-0.38269,0.931266,-0.297888,0.140154,-9.785597,-2.900013,89.333054,,,,,,,,,,,,,,,,,,,,,,,,,,,,,,,,,,,,,,,,,,,,,,,,,,,,,,,,,,,,,,,,,,,,,,,,,,,,,,,,,,,,,,,,,,,,,,,,,,,,,,,,,,
1702547654,1702547654,85,0,4359.230957,4362.05127,4438.589844,4376.153809,4462.563965,4337.05127,4259.871582,4342.436035,4449.102539,4295.384766,4448.461426,4472.05127,4626.025879,4524.871582,2025,3,69,,,,0,4,4,4,4,4,4,4,4,4,4,4,4,4,4,100,,,,,,,,,,,,,,,,,,,,,,,,,,,,,,,,,,,,,,,,,,,,,,,,,,,,,,,,,,,,,,,,,,,,,,,,,,,,,,,,,,,,,,,,,,,,,,,,,,,,,,,,,,,,,,,,,,,,,,,,,,,,,,,,,,,,,,
1702547654,1702547654,86,0,4414.487305,4410.769043,4479.358887,4410.769043,4489.487305,4358.333496,4267.563965,4347.820313,4442.820313,4277.820313,4482.820313,4479.102539,4647.692383,4572.179688,5996,3,69,,,,0,4,4,4,4,4,4,4,4,4,4,4,4,4,4,100,,,,,,,,,,,,,,,,,,,,,,,,,,,,,,,,,,,,,,,,,,,,,,,,,,,,,,,,,,,,,,,,,,,,,,,,,,,,,,,,,,,,,,,,,,,,,,,,,,,,,,,,,,,,,,,,,,,,,,,,,,,,,,,,,,,,,,
1702547654,1702547654,87,0,4437.94873,4428.974121,4503.846191,4421.153809,4455.512695,4359.102539,4272.307617,4353.717773,4446.410156,4280.384766,4495.128418,4486.025879,4645.769043,4592.563965,6148,3,69,,,,0,4,4,4,4,4,4,4,4,4,4,4,4,4,4,100,,,,,,,,,,,,,,,,,,,,,,,,,,,,,,,,,,,,,,,,,,,,,,,,,,,,,,,,,,,,,,,,,,,,,,,,,,,,,,,,,,,,,,,,,,,,,,,,,,,,,,,,,,,,,,,,,,,,,,,,,,,,,,,,,,,,,,
1702547654,1702547654,88,0,4416.794922,4430,4483.589844,4408.846191,4409.871582,4335.256348,4258.717773,4348.846191,4446.666504,4292.692383,4465.256348,4481.025879,4632.563965,4571.794922,6671,3,69,,,,0,4,4,4,4,4,4,4,4,4,4,4,4,4,4,100,,,,,,,,,,,,,,,,,22,0,0.648998,-0.487061,-0.440186,-0.38446,0.954706,-0.297888,0.142107,-9.64037,-2.976679,89.349754,,,,,,,,,,,,,,,,,,,,,,,,,,,,,,,,,,,,,,,,,,,,,,,,,,,,,,,,,,,,,,,,,,,,,,,,,,,,,,,,,,,,,,,,,,,,,,,,,,,,,,,,,,
1702547654,1702547654,89,0,4404.230957,4434.102539,4462.94873,4404.230957,4433.974121,4324.615234,4245.641113,4343.974121,4446.666504,4256.153809,4456.666504,4475.512695,4637.05127,4557.307617,2025,3,69,,,,0,4,4,4,4,4,4,4,4,4,4,4,4,4,4,100,,,,,,,,,,,,,,,,,,,,,,,,,,,,,,,,,,,,,,,,,,,,,,,,,,,,,,,,,,,,,,,,,,,,,,,,,,,,,,,,,,,,,,,,,,,,,,,,,,,,,,,,,,,,,,,,,,,,,,,,,,,,,,,,,,,,,,
1702547654,1702547654,90,0,4396.922852,4424.871582,4452.436035,4391.922852,4469.615234,4320.384766,4231.153809,4332.436035,4427.05127,4228.589844,4441.282227,4473.077148,4612.436035,4548.589844,5996,3,69,,,,0,4,4,4,4,4,4,4,4,4,4,4,4,4,4,100,,,,,,,,,,,,,,,,,,,,,,,,,,,,,,,,,,,,,,,,,,,,,,,,,,,,,,,,,,,,,,,,,,,,,,,,,,,,,,,,,,,,,,,,,,,,,,,,,,,,,,,,,,,,,,,,,,,,,,,,,,,,,,,,,,,,,,
1702547654,1702547654,91,0,4379.230957,4411.282227,4439.358887,4378.205078,4424.487305,4300.641113,4212.94873,4316.794922,4398.974121,4261.025879,4403.589844,4465.128418,4579.102539,4532.307617,6148,3,69,,,,0,4,4,4,4,4,4,4,4,4,4,4,4,4,4,100,,,,,,,,,,,,,,,,,,,,,,,,,,,,,,,,,,,,,,,,,,,,,,,,,,,,,,,,,,,,,,,,,,,,,,,,,,,,,,,,,,,,,,,,,,,,,,,,,,,,,,,,,,,,,,,,,,,,,,,,,,,,,,,,,,,,,,
1702547654,1702547654,92,0,4386.153809,4420,4447.05127,4397.563965,4416.794922,4308.846191,4222.436035,4330.641113,4413.717773,4279.615234,4414.743652,4467.05127,4601.153809,4539.487305,6671,3,69,,,,0,4,4,4,4,4,4,4,4,4,4,4,4,4,4,100,,,,,,,,,,,,,,,,,23,0,0.648437,-0.486511,-0.440552,-0.385681,0.94201,-0.299841,0.147967,-9.609667,-2.912344,89.331444,,,,,,,,,,,,,,,,,,,,,,,,,,,,,,,,,,,,,,,,,,,,,,,,,,,,,,,,,,,,,,,,,,,,,,,,,,,,,,,,,,,,,,,,,,,,,,,,,,,,,,,,,,
1702547654,1702547654,93,0,4403.333496,4422.692383,4467.436035,4419.615234,4458.333496,4341.282227,4239.102539,4353.589844,4446.794922,4265.641113,4441.922852,4479.615234,4620.641113,4560.769043,2025,3,69,,,,0,4,4,4,4,4,4,4,4,4,4,4,4,4,4,100,,,,,,,,,,,,,,,,,,,,,,,,,,,,,,,,,,,,,,,,,,,,,,,,,,,,,,,,,,,,,,,,,,,,,,,,,,,,,,,,,,,,,,,,,,,,,,,,,,,,,,,,,,,,,,,,,,,,,,,,,,,,,,,,,,,,,,
1702547654,1702547654,94,0,4393.205078,4402.307617,4464.871582,4418.205078,4432.692383,4345.128418,4234.487305,4349.743652,4445.128418,4254.871582,4422.436035,4481.410156,4596.666504,4557.94873,5996,3,69,,,,0,4,4,4,4,4,4,4,4,4,4,4,4,4,4,100,1,0,1,1,0,0,0,0,0,1,1,1,1,3,0,1,,,,,,,,,,,,,,,,,,,,,,,,,,,,,,,,,,,,,,,,,,,,,,,,,71.05442,23.742958,3.883856,4.301941,2.40708,185.011337,21.372747,7.245702,11.282522,3.415729,54.166065,13.060941,11.517805,10.493587,2.512213,164.278564,15.463977,3.258478,15.886605,6.67995,43.745075,13.061327,2.877512,6.190775,8.84102,69.038071,19.909569,6.753583,3.964805,0.738288,118.979012,11.73181,3.073678,2.995032,0.622648,15.676126,4.556847,1.270729,1.409324,0.737581,115.872353,15.898027,15.31754,5.050296,2.148768,43.049778,13.580196,2.896235,3.350303,9.383639,170.83197,51.387989,11.405145,7.231378,5.302339,6.103888,2.270402,2.97956,3.594409,1.62329,89.945099,113.324478,20.867424,7.620601,2.450668,180.070465,21.188677,2.766443,6.179389,9.464969
1702547654,1702547654,95,0,4381.153809,4385.128418,4453.461426,4416.794922,4422.05127,4339.743652,4230.641113,4347.692383,4444.358887,4280,4400.256348,4476.282227,4585.897461,4548.717773,6148,3,69,,,,0,4,4,4,4,4,4,4,4,4,4,4,4,4,4,100,,,,,,,,,,,,,,,,,,,,,,,,,,,,,,,,,,,,,,,,,,,,,,,,,,,,,,,,,,,,,,,,,,,,,,,,,,,,,,,,,,,,,,,,,,,,,,,,,,,,,,,,,,,,,,,,,,,,,,,,,,,,,,,,,,,,,,
1702547654,1702547654,96,0,4363.974121,4365.641113,4436.025879,4401.410156,4449.358887,4340.128418,4220,4349.487305,4450.256348,4288.461426,4374.871582,4471.538574,4571.410156,4534.102539,6671,3,69,,,,0,4,4,4,4,4,4,4,4,4,4,4,4,4,4,100,,,,,,,,,,,,,,,,,24,0,0.648496,-0.486694,-0.439941,-0.386047,0.925406,-0.257844,0.139665,-9.465366,-2.954443,89.331635,,,,,,,,,,,,,,,,,,,,,,,,,,,,,,,,,,,,,,,,,,,,,,,,,,,,,,,,,,,,,,,,,,,,,,,,,,,,,,,,,,,,,,,,,,,,,,,,,,,,,,,,,,
1702547654,1702547654,97,0,4317.692383,4320.769043,4402.05127,4354.871582,4423.205078,4327.692383,4185.128418,4330.897461,4428.205078,4237.179688,4314.615234,4462.179688,4514.487305,4494.487305,2025,3,69,,,,0,4,4,4,4,4,4,4,4,4,4,4,4,4,4,100,,,,,,,,,,,,,,,,,,,,,,,,,,,,,,,,,,,,,,,,,,,,,,,,,,,,,,,,,,,,,,,,,,,,,,,,,,,,,,,,,,,,,,,,,,,,,,,,,,,,,,,,,,,,,,,,,,,,,,,,,,,,,,,,,,,,,,
1702547654,1702547654,98,0,4279.487305,4269.871582,4375.384766,4321.922852,4385.897461,4318.205078,4164.230957,4318.077148,4412.179688,4204.230957,4274.487305,4452.05127,4471.153809,4457.692383,5996,3,69,,,,0,4,4,4,4,4,4,4,4,4,4,4,4,4,4,100,,,,,,,,,,,,,,,,,,,,,,,,,,,,,,,,,,,,,,,,,,,,,,,,,,,,,,,,,,,,,,,,,,,,,,,,,,,,,,,,,,,,,,,,,,,,,,,,,,,,,,,,,,,,,,,,,,,,,,,,,,,,,,,,,,,,,,
1702547654,1702547654,99,0,4268.717773,4236.025879,4367.94873,4324.615234,4384.358887,4326.282227,4169.743652,4330,4428.974121,4224.102539,4281.666504,4449.871582,4465.769043,4444.230957,6148,3,69,,,,0,4,4,4,4,4,4,4,4,4,4,4,4,4,4,100,,,,,,,,,,,,,,,,,,,,,,,,,,,,,,,,,,,,,,,,,,,,,,,,,,,,,,,,,,,,,,,,,,,,,,,,,,,,,,,,,,,,,,,,,,,,,,,,,,,,,,,,,,,,,,,,,,,,,,,,,,,,,,,,,,,,,,
1702547654,1702547654,100,0,4247.05127,4207.563965,4354.871582,4320.384766,4379.615234,4333.333496,4162.94873,4332.05127,4436.153809,4241.410156,4273.974121,4445.512695,4447.436035,4425.128418,6671,3,69,,,,0,4,4,4,4,4,4,4,4,4,4,4,4,4,4,100,,,,,,,,,,,,,,,,,25,0,0.648312,-0.486511,-0.43988,-0.386658,0.94787,-0.285191,0.142596,-9.335497,-3.042332,89.415138,,,,,,,,,,,,,,,,,,,,,,,,,,,,,,,,,,,,,,,,,,,,,,,,,,,,,,,,,,,,,,,,,,,,,,,,,,,,,,,,,,,,,,,,,,,,,,,,,,,,,,,,,,
1702547654,1702547654,101,0,4201.153809,4162.820313,4318.589844,4282.692383,4358.717773,4316.410156,4130.769043,4311.025879,4411.538574,4232.692383,4225.512695,4428.974121,4396.666504,4379.487305,2025,3,69,,,,0,4,4,4,4,4,4,4,4,4,4,4,4,4,4,100,,,,,,,,,,,,,,,,,,,,,,,,,,,,,,,,,,,,,,,,,,,,,,,,,,,,,,,,,,,,,,,,,,,,,,,,,,,,,,,,,,,,,,,,,,,,,,,,,,,,,,,,,,,,,,,,,,,,,,,,,,,,,,,,,,,,,,
1702547654,1702547654,102,0,4154.743652,4108.974121,4275.897461,4236.666504,4312.692383,4283.205078,4094.102539,4287.692383,4373.717773,4179.230957,4170,4413.589844,4336.666504,4322.820313,5996,3,69,,,,0,4,4,4,4,4,4,4,4,4,4,4,4,4,4,100,,,,,,,,,,,,,,,,,,,,,,,,,,,,,,,,,,,,,,,,,,,,,,,,,,,,,,,,,,,,,,,,,,,,,,,,,,,,,,,,,,,,,,,,,,,,,,,,,,,,,,,,,,,,,,,,,,,,,,,,,,,,,,,,,,,,,,
1702547654,1702547654,103,0,4116.922852,4057.820557,4245.128418,4203.077148,4252.436035,4265.769043,4076.025635,4276.025879,4341.410156,4101.025879,4134.743652,4405.512695,4286.666504,4279.230957,6148,3,69,,,,0,4,4,4,4,4,4,4,4,4,4,4,4,4,4,100,,,,,,,,,,,,,,,,,,,,,,,,,,,,,,,,,,,,,,,,,,,,,,,,,,,,,,,,,,,,,,,,,,,,,,,,,,,,,,,,,,,,,,,,,,,,,,,,,,,,,,,,,,,,,,,,,,,,,,,,,,,,,,,,,,,,,,
1702547654,1702547654,104,0,4100,4027.435791,4237.94873,4190.384766,4258.846191,4273.333496,4074.871826,4281.153809,4341.153809,4124.358887,4133.077148,4405.897461,4276.025879,4266.025879,6671,3,69,,,,0,4,4,4,4,4,4,4,4,4,4,4,4,4,4,100,,,,,,,,,,,,,,,,,26,0,0.647725,-0.485901,-0.440613,-0.387573,0.919546,-0.272983,0.141619,-9.151947,-2.888099,89.340286,,,,,,,,,,,,,,,,,,,,,,,,,,,,,,,,,,,,,,,,,,,,,,,,,,,,,,,,,,,,,,,,,,,,,,,,,,,,,,,,,,,,,,,,,,,,,,,,,,,,,,,,,,
1702547654,1702547654,105,0,4113.717773,4035,4254.615234,4210.769043,4307.820313,4285.128418,4081.794922,4292.307617,4362.436035,4185.384766,4150.128418,4414.358887,4294.230957,4275.384766,2025,3,69,,,,0,4,4,4,4,4,4,4,4,4,4,4,4,4,4,100,,,,,,,,,,,,,,,,,,,,,,,,,,,,,,,,,,,,,,,,,,,,,,,,,,,,,,,,,,,,,,,,,,,,,,,,,,,,,,,,,,,,,,,,,,,,,,,,,,,,,,,,,,,,,,,,,,,,,,,,,,,,,,,,,,,,,,
1702547654,1702547654,106,0,4144.358887,4056.281982,4286.538574,4250.384766,4319.743652,4305.384766,4103.077148,4306.794922,4377.94873,4166.538574,4177.05127,4425,4311.794922,4295.641113,5996,3,69,,,,0,4,4,4,4,4,4,4,4,4,4,4,4,4,4,100,,,,,,,,,,,,,,,,,,,,,,,,,,,,,,,,,,,,,,,,,,,,,,,,,,,,,,,,,,,,,,,,,,,,,,,,,,,,,,,,,,,,,,,,,,,,,,,,,,,,,,,,,,,,,,,,,,,,,,,,,,,,,,,,,,,,,,
1702547654,1702547654,107,0,4172.563965,4067.564209,4318.077148,4276.666504,4317.179688,4340.128418,4134.230957,4325.128418,4401.025879,4190.897461,4217.692383,4435.897461,4335.769043,4321.410156,6148,3,69,,,,0,4,4,4,4,4,4,4,4,4,4,4,4,4,4,100,,,,,,,,,,,,,,,,,,,,,,,,,,,,,,,,,,,,,,,,,,,,,,,,,,,,,,,,,,,,,,,,,,,,,,,,,,,,,,,,,,,,,,,,,,,,,,,,,,,,,,,,,,,,,,,,,,,,,,,,,,,,,,,,,,,,,,
1702547654,1702547654,108,0,4183.205078,4076.281982,4323.461426,4286.153809,4340.256348,4359.230957,4148.589844,4330,4419.230957,4248.333496,4240.384766,4439.358887,4354.102539,4331.922852,6671,3,69,,,,0,4,4,4,4,4,4,4,4,4,4,4,4,4,4,100,,,,,,,,,,,,,,,,,27,0,0.647628,-0.485413,-0.440918,-0.388,0.938103,-0.272983,0.145037,-8.953419,-2.965955,89.43959,,,,,,,,,,,,,,,,,,,,,,,,,,,,,,,,,,,,,,,,,,,,,,,,,,,,,,,,,,,,,,,,,,,,,,,,,,,,,,,,,,,,,,,,,,,,,,,,,,,,,,,,,,
1702547654,1702547654,109,0,4172.820313,4072.692383,4304.102539,4281.794922,4339.102539,4350.256348,4136.538574,4316.922852,4403.974121,4212.307617,4216.666504,4429.358887,4334.358887,4315.128418,2025,3,69,,,,0,4,4,4,4,4,4,4,4,4,4,4,4,4,4,100,,,,,,,,,,,,,,,,,,,,,,,,,,,,,,,,,,,,,,,,,,,,,,,,,,,,,,,,,,,,,,,,,,,,,,,,,,,,,,,,,,,,,,,,,,,,,,,,,,,,,,,,,,,,,,,,,,,,,,,,,,,,,,,,,,,,,,
1702547654,1702547654,110,0,4154.615234,4044.743652,4281.282227,4258.077148,4305.641113,4338.333496,4115,4305.128418,4376.922852,4182.179688,4177.94873,4419.230957,4296.922852,4286.025879,5996,3,69,,,,0,4,4,4,4,4,4,4,4,4,4,4,4,4,4,100,,,,,,,,,,,,,,,,,,,,,,,,,,,,,,,,,,,,,,,,,,,,,,,,,,,,,,,,,,,,,,,,,68.907356,20.419649,3.49345,3.948949,2.116135,152.840164,17.067614,7.195161,9.770197,3.084369,52.292084,12.020678,10.159602,9.448989,2.249279,158.571579,14.643579,3.231606,13.568067,5.607476,40.451839,14.63099,3.12805,6.766558,9.433411,67.481941,20.327795,7.043043,3.972641,0.745969,118.044014,13.793896,3.238142,3.103182,0.633036,15.727199,5.161201,1.290806,1.448591,0.7133,107.89315,16.430285,13.419266,4.810005,2.008646,43.641514,14.756167,3.008218,3.551086,8.994455,154.202744,46.805435,9.857546,6.452381,4.830831,6.221563,2.169018,2.61201,3.144323,1.412254,80.6073,101.290031,17.715155,6.658683,2.325489,183.184052,19.972527,3.311631,5.269826,8.11769
1702547654,1702547654,111,0,4140.128418,4023.718018,4263.717773,4237.436035,4274.230957,4332.05127,4097.436035,4299.358887,4365.128418,4210.641113,4160.384766,4416.922852,4281.153809,4263.077148,6148,3,69,,,,0,4,4,4,4,4,4,4,4,4,4,4,4,4,4,100,,,,,,,,,,,,,,,,,,,,,,,,,,,,,,,,,,,,,,,,,,,,,,,,,,,,,,,,,,,,,,,,,,,,,,,,,,,,,,,,,,,,,,,,,,,,,,,,,,,,,,,,,,,,,,,,,,,,,,,,,,,,,,,,,,,,,,
1702547654,1702547654,112,0,4123.717773,4013.589844,4244.102539,4227.692383,4247.436035,4316.153809,4077.179443,4284.358887,4347.94873,4165.256348,4142.94873,4411.153809,4260.897461,4244.230957,6671,3,69,,,,0,4,4,4,4,4,4,4,4,4,4,4,4,4,4,100,,,,,,,,,,,,,,,,,28,0,0.647643,-0.485229,-0.440613,-0.38855,0.936149,-0.283726,0.154804,-8.99141,-2.81936,89.445633,,,,,,,,,,,,,,,,,,,,,,,,,,,,,,,,,,,,,,,,,,,,,,,,,,,,,,,,,,,,,,,,,,,,,,,,,,,,,,,,,,,,,,,,,,,,,,,,,,,,,,,,,,
1702547654,1702547654,113,0,4116.794922,3998.718018,4231.666504,4218.461426,4256.922852,4306.794922,4062.564209,4278.461426,4332.436035,4105.897461,4125.256348,4407.436035,4235.769043,4240.128418,2025,3,69,,,,0,4,4,4,4,4,4,4,4,4,4,4,4,4,4,100,,,,,,,,,,,,,,,,,,,,,,,,,,,,,,,,,,,,,,,,,,,,,,,,,,,,,,,,,,,,,,,,,,,,,,,,,,,,,,,,,,,,,,,,,,,,,,,,,,,,,,,,,,,,,,,,,,,,,,,,,,,,,,,,,,,,,,
1702547654,1702547654,114,0,4138.333496,4014.743652,4245.897461,4230.384766,4291.794922,4327.307617,4079.358887,4302.436035,4354.615234,4161.538574,4140.512695,4418.717773,4251.282227,4268.205078,5996,3,69,,,,0,4,4,4,4,4,4,4,4,4,4,4,4,4,4,100,,,,,,,,,,,,,,,,,,,,,,,,,,,,,,,,,,,,,,,,,,,,,,,,,,,,,,,,,,,,,,,,,,,,,,,,,,,,,,,,,,,,,,,,,,,,,,,,,,,,,,,,,,,,,,,,,,,,,,,,,,,,,,,,,,,,,,
1702547654,1702547654,115,0,4161.666504,4050.641113,4266.538574,4259.615234,4300.512695,4358.205078,4108.717773,4327.436035,4388.461426,4225,4168.974121,4427.692383,4282.179688,4296.153809,6148,3,69,,,,0,4,4,4,4,4,4,4,4,4,4,4,4,4,4,100,,,,,,,,,,,,,,,,,,,,,,,,,,,,,,,,,,,,,,,,,,,,,,,,,,,,,,,,,,,,,,,,,,,,,,,,,,,,,,,,,,,,,,,,,,,,,,,,,,,,,,,,,,,,,,,,,,,,,,,,,,,,,,,,,,,,,,
1702547654,1702547654,116,0,4159.230957,4049.102539,4260.897461,4260,4308.205078,4368.077148,4110.256348,4322.94873,4388.717773,4214.743652,4161.538574,4422.307617,4273.717773,4288.717773,6671,3,69,,,,0,4,4,4,4,4,4,4,4,4,4,4,4,4,4,100,,,,,,,,,,,,,,,,,29,0,0.647879,-0.485352,-0.440186,-0.388489,0.951288,-0.276401,0.164083,-9.025602,-2.937424,89.367737,,,,,,,,,,,,,,,,,,,,,,,,,,,,,,,,,,,,,,,,,,,,,,,,,,,,,,,,,,,,,,,,,,,,,,,,,,,,,,,,,,,,,,,,,,,,,,,,,,,,,,,,,,
1702547654,1702547654,117,0,4148.205078,4024.871826,4241.538574,4236.538574,4305.641113,4354.358887,4094.487061,4309.871582,4367.94873,4193.846191,4127.179688,4415.641113,4245.128418,4267.307617,2025,3,69,,,,0,4,4,4,4,4,4,4,4,4,4,4,4,4,4,100,,,,,,,,,,,,,,,,,,,,,,,,,,,,,,,,,,,,,,,,,,,,,,,,,,,,,,,,,,,,,,,,,,,,,,,,,,,,,,,,,,,,,,,,,,,,,,,,,,,,,,,,,,,,,,,,,,,,,,,,,,,,,,,,,,,,,,
1702547654,1702547654,118,0,4141.025879,4013.076904,4229.743652,4226.666504,4250.128418,4332.179688,4081.025635,4307.436035,4357.05127,4189.743652,4108.589844,4410.512695,4231.282227,4254.230957,5996,3,69,,,,0,4,4,4,4,4,4,4,4,4,4,4,4,4,4,100,,,,,,,,,,,,,,,,,,,,,,,,,,,,,,,,,,,,,,,,,,,,,,,,,,,,,,,,,,,,,,,,,,,,,,,,,,,,,,,,,,,,,,,,,,,,,,,,,,,,,,,,,,,,,,,,,,,,,,,,,,,,,,,,,,,,,,
1702547654,1702547654,119,0,4127.563965,3998.205078,4215.256348,4216.666504,4205.512695,4307.05127,4065.512939,4300.897461,4345.897461,4179.102539,4095.256348,4406.794922,4218.205078,4239.102539,6148,3,69,,,,0,4,4,4,4,4,4,4,4,4,4,4,4,4,4,100,,,,,,,,,,,,,,,,,,,,,,,,,,,,,,,,,,,,,,,,,,,,,,,,,,,,,,,,,,,,,,,,,,,,,,,,,,,,,,,,,,,,,,,,,,,,,,,,,,,,,,,,,,,,,,,,,,,,,,,,,,,,,,,,,,,,,,
1702547654,1702547654,120,0,4119.230957,3982.179443,4201.282227,4200.128418,4214.743652,4290.641113,4055.128174,4291.025879,4325.641113,4146.666504,4071.025635,4404.102539,4205.256348,4224.487305,6671,3,69,,,,0,4,4,4,4,4,4,4,4,4,4,4,4,4,4,100,,,,,,,,,,,,,,,,,30,0,0.647831,-0.485474,-0.439636,-0.389038,0.930778,-0.262727,0.147967,-8.839709,-3.043682,89.29763,,,,,,,,,,,,,,,,,,,,,,,,,,,,,,,,,,,,,,,,,,,,,,,,,,,,,,,,,,,,,,,,,,,,,,,,,,,,,,,,,,,,,,,,,,,,,,,,,,,,,,,,,,
1702547654,1702547654,121,0,4132.179688,3988.461426,4208.461426,4202.307617,4237.179688,4296.282227,4058.846191,4292.436035,4314.871582,4122.436035,4058.974365,4403.589844,4206.153809,4226.282227,2025,3,69,,,,0,4,4,4,4,4,4,4,4,4,4,4,4,4,4,100,,,,,,,,,,,,,,,,,,,,,,,,,,,,,,,,,,,,,,,,,,,,,,,,,,,,,,,,,,,,,,,,,,,,,,,,,,,,,,,,,,,,,,,,,,,,,,,,,,,,,,,,,,,,,,,,,,,,,,,,,,,,,,,,,,,,,,
1702547654,1702547654,122,0,4152.692383,4002.179443,4228.077148,4218.589844,4265.512695,4306.538574,4061.923096,4299.102539,4317.179688,4172.307617,4063.589844,4410.512695,4218.974121,4237.563965,5996,3,69,,,,0,4,4,4,4,4,4,4,4,4,4,4,4,4,4,100,,,,,,,,,,,,,,,,,,,,,,,,,,,,,,,,,,,,,,,,,,,,,,,,,,,,,,,,,,,,,,,,,,,,,,,,,,,,,,,,,,,,,,,,,,,,,,,,,,,,,,,,,,,,,,,,,,,,,,,,,,,,,,,,,,,,,,
1702547654,1702547654,123,0,4155.128418,4000.769287,4229.102539,4217.94873,4264.230957,4299.358887,4052.820557,4295.384766,4314.743652,4224.230957,4051.410156,4411.025879,4220.512695,4230.641113,6148,3,69,,,,0,4,4,4,4,4,4,4,4,4,4,4,4,4,4,100,,,,,,,,,,,,,,,,,,,,,,,,,,,,,,,,,,,,,,,,,,,,,,,,,,,,,,,,,,,,,,,,,,,,,,,,,,,,,,,,,,,,,,,,,,,,,,,,,,,,,,,,,,,,,,,,,,,,,,,,,,,,,,,,,,,,,,
1702547654,1702547654,124,0,4145.641113,3997.05127,4216.410156,4203.589844,4216.282227,4295.128418,4046.025635,4289.615234,4303.077148,4190.384766,4018.205078,4403.717773,4203.461426,4210.897461,6671,3,69,,,,0,4,4,4,4,4,4,4,4,4,4,4,4,4,4,100,,,,,,,,,,,,,,,,,31,0,0.64774,-0.485596,-0.439148,-0.389587,0.936638,-0.263704,0.150897,-8.822405,-3.00598,89.334534,,,,,,,,,,,,,,,,,,,,,,,,,,,,,,,,,,,,,,,,,,,,,,,,,,,,,,,,,,,,,,,,,,,,,,,,,,,,,,,,,,,,,,,,,,,,,,,,,,,,,,,,,,
1702547654,1702547655,125,0,4148.077148,4000.897461,4215.641113,4194.743652,4190.128418,4315.641113,4055.512939,4302.179688,4306.282227,4170.384766,4007.307617,4403.333496,4202.436035,4213.077148,2025,3,69,,,,0,4,4,4,4,4,4,4,4,4,4,4,4,4,4,100,,,,,,,,,,,,,,,,,,,,,,,,,,,,,,,,,,,,,,,,,,,,,,,,,,,,,,,,,,,,,,,,,,,,,,,,,,,,,,,,,,,,,,,,,,,,,,,,,,,,,,,,,,,,,,,,,,,,,,,,,,,,,,,,,,,,,,
1702547654,1702547655,126,0,4154.487305,3999.230713,4220.384766,4185.256348,4240.512695,4336.282227,4067.94873,4314.487305,4315.384766,4174.487305,4018.205078,4404.743652,4216.666504,4218.717773,5996,3,69,,,,0,4,4,4,4,4,4,4,4,4,4,4,4,4,4,100,,,,,,,,,,,,,,,,,,,,,,,,,,,,,,,,,,,,,,,,,,,,,,,,,,,,,,,,,,,,,,,,,72.324532,16.292854,3.123872,3.438857,1.73093,136.513535,13.067916,6.574538,7.537079,2.54666,48.05397,10.331092,7.896665,7.501582,1.793864,136.683289,12.700194,2.960442,10.105436,4.126285,34.146244,15.095004,3.476714,7.012722,9.671525,63.003899,18.719936,6.630339,3.63216,0.711846,101.729935,14.750967,3.188972,2.987156,0.619431,13.807635,5.242853,1.205985,1.401596,0.642626,86.883018,15.621189,10.473431,4.263081,1.739503,39.263134,14.482557,3.160021,3.920432,8.513324,133.709564,37.650185,7.908901,5.326349,3.931847,5.869216,1.951315,1.998281,2.368927,1.061172,68.432152,78.631912,13.214732,5.214419,2.042709,174.014542,17.377464,3.751086,4.177727,6.042599
1702547654,1702547655,127,0,4150.256348,3990.897461,4214.615234,4169.743652,4285,4331.666504,4060,4305.384766,4302.692383,4155.384766,4010.897461,4401.666504,4213.205078,4200.897461,69,3,69,,,,0,4,4,4,4,4,4,4,4,4,4,4,4,4,4,100,,,,,,,,,,,,,,,,,,,,,,,,,,,,,,,,,,,,,,,,,,,,,,,,,,,,,,,,,,,,,,,,,,,,,,,,,,,,,,,,,,,,,,,,,,,,,,,,,,,,,,,,,,,,,,,,,,,,,,,,,,,,,,,,,,,,,,
1702547654,1702547655,0,0,4153.717773,3999.615479,4215,4163.077148,4230.512695,4335.769043,4052.435791,4299.230957,4297.94873,4185.641113,3992.692383,4404.743652,4210.256348,4200.512695,5507,3,69,,,,0,4,4,4,4,4,4,4,4,4,4,4,4,4,4,100,,,,,,,,,,,,,,,,,0,0,0.648054,-0.486145,-0.438293,-0.389343,0.935661,-0.275913,0.150897,-8.840164,-3.122049,89.417747,,,,,,,,,,,,,,,,,,,,,,,,,,,,,,,,,,,,,,,,,,,,,,,,,,,,,,,,,,,,,,,,,,,,,,,,,,,,,,,,,,,,,,,,,,,,,,,,,,,,,,,,,,
1702547654,1702547655,1,0,4176.410156,4021.538574,4232.307617,4169.615234,4186.153809,4349.102539,4070.128174,4312.94873,4312.179688,4233.205078,3997.179443,4411.666504,4229.871582,4227.05127,5704,3,69,,,,0,4,4,4,4,4,4,4,4,4,4,4,4,4,4,100,,,,,,,,,,,,,,,,,,,,,,,,,,,,,,,,,,,,,,,,,,,,,,,,,,,,,,,,,,,,,,,,,,,,,,,,,,,,,,,,,,,,,,,,,,,,,,,,,,,,,,,,,,,,,,,,,,,,,,,,,,,,,,,,,,,,,,
1702547654,1702547655,2,0,4190,4024.871826,4240,4169.487305,4248.333496,4277.307617,4077.820557,4315.512695,4312.307617,4227.436035,4009.487061,4410.128418,4242.179688,4229.871582,5626,3,69,,,,0,4,4,4,4,4,4,4,4,4,4,4,4,4,4,100,,,,,,,,,,,,,,,,,,,,,,,,,,,,,,,,,,,,,,,,,,,,,,,,,,,,,,,,,,,,,,,,,,,,,,,,,,,,,,,,,,,,,,,,,,,,,,,,,,,,,,,,,,,,,,,,,,,,,,,,,,,,,,,,,,,,,,
1702547654,1702547655,3,0,4181.538574,4018.589844,4233.846191,4155,4302.563965,4125.128418,4054.871826,4299.102539,4294.230957,4213.717773,3998.718018,4406.538574,4231.794922,4213.461426,5549,3,69,,,,0,4,4,4,4,4,4,4,4,4,4,4,4,4,4,100,,,,,,,,,,,,,,,,,,,,,,,,,,,,,,,,,,,,,,,,,,,,,,,,,,,,,,,,,,,,,,,,,,,,,,,,,,,,,,,,,,,,,,,,,,,,,,,,,,,,,,,,,,,,,,,,,,,,,,,,,,,,,,,,,,,,,,
1702547654,1702547655,4,0,4170.128418,4017.820557,4226.666504,4140.512695,4227.179688,4024.487061,4035,4291.153809,4275.769043,4191.153809,3980.384521,4406.025879,4216.666504,4207.692383,5425,3,69,,,,0,4,4,4,4,4,4,4,4,4,4,4,4,4,4,100,,,,,,,,,,,,,,,,,1,0,0.648397,-0.486694,-0.4375,-0.388977,0.94201,-0.277378,0.152851,-8.706148,-3.043177,89.392639,,,,,,,,,,,,,,,,,,,,,,,,,,,,,,,,,,,,,,,,,,,,,,,,,,,,,,,,,,,,,,,,,,,,,,,,,,,,,,,,,,,,,,,,,,,,,,,,,,,,,,,,,,
1702547654,1702547655,5,0,4167.94873,4007.692383,4222.436035,4131.666504,4162.307617,4010.897461,4037.05127,4293.205078,4263.589844,4161.794922,3981.025635,4403.461426,4202.563965,4200.512695,5045,3,69,,,,0,4,4,4,4,4,4,4,4,4,4,4,4,4,4,100,,,,,,,,,,,,,,,,,,,,,,,,,,,,,,,,,,,,,,,,,,,,,,,,,,,,,,,,,,,,,,,,,,,,,,,,,,,,,,,,,,,,,,,,,,,,,,,,,,,,,,,,,,,,,,,,,,,,,,,,,,,,,,,,,,,,,,
1702547654,1702547655,6,0,4167.94873,3989.743652,4218.461426,4123.717773,4218.205078,4012.05127,4039.615479,4292.94873,4260.384766,4170.384766,3979.358887,4403.717773,4189.743652,4184.743652,4794,3,69,,,,0,4,4,4,4,4,4,4,4,4,4,4,4,4,4,100,,,,,,,,,,,,,,,,,,,,,,,,,,,,,,,,,,,,,,,,,,,,,,,,,,,,,,,,,,,,,,,,,,,,,,,,,,,,,,,,,,,,,,,,,,,,,,,,,,,,,,,,,,,,,,,,,,,,,,,,,,,,,,,,,,,,,,
1702547654,1702547655,7,0,4164.743652,3985.512939,4215.128418,4116.282227,4260,4010.641113,4037.435791,4293.974121,4261.794922,4187.179688,3957.94873,4406.666504,4186.410156,4182.307617,3849,3,69,,,,0,4,4,4,4,4,4,4,4,4,4,4,4,4,4,100,,,,,,,,,,,,,,,,,,,,,,,,,,,,,,,,,,,,,,,,,,,,,,,,,,,,,,,,,,,,,,,,,,,,,,,,,,,,,,,,,,,,,,,,,,,,,,,,,,,,,,,,,,,,,,,,,,,,,,,,,,,,,,,,,,,,,,
1702547654,1702547655,8,0,4168.717773,3995.384521,4220.128418,4118.846191,4220.256348,4030,4047.692383,4296.538574,4261.025879,4198.974121,3950.897461,4406.538574,4187.307617,4195.384766,5073,3,69,,,,0,4,4,4,4,4,4,4,4,4,4,4,4,4,4,100,,,,,,,,,,,,,,,,,2,0,0.648654,-0.486755,-0.437378,-0.388611,0.926383,-0.277378,0.148944,-8.8522,-3.188859,89.48671,,,,,,,,,,,,,,,,,,,,,,,,,,,,,,,,,,,,,,,,,,,,,,,,,,,,,,,,,,,,,,,,,,,,,,,,,,,,,,,,,,,,,,,,,,,,,,,,,,,,,,,,,,
1702547654,1702547655,9,0,4174.615234,4000.384521,4227.692383,4127.563965,4191.282227,4060.897461,4060.384521,4293.846191,4260.897461,4192.563965,3966.666748,4408.205078,4183.589844,4197.820313,5454,3,69,,,,0,4,4,4,4,4,4,4,4,4,4,4,4,4,4,100,,,,,,,,,,,,,,,,,,,,,,,,,,,,,,,,,,,,,,,,,,,,,,,,,,,,,,,,,,,,,,,,,,,,,,,,,,,,,,,,,,,,,,,,,,,,,,,,,,,,,,,,,,,,,,,,,,,,,,,,,,,,,,,,,,,,,,
1702547654,1702547655,10,0,4184.230957,4007.435791,4236.922852,4136.153809,4219.743652,4093.589844,4068.461426,4300,4262.94873,4155,3993.333252,4412.307617,4192.692383,4200.256348,6048,3,69,,,,0,4,4,4,4,4,4,4,4,4,4,4,4,4,4,100,,,,,,,,,,,,,,,,,,,,,,,,,,,,,,,,,,,,,,,,,,,,,,,,,,,,,,,,,,,,,,,,,,,,,,,,,,,,,,,,,,,,,,,,,,,,,,,,,,,,,,,,,,,,,,,,,,,,,,,,,,,,,,,,,,,,,,
1702547654,1702547655,11,0,4202.692383,4023.205078,4251.922852,4146.153809,4245.897461,4125.384766,4081.153809,4311.794922,4266.922852,4194.358887,4028.076904,4414.871582,4214.743652,4219.487305,6157,3,69,,,,0,4,4,4,4,4,4,4,4,4,4,4,4,4,4,100,,,,,,,,,,,,,,,,,,,,,,,,,,,,,,,,,,,,,,,,,,,,,,,,,,,,,,,,,,,,,,,,,,,,,,,,,,,,,,,,,,,,,,,,,,,,,,,,,,,,,,,,,,,,,,,,,,,,,,,,,,,,,,,,,,,,,,
1702547654,1702547655,12,0,4200.256348,4021.666748,4246.538574,4138.461426,4231.410156,4146.538574,4089.615479,4302.692383,4257.436035,4271.153809,4039.743652,4412.94873,4209.102539,4219.743652,6680,3,69,,,,0,4,4,4,4,4,4,4,4,4,4,4,4,4,4,100,,,,,,,,,,,,,,,,,3,0,0.64896,-0.486755,-0.437195,-0.388306,0.938591,-0.295446,0.156757,-8.783647,-3.28664,89.504707,,,,,,,,,,,,,,,,,,,,,,,,,,,,,,,,,,,,,,,,,,,,,,,,,,,,,,,,,,,,,,,,,,,,,,,,,,,,,,,,,,,,,,,,,,,,,,,,,,,,,,,,,,
1702547654,1702547655,13,0,4181.025879,4010.641113,4229.487305,4122.692383,4204.743652,4162.05127,4093.461426,4296.922852,4252.94873,4223.461426,4039.615479,4410.128418,4173.205078,4210,2015,3,69,,,,0,4,4,4,4,4,4,4,4,4,4,4,4,4,4,100,,,,,,,,,,,,,,,,,,,,,,,,,,,,,,,,,,,,,,,,,,,,,,,,,,,,,,,,,,,,,,,,,,,,,,,,,,,,,,,,,,,,,,,,,,,,,,,,,,,,,,,,,,,,,,,,,,,,,,,,,,,,,,,,,,,,,,
1702547654,1702547655,14,0,4192.436035,4025.897461,4242.820313,4138.077148,4213.589844,4187.436035,4108.461426,4309.615234,4293.589844,4176.153809,4073.846191,4414.487305,4146.794922,4241.282227,6048,3,69,,,,0,4,4,4,4,4,4,4,4,4,4,4,4,4,4,100,,,,,,,,,,,,,,,,,,,,,,,,,,,,,,,,,,,,,,,,,,,,,,,,,,,,,,,,,,,,,,,,,79.764221,12.112457,2.973443,2.980478,1.3635,137.125198,9.565142,5.716283,5.294003,1.97019,44.286804,8.391657,5.60205,5.401258,1.296461,109.001205,10.218131,2.633977,6.647479,2.682082,27.685814,14.500939,4.152483,6.899105,9.567022,55.070244,15.817314,5.847348,3.097953,0.643164,76.168747,14.55267,3.092956,2.761292,0.585904,10.856495,4.845637,1.099854,1.320434,0.546953,61.146332,13.919497,7.592658,3.683991,1.436787,31.78953,13.115491,3.42478,4.456604,7.987097,116.904556,26.802719,6.239312,4.283186,2.919103,5.383285,1.685295,1.363474,1.532207,0.68377,63.548897,52.696434,8.939231,3.841013,1.719755,156.759064,14.032287,4.104056,3.261129,3.894479
1702547654,1702547655,15,0,4215.897461,4044.102539,4262.307617,4159.102539,4247.179688,4208.205078,4114.358887,4307.94873,4326.538574,4242.05127,4105.641113,4418.717773,4128.333496,4271.282227,6157,3,69,,,,0,4,4,4,4,4,4,4,4,4,4,4,4,4,4,100,,,,,,,,,,,,,,,,,,,,,,,,,,,,,,,,,,,,,,,,,,,,,,,,,,,,,,,,,,,,,,,,,,,,,,,,,,,,,,,,,,,,,,,,,,,,,,,,,,,,,,,,,,,,,,,,,,,,,,,,,,,,,,,,,,,,,,
1702547654,1702547655,16,0,4206.153809,4036.410156,4248.846191,4147.94873,4238.589844,4203.974121,4096.666504,4286.410156,4298.974121,4241.153809,4095.256348,4413.717773,4105.641113,4250.256348,0,3,69,,,,0,4,4,4,4,4,4,4,4,4,4,4,4,4,4,100,,,,,,,,,,,,,,,,,4,0,0.649015,-0.485718,-0.438049,-0.38855,0.930289,-0.283726,0.138689,-8.788615,-3.407976,89.554237,,,,,,,,,,,,,,,,,,,,,,,,,,,,,,,,,,,,,,,,,,,,,,,,,,,,,,,,,,,,,,,,,,,,,,,,,,,,,,,,,,,,,,,,,,,,,,,,,,,,,,,,,,
1702547654,1702547655,17,0,4193.333496,4034.230713,4234.615234,4139.358887,4203.205078,4201.153809,4091.538574,4278.974121,4270,4163.974121,4085.897461,4409.358887,4092.307617,4229.487305,0,3,69,,,,0,4,4,4,4,4,4,4,4,4,4,4,4,4,4,100,,,,,,,,,,,,,,,,,,,,,,,,,,,,,,,,,,,,,,,,,,,,,,,,,,,,,,,,,,,,,,,,,,,,,,,,,,,,,,,,,,,,,,,,,,,,,,,,,,,,,,,,,,,,,,,,,,,,,,,,,,,,,,,,,,,,,,
1702547654,1702547655,18,0,4201.538574,4046.666748,4240.897461,4153.974121,4212.05127,4220,4106.025879,4288.717773,4280.384766,4190.384766,4093.205078,4414.615234,4096.282227,4236.282227,0,3,69,,,,0,4,4,4,4,4,4,4,4,4,4,4,4,4,4,100,,,,,,,,,,,,,,,,,,,,,,,,,,,,,,,,,,,,,,,,,,,,,,,,,,,,,,,,,,,,,,,,,,,,,,,,,,,,,,,,,,,,,,,,,,,,,,,,,,,,,,,,,,,,,,,,,,,,,,,,,,,,,,,,,,,,,,
1702547654,1702547655,19,0,4202.05127,4046.666748,4244.102539,4156.410156,4231.153809,4240,4113.461426,4294.358887,4287.179688,4257.179688,4098.846191,4417.692383,4110.512695,4235.897461,0,3,69,,,,0,4,4,4,4,4,4,4,4,4,4,4,4,4,4,100,,,,,,,,,,,,,,,,,,,,,,,,,,,,,,,,,,,,,,,,,,,,,,,,,,,,,,,,,,,,,,,,,,,,,,,,,,,,,,,,,,,,,,,,,,,,,,,,,,,,,,,,,,,,,,,,,,,,,,,,,,,,,,,,,,,,,,
1702547654,1702547655,20,0,4201.153809,4045.512939,4246.922852,4155.641113,4195.641113,4250.128418,4124.871582,4296.282227,4276.922852,4216.538574,4103.974121,4415,4120.641113,4228.333496,0,3,69,,,,0,4,4,4,4,4,4,4,4,4,4,4,4,4,4,100,,,,,,,,,,,,,,,,,5,0,0.648972,-0.484924,-0.438721,-0.388855,0.933219,-0.289586,0.139177,-8.693087,-3.333845,89.532143,,,,,,,,,,,,,,,,,,,,,,,,,,,,,,,,,,,,,,,,,,,,,,,,,,,,,,,,,,,,,,,,,,,,,,,,,,,,,,,,,,,,,,,,,,,,,,,,,,,,,,,,,,
1702547654,1702547655,21,0,4216.666504,4060.256348,4261.666504,4176.282227,4211.025879,4266.282227,4150,4301.666504,4278.077148,4187.94873,4107.05127,4418.846191,4129.102539,4233.461426,0,3,69,,,,0,4,4,4,4,4,4,4,4,4,4,4,4,4,4,100,,,,,,,,,,,,,,,,,,,,,,,,,,,,,,,,,,,,,,,,,,,,,,,,,,,,,,,,,,,,,,,,,,,,,,,,,,,,,,,,,,,,,,,,,,,,,,,,,,,,,,,,,,,,,,,,,,,,,,,,,,,,,,,,,,,,,,
1702547654,1702547655,22,0,4232.179688,4078.974365,4277.820313,4197.307617,4280.641113,4287.692383,4174.487305,4310.512695,4288.974121,4247.563965,4112.692383,4429.487305,4144.615234,4247.436035,0,3,69,,,,0,4,4,4,4,4,4,4,4,4,4,4,4,4,4,100,,,,,,,,,,,,,,,,,,,,,,,,,,,,,,,,,,,,,,,,,,,,,,,,,,,,,,,,,,,,,,,,,,,,,,,,,,,,,,,,,,,,,,,,,,,,,,,,,,,,,,,,,,,,,,,,,,,,,,,,,,,,,,,,,,,,,,
1702547654,1702547655,23,0,4236.666504,4096.410156,4290.256348,4206.025879,4258.077148,4298.846191,4193.333496,4316.666504,4293.974121,4262.820313,4123.333496,4435.128418,4165.769043,4260.384766,0,3,69,,,,0,4,4,4,4,4,4,4,4,4,4,4,4,4,4,100,,,,,,,,,,,,,,,,,,,,,,,,,,,,,,,,,,,,,,,,,,,,,,,,,,,,,,,,,,,,,,,,,,,,,,,,,,,,,,,,,,,,,,,,,,,,,,,,,,,,,,,,,,,,,,,,,,,,,,,,,,,,,,,,,,,,,,
1702547654,1702547655,24,0,4238.974121,4104.615234,4293.333496,4206.153809,4227.05127,4306.282227,4201.538574,4316.410156,4295.256348,4248.333496,4127.563965,4433.974121,4182.820313,4264.871582,0,3,69,,,,0,4,4,4,4,4,4,4,4,4,4,4,4,4,4,100,,,,,,,,,,,,,,,,,6,0,0.649275,-0.483337,-0.439697,-0.389221,0.920523,-0.304236,0.147479,-8.607112,-3.333794,89.478928,,,,,,,,,,,,,,,,,,,,,,,,,,,,,,,,,,,,,,,,,,,,,,,,,,,,,,,,,,,,,,,,,,,,,,,,,,,,,,,,,,,,,,,,,,,,,,,,,,,,,,,,,,
1702547654,1702547655,25,0,4235.641113,4096.025879,4286.153809,4201.922852,4264.615234,4322.692383,4202.05127,4313.589844,4292.05127,4264.487305,4121.922852,4431.153809,4186.538574,4261.153809,0,3,69,,,,0,4,4,4,4,4,4,4,4,4,4,4,4,4,4,100,,,,,,,,,,,,,,,,,,,,,,,,,,,,,,,,,,,,,,,,,,,,,,,,,,,,,,,,,,,,,,,,,,,,,,,,,,,,,,,,,,,,,,,,,,,,,,,,,,,,,,,,,,,,,,,,,,,,,,,,,,,,,,,,,,,,,,
1702547654,1702547655,26,0,4218.077148,4086.025635,4269.743652,4195.128418,4248.333496,4332.179688,4205.769043,4308.461426,4279.230957,4248.846191,4106.666504,4427.05127,4171.794922,4247.436035,0,3,69,,,,0,4,4,4,4,4,4,4,4,4,4,4,4,4,4,100,,,,,,,,,,,,,,,,,,,,,,,,,,,,,,,,,,,,,,,,,,,,,,,,,,,,,,,,,,,,,,,,,,,,,,,,,,,,,,,,,,,,,,,,,,,,,,,,,,,,,,,,,,,,,,,,,,,,,,,,,,,,,,,,,,,,,,
1702547654,1702547655,27,0,4215.897461,4098.333496,4266.282227,4197.179688,4223.717773,4339.230957,4215,4310.641113,4285.384766,4234.743652,4105.256348,4426.794922,4171.282227,4246.538574,0,3,69,,,,0,4,4,4,4,4,4,4,4,4,4,4,4,4,4,100,,,,,,,,,,,,,,,,,,,,,,,,,,,,,,,,,,,,,,,,,,,,,,,,,,,,,,,,,,,,,,,,,,,,,,,,,,,,,,,,,,,,,,,,,,,,,,,,,,,,,,,,,,,,,,,,,,,,,,,,,,,,,,,,,,,,,,
1702547654,1702547655,28,0,4240.897461,4122.307617,4281.282227,4214.743652,4260.641113,4359.358887,4228.974121,4323.077148,4314.487305,4287.692383,4138.846191,4433.846191,4203.205078,4272.820313,0,3,69,,,,0,4,4,4,4,4,4,4,4,4,4,4,4,4,4,100,,,,,,,,,,,,,,,,,7,0,0.650011,-0.482666,-0.439941,-0.38855,0.936149,-0.293981,0.156757,-8.496401,-3.367081,89.531036,,,,,,,,,,,,,,,,,,,,,,,,,,,,,,,,,,,,,,,,,,,,,,,,,,,,,,,,,,,,,,,,,,,,,,,,,,,,,,,,,,,,,,,,,,,,,,,,,,,,,,,,,,
1702547654,1702547655,29,0,4247.692383,4127.179688,4280.256348,4218.461426,4269.487305,4370.384766,4232.05127,4325.128418,4313.717773,4310.128418,4167.692383,4435.128418,4217.05127,4285.128418,0,3,69,,,,0,4,4,4,4,4,4,4,4,4,4,4,4,4,4,100,,,,,,,,,,,,,,,,,,,,,,,,,,,,,,,,,,,,,,,,,,,,,,,,,,,,,,,,,,,,,,,,,,,,,,,,,,,,,,,,,,,,,,,,,,,,,,,,,,,,,,,,,,,,,,,,,,,,,,,,,,,,,,,,,,,,,,
1702547654,1702547655,30,0,4229.743652,4122.563965,4262.307617,4207.179688,4266.282227,4366.025879,4222.05127,4316.538574,4286.153809,4276.794922,4163.974121,4427.179688,4200.128418,4267.563965,0,3,69,,,,0,4,4,4,4,4,4,4,4,4,4,4,4,4,4,100,1,0,1,1,0,0,0,0,0,1,1,1,0,3,0,0,,,,,,,,,,,,,,,,,,,,,,,,,,,,,,,,,,,,,,,,,,,,,,,,,87.907295,8.665283,3.189156,2.782505,1.09857,147.760193,6.769964,5.059162,3.652396,1.50464,41.481514,6.773167,4.057508,3.845263,0.893227,87.087448,8.058783,2.513059,4.196994,1.608235,23.231747,13.244123,5.28087,6.566907,9.19882,46.319393,13.36283,5.512968,2.64279,0.569949,50.3764,13.522102,3.201716,2.585988,0.5412,7.732882,4.182367,1.103848,1.273138,0.453822,37.49345,11.898184,5.668813,3.318302,1.184281,23.757566,11.352643,3.90516,5.160562,7.488086,111.222229,17.54093,5.377021,3.722601,2.080902,4.900073,1.449611,0.903473,0.874064,0.380414,65.006584,30.62899,6.198363,3.031608,1.459234,136.812149,10.800544,4.48925,2.824662,2.223753
1702547654,1702547655,31,0,4225.641113,4129.102539,4258.974121,4209.358887,4239.743652,4361.282227,4210.256348,4308.077148,4272.692383,4263.333496,4161.794922,4423.589844,4193.846191,4257.179688,0,3,69,,,,0,4,4,4,4,4,4,4,4,4,4,4,4,4,4,100,,,,,,,,,,,,,,,,,,,,,,,,,,,,,,,,,,,,,,,,,,,,,,,,,,,,,,,,,,,,,,,,,,,,,,,,,,,,,,,,,,,,,,,,,,,,,,,,,,,,,,,,,,,,,,,,,,,,,,,,,,,,,,,,,,,,,,
1702547654,1702547655,32,0,4239.487305,4143.077148,4267.307617,4224.871582,4187.820313,4365.384766,4206.666504,4304.487305,4270.897461,4257.436035,4180.384766,4425.641113,4204.487305,4265.897461,0,3,69,,,,0,4,4,4,4,4,4,4,4,4,4,4,4,4,4,100,,,,,,,,,,,,,,,,,8,0,0.650796,-0.482727,-0.439575,-0.387573,0.933219,-0.283726,0.136247,-8.530094,-3.313707,89.327934,,,,,,,,,,,,,,,,,,,,,,,,,,,,,,,,,,,,,,,,,,,,,,,,,,,,,,,,,,,,,,,,,,,,,,,,,,,,,,,,,,,,,,,,,,,,,,,,,,,,,,,,,,
1702547654,1702547655,33,0,4238.717773,4144.743652,4260,4224.615234,4236.282227,4370,4197.436035,4297.820313,4259.102539,4260.384766,4192.307617,4420.769043,4206.922852,4267.820313,0,3,69,,,,0,4,4,4,4,4,4,4,4,4,4,4,4,4,4,100,,,,,,,,,,,,,,,,,,,,,,,,,,,,,,,,,,,,,,,,,,,,,,,,,,,,,,,,,,,,,,,,,,,,,,,,,,,,,,,,,,,,,,,,,,,,,,,,,,,,,,,,,,,,,,,,,,,,,,,,,,,,,,,,,,,,,,
1702547654,1702547655,34,0,4210.128418,4124.743652,4239.871582,4201.282227,4290.256348,4357.820313,4174.871582,4283.077148,4231.666504,4253.077148,4175.769043,4411.410156,4188.205078,4250.128418,0,3,69,,,,0,4,4,4,4,4,4,4,4,4,4,4,4,4,4,100,,,,,,,,,,,,,,,,,,,,,,,,,,,,,,,,,,,,,,,,,,,,,,,,,,,,,,,,,,,,,,,,,,,,,,,,,,,,,,,,,,,,,,,,,,,,,,,,,,,,,,,,,,,,,,,,,,,,,,,,,,,,,,,,,,,,,,
1702547654,1702547655,35,0,4191.025879,4110.512695,4227.307617,4185,4217.307617,4347.05127,4159.871582,4278.077148,4213.333496,4213.717773,4152.94873,4406.666504,4167.307617,4232.307617,0,3,69,,,,0,4,4,4,4,4,4,4,4,4,4,4,4,4,4,100,,,,,,,,,,,,,,,,,,,,,,,,,,,,,,,,,,,,,,,,,,,,,,,,,,,,,,,,,,,,,,,,,,,,,,,,,,,,,,,,,,,,,,,,,,,,,,,,,,,,,,,,,,,,,,,,,,,,,,,,,,,,,,,,,,,,,,
