Timestamp,OriginalTimestamp,EEG.Counter,EEG.Interpolated,EEG.AF3,EEG.F7,EEG.F3,EEG.FC5,EEG.T7,EEG.P7,EEG.O1,EEG.O2,EEG.P8,EEG.T8,EEG.FC6,EEG.F4,EEG.F8,EEG.AF4,EEG.RawCq,EEG.Battery,EEG.BatteryPercent,MarkerIndex,MarkerType,MarkerValueInt,EEG.MarkerHardware,CQ.AF3,CQ.F7,CQ.F3,CQ.FC5,CQ.T7,CQ.P7,CQ.O1,CQ.O2,CQ.P8,CQ.T8,CQ.FC6,CQ.F4,CQ.F8,CQ.AF4,CQ.Overall,EQ.SampleRateQuality,EQ.OVERALL,EQ.AF3,EQ.F7,EQ.F3,EQ.FC5,EQ.T7,EQ.P7,EQ.O1,EQ.O2,EQ.P8,EQ.T8,EQ.FC6,EQ.F4,EQ.F8,EQ.AF4,MOT.CounterMems,MOT.InterpolatedMems,MOT.Q0,MOT.Q1,MOT.Q2,MOT.Q3,MOT.AccX,MOT.AccY,MOT.AccZ,MOT.MagX,MOT.MagY,MOT.MagZ,PM.Attention.IsActive,PM.Attention.Scaled,PM.Attention.Raw,PM.Attention.Min,PM.Attention.Max,PM.Engagement.IsActive,PM.Engagement.Scaled,PM.Engagement.Raw,PM.Engagement.Min,PM.Engagement.Max,PM.Excitement.IsActive,PM.Excitement.Scaled,PM.Excitement.Raw,PM.Excitement.Min,PM.Excitement.Max,PM.LongTermExcitement,PM.Stress.IsActive,PM.Stress.Scaled,PM.Stress.Raw,PM.Stress.Min,PM.Stress.Max,PM.Relaxation.IsActive,PM.Relaxation.Scaled,PM.Relaxation.Raw,PM.Relaxation.Min,PM.Relaxation.Max,PM.Interest.IsActive,PM.Interest.Scaled,PM.Interest.Raw,PM.Interest.Min,PM.Interest.Max,PM.Focus.IsActive,PM.Focus.Scaled,PM.Focus.Raw,PM.Focus.Min,PM.Focus.Max,POW.AF3.Theta,POW.AF3.Alpha,POW.AF3.BetaL,POW.AF3.BetaH,POW.AF3.Gamma,POW.F7.Theta,POW.F7.Alpha,POW.F7.BetaL,POW.F7.BetaH,POW.F7.Gamma,POW.F3.Theta,POW.F3.Alpha,POW.F3.BetaL,POW.F3.BetaH,POW.F3.Gamma,POW.FC5.Theta,POW.FC5.Alpha,POW.FC5.BetaL,POW.FC5.BetaH,POW.FC5.Gamma,POW.T7.Theta,POW.T7.Alpha,POW.T7.BetaL,POW.T7.BetaH,POW.T7.Gamma,POW.P7.Theta,POW.P7.Alpha,POW.P7.BetaL,POW.P7.BetaH,POW.P7.Gamma,POW.O1.Theta,POW.O1.Alpha,POW.O1.BetaL,POW.O1.BetaH,POW.O1.Gamma,POW.O2.Theta,POW.O2.Alpha,POW.O2.BetaL,POW.O2.BetaH,POW.O2.Gamma,POW.P8.Theta,POW.P8.Alpha,POW.P8.BetaL,POW.P8.BetaH,POW.P8.Gamma,POW.T8.Theta,POW.T8.Alpha,POW.T8.BetaL,POW.T8.BetaH,POW.T8.Gamma,POW.FC6.Theta,POW.FC6.Alpha,POW.FC6.BetaL,POW.FC6.BetaH,POW.FC6.Gamma,POW.F4.Theta,POW.F4.Alpha,POW.F4.BetaL,POW.F4.BetaH,POW.F4.Gamma,POW.F8.Theta,POW.F8.Alpha,POW.F8.BetaL,POW.F8.BetaH,POW.F8.Gamma,POW.AF4.Theta,POW.AF4.Alpha,POW.AF4.BetaL,POW.AF4.BetaH,POW.AF4.Gamma
,,,,,,,,,,,,,,,,,,,,,,,,,,,,,,,,,,,,,,,,,,,,,,,,,,,,,,,,,,,,,,,,,,,,,,,,,,,,,,,,,,,,,,,,,,,,,,,,,,,,,,,,,,,,,,,,,,,,,,,,,,,,,,,,,,,,,,,,,,,,,,,,,,,,,,,,,,,,,,,,,,,,,,,,,,,,,
1702547746,1702547746,3,0,4218.333496,4368.846191,4111.410156,4265.128418,4137.94873,4040.897461,4179.743652,4238.846191,4115.897461,4109.230957,4289.358887,4429.358887,4229.871582,4018.333252,5522,3,69,,,,0,4,4,4,4,4,4,4,4,4,4,4,4,4,4,100,,,,,,,,,,,,,,,,,,,,,,,,,,,,,,,,,,,,,,,,,,,,,,,,,,,,,,,,,,,,,,,,,,,,,,,,,,,,,,,,,,,,,,,,,,,,,,,,,,,,,,,,,,,,,,,,,,,,,,,,,,,,,,,,,,,,,,
1702547746,1702547747,4,0,4203.077148,4363.846191,4090.384521,4249.615234,4114.230957,4042.820557,4171.538574,4232.820313,4103.974121,4108.589844,4280,4422.307617,4232.563965,4007.692383,5460,3,69,,,,0,4,4,4,4,4,4,4,4,4,4,4,4,4,4,100,,,,,,,,,,,,,,,,,1,0,0.725619,-0.409912,-0.517334,-0.194458,0.901966,-0.392138,0.132829,-23.585207,2.482288,81.836533,,,,,,,,,,,,,,,,,,,,,,,,,,,,,,,,,,,,,,,,,,,,,,,,,,,,,,,,,,,,,,,,,,,,,,,,,,,,,,,,,,,,,,,,,,,,,,,,,,,,,,,,,,
1702547746,1702547747,5,0,4207.692383,4377.436035,4100,4255.897461,4129.487305,4058.718018,4181.410156,4243.077148,4108.589844,4108.461426,4290.641113,4424.743652,4257.820313,4020.512939,5141,3,69,,,,0,4,4,4,4,4,4,4,4,4,4,4,4,4,4,100,,,,,,,,,,,,,,,,,,,,,,,,,,,,,,,,,,,,,,,,,,,,,,,,,,,,,,,,,,,,,,,,,,,,,,,,,,,,,,,,,,,,,,,,,,,,,,,,,,,,,,,,,,,,,,,,,,,,,,,,,,,,,,,,,,,,,,
1702547746,1702547747,6,0,4213.974121,4383.461426,4107.179688,4264.871582,4159.743652,4073.974365,4187.563965,4246.538574,4119.743652,4102.05127,4295.384766,4429.487305,4267.563965,4021.923096,4837,3,69,,,,0,4,4,4,4,4,4,4,4,4,4,4,4,4,4,100,,,,,,,,,,,,,,,,,,,,,,,,,,,,,,,,,,,,,,,,,,,,,,,,,,,,,,,,,,,,,,,,,,,,,,,,,,,,,,,,,,,,,,,,,,,,,,,,,,,,,,,,,,,,,,,,,,,,,,,,,,,,,,,,,,,,,,
1702547746,1702547747,7,0,4204.615234,4382.179688,4095.128174,4266.153809,4168.589844,4076.538574,4184.102539,4243.077148,4118.589844,4101.666504,4293.205078,4425.256348,4265.384766,4015.384521,3979,3,69,,,,0,4,4,4,4,4,4,4,4,4,4,4,4,4,4,100,,,,,,,,,,,,,,,,,,,,,,,,,,,,,,,,,,,,,,,,,,,,,,,,,,,,,,,,,,,,,,,,,,,,,,,,,,,,,,,,,,,,,,,,,,,,,,,,,,,,,,,,,,,,,,,,,,,,,,,,,,,,,,,,,,,,,,
1702547746,1702547747,8,0,4203.846191,4394.358887,4093.076904,4269.871582,4169.743652,4088.589844,4186.538574,4245,4112.692383,4108.974121,4302.94873,4422.436035,4277.307617,4023.461426,5180,3,69,,,,0,4,4,4,4,4,4,4,4,4,4,4,4,4,4,100,,,,,,,,,,,,,,,,,2,0,0.7258,-0.410217,-0.516724,-0.194763,0.901966,-0.398486,0.133317,-23.426687,2.434059,81.836212,,,,,,,,,,,,,,,,,,,,,,,,,,,,,,,,,,,,,,,,,,,,,,,,,,,,,,,,,,,,,,,,,,,,,,,,,,,,,,,,,,,,,,,,,,,,,,,,,,,,,,,,,,
1702547746,1702547747,9,0,4204.358887,4397.179688,4088.974365,4259.102539,4173.846191,4101.025879,4185.128418,4239.102539,4104.871582,4118.461426,4303.205078,4419.358887,4285.512695,4021.666748,5494,3,69,,,,0,4,4,4,4,4,4,4,4,4,4,4,4,4,4,100,,,,,,,,,,,,,,,,,,,,,,,,,,,,,,,,,,,,,,,,,,,,,,,,,,,,,,,,,,,,,,,,,,,,,,,,,,,,,,,,,,,,,,,,,,,,,,,,,,,,,,,,,,,,,,,,,,,,,,,,,,,,,,,,,,,,,,
1702547746,1702547747,10,0,4176.282227,4377.563965,4064.615479,4229.615234,4146.153809,4078.461426,4166.922852,4224.615234,4089.102539,4106.410156,4279.871582,4412.436035,4271.025879,3995.128174,6057,3,69,,,,0,4,4,4,4,4,4,4,4,4,4,4,4,4,4,100,,,,,,,,,,,,,,,,,,,,,,,,,,,,,,,,,,,,,,,,,,,,,,,,,,,,,,,,,,,,,,,,,,,,,,,,,,,,,,,,,,,,,,,,,,,,,,,,,,,,,,,,,,,,,,,,,,,,,,,,,,,,,,,,,,,,,,
1702547746,1702547747,11,0,4177.05127,4383.589844,4069.487061,4236.025879,4123.205078,4066.025635,4169.743652,4235.512695,4098.717773,4090.641113,4294.615234,4417.563965,4287.94873,4006.153809,6222,3,69,,,,0,4,4,4,4,4,4,4,4,4,4,4,4,4,4,100,,,,,,,,,,,,,,,,,,,,,,,,,,,,,,,,,,,,,,,,,,,,,,,,,,,,,,,,,,,,,,,,,,,,,,,,,,,,,,,,,,,,,,,,,,,,,,,,,,,,,,,,,,,,,,,,,,,,,,,,,,,,,,,,,,,,,,
1702547746,1702547747,12,0,4216.153809,4416.153809,4104.487305,4272.820313,4144.102539,4090.769287,4193.846191,4254.102539,4128.846191,4105.897461,4342.179688,4429.358887,4336.538574,4054.358887,6671,3,69,,,,0,4,4,4,4,4,4,4,4,4,4,4,4,4,4,100,,,,,,,,,,,,,,,,,3,0,0.725883,-0.410339,-0.516418,-0.195007,0.900012,-0.402881,0.134782,-23.550684,2.373986,81.785919,,,,,,,,,,,,,,,,,,,,,,,,,,,,,,,,,,,,,,,,,,,,,,,,,,,,,,,,,,,,,,,,,,,,,,,,,,,,,,,,,,,,,,,,,,,,,,,,,,,,,,,,,,
1702547746,1702547747,13,0,4214.230957,4420.256348,4106.666504,4269.487305,4154.102539,4098.846191,4191.538574,4246.666504,4122.94873,4107.563965,4346.666504,4429.102539,4346.538574,4057.179443,2095,3,69,,,,0,4,4,4,4,4,4,4,4,4,4,4,4,4,4,100,,,,,,,,,,,,,,,,,,,,,,,,,,,,,,,,,,,,,,,,,,,,,,,,,,,,,,,,,,,,,,,,,,,,,,,,,,,,,,,,,,,,,,,,,,,,,,,,,,,,,,,,,,,,,,,,,,,,,,,,,,,,,,,,,,,,,,
1702547746,1702547747,14,0,4179.743652,4398.461426,4078.974365,4232.563965,4131.794922,4080.512939,4168.077148,4229.358887,4088.205078,4047.05127,4316.666504,4419.102539,4320.897461,4020.512939,6057,3,69,,,,0,4,4,4,4,4,4,4,4,4,4,4,4,4,4,100,,,,,,,,,,,,,,,,,,,,,,,,,,,,,,,,,,,,,,,,,,,,,,,,,,,,,,,,,,,,,,,,,2561.553711,999.73999,275.605255,73.32383,25.267229,2460.843018,801.130432,231.196152,67.023201,21.802351,2143.205811,927.143066,252.545685,75.067337,22.794569,2448.792236,1034.856323,262.794983,68.47229,26.657635,2234.747559,957.688232,209.26683,66.025513,23.697573,1767.589478,828.087219,217.000748,59.682472,17.959005,1428.129517,632.786682,172.53212,56.011456,16.07299,680.432556,338.371094,95.513786,34.767223,11.013831,1902.382813,838.104309,205.708145,73.405708,20.978216,2300.086914,998.935791,230.13002,86.376785,28.103333,2986.221924,1312.253174,327.143463,103.535423,33.363937,282.089783,138.057159,45.029911,12.061823,4.246479,2953.604736,1130.802002,290.58429,88.15657,29.553579,3078.888184,1094.296875,335.682037,79.380936,29.266706
1702547746,1702547747,15,0,4177.05127,4396.282227,4076.153809,4223.077148,4132.820313,4077.564209,4163.974121,4227.94873,4085.897461,4014.230713,4315.512695,4414.102539,4320.256348,4016.025635,6222,3,69,,,,0,4,4,4,4,4,4,4,4,4,4,4,4,4,4,100,,,,,,,,,,,,,,,,,,,,,,,,,,,,,,,,,,,,,,,,,,,,,,,,,,,,,,,,,,,,,,,,,,,,,,,,,,,,,,,,,,,,,,,,,,,,,,,,,,,,,,,,,,,,,,,,,,,,,,,,,,,,,,,,,,,,,,
1702547746,1702547747,16,0,4190.897461,4411.666504,4093.333252,4235.256348,4159.358887,4094.230713,4170.128418,4234.102539,4099.871582,4050.512939,4336.153809,4413.589844,4344.615234,4032.820557,0,3,69,,,,0,4,4,4,4,4,4,4,4,4,4,4,4,4,4,100,,,,,,,,,,,,,,,,,4,0,0.725926,-0.410828,-0.515808,-0.195435,0.89464,-0.386278,0.141619,-23.695616,2.419921,81.757332,,,,,,,,,,,,,,,,,,,,,,,,,,,,,,,,,,,,,,,,,,,,,,,,,,,,,,,,,,,,,,,,,,,,,,,,,,,,,,,,,,,,,,,,,,,,,,,,,,,,,,,,,,
1702547746,1702547747,17,0,4188.205078,4420.641113,4097.820313,4231.538574,4158.974121,4109.102539,4168.974121,4230.897461,4093.076904,4064.743652,4337.05127,4414.102539,4350.512695,4033.589844,0,3,69,,,,0,4,4,4,4,4,4,4,4,4,4,4,4,4,4,100,,,,,,,,,,,,,,,,,,,,,,,,,,,,,,,,,,,,,,,,,,,,,,,,,,,,,,,,,,,,,,,,,,,,,,,,,,,,,,,,,,,,,,,,,,,,,,,,,,,,,,,,,,,,,,,,,,,,,,,,,,,,,,,,,,,,,,
1702547746,1702547747,18,0,4190.384766,4428.205078,4100.512695,4224.743652,4150.256348,4118.589844,4171.794922,4230.256348,4090.384521,4058.589844,4334.615234,4416.153809,4348.589844,4036.025635,0,3,69,,,,0,4,4,4,4,4,4,4,4,4,4,4,4,4,4,100,,,,,,,,,,,,,,,,,,,,,,,,,,,,,,,,,,,,,,,,,,,,,,,,,,,,,,,,,,,,,,,,,,,,,,,,,,,,,,,,,,,,,,,,,,,,,,,,,,,,,,,,,,,,,,,,,,,,,,,,,,,,,,,,,,,,,,
1702547746,1702547747,19,0,4212.307617,4441.538574,4120.641113,4240.256348,4144.615234,4130.769043,4183.461426,4243.077148,4111.794922,4078.333252,4363.846191,4422.692383,4370.897461,4055,0,3,69,,,,0,4,4,4,4,4,4,4,4,4,4,4,4,4,4,100,,,,,,,,,,,,,,,,,,,,,,,,,,,,,,,,,,,,,,,,,,,,,,,,,,,,,,,,,,,,,,,,,,,,,,,,,,,,,,,,,,,,,,,,,,,,,,,,,,,,,,,,,,,,,,,,,,,,,,,,,,,,,,,,,,,,,,
1702547746,1702547747,20,0,4224.358887,4452.436035,4141.025879,4258.205078,4131.282227,4145.512695,4192.94873,4252.820313,4128.846191,4090.512939,4391.794922,4429.358887,4396.410156,4070.641113,0,3,69,,,,0,4,4,4,4,4,4,4,4,4,4,4,4,4,4,100,,,,,,,,,,,,,,,,,5,0,0.726048,-0.411316,-0.515015,-0.196045,0.902454,-0.387743,0.13234,-23.676054,2.477929,81.781601,,,,,,,,,,,,,,,,,,,,,,,,,,,,,,,,,,,,,,,,,,,,,,,,,,,,,,,,,,,,,,,,,,,,,,,,,,,,,,,,,,,,,,,,,,,,,,,,,,,,,,,,,,
1702547746,1702547747,21,0,4203.077148,4449.358887,4128.205078,4238.846191,4146.922852,4147.05127,4182.563965,4239.615234,4110.897461,4064.743652,4370,4420.384766,4383.461426,4058.846191,0,3,69,,,,0,4,4,4,4,4,4,4,4,4,4,4,4,4,4,100,,,,,,,,,,,,,,,,,,,,,,,,,,,,,,,,,,,,,,,,,,,,,,,,,,,,,,,,,,,,,,,,,,,,,,,,,,,,,,,,,,,,,,,,,,,,,,,,,,,,,,,,,,,,,,,,,,,,,,,,,,,,,,,,,,,,,,
1702547746,1702547747,22,0,4182.820313,4441.282227,4109.102539,4214.487305,4157.563965,4141.922852,4166.025879,4223.589844,4084.487061,4030.384521,4344.358887,4409.871582,4361.538574,4039.615479,0,3,69,,,,0,4,4,4,4,4,4,4,4,4,4,4,4,4,4,100,,,,,,,,,,,,,,,,,,,,,,,,,,,,,,,,,,,,,,,,,,,,,,,,,,,,,,,,,,,,,,,,,,,,,,,,,,,,,,,,,,,,,,,,,,,,,,,,,,,,,,,,,,,,,,,,,,,,,,,,,,,,,,,,,,,,,,
1702547746,1702547747,23,0,4201.794922,4447.436035,4131.794922,4229.615234,4151.794922,4156.025879,4180.897461,4234.615234,4093.076904,4031.410156,4371.153809,4418.974121,4380.769043,4056.281982,0,3,69,,,,0,4,4,4,4,4,4,4,4,4,4,4,4,4,4,100,,,,,,,,,,,,,,,,,,,,,,,,,,,,,,,,,,,,,,,,,,,,,,,,,,,,,,,,,,,,,,,,,,,,,,,,,,,,,,,,,,,,,,,,,,,,,,,,,,,,,,,,,,,,,,,,,,,,,,,,,,,,,,,,,,,,,,
1702547746,1702547747,24,0,4212.179688,4452.94873,4151.025879,4229.230957,4152.563965,4168.077148,4194.487305,4238.589844,4101.666504,4050.256348,4382.692383,4421.410156,4398.461426,4068.718018,0,3,69,,,,0,4,4,4,4,4,4,4,4,4,4,4,4,4,4,100,,,,,,,,,,,,,,,,,6,0,0.726098,-0.411804,-0.514343,-0.196594,0.910756,-0.390184,0.139665,-23.691782,2.646803,81.886772,,,,,,,,,,,,,,,,,,,,,,,,,,,,,,,,,,,,,,,,,,,,,,,,,,,,,,,,,,,,,,,,,,,,,,,,,,,,,,,,,,,,,,,,,,,,,,,,,,,,,,,,,,
1702547746,1702547747,25,0,4168.974121,4427.692383,4112.94873,4169.615234,4137.94873,4138.846191,4160.128418,4211.282227,4067.179443,4042.05127,4322.820313,4401.282227,4362.820313,4025,0,3,69,,,,0,4,4,4,4,4,4,4,4,4,4,4,4,4,4,100,,,,,,,,,,,,,,,,,,,,,,,,,,,,,,,,,,,,,,,,,,,,,,,,,,,,,,,,,,,,,,,,,,,,,,,,,,,,,,,,,,,,,,,,,,,,,,,,,,,,,,,,,,,,,,,,,,,,,,,,,,,,,,,,,,,,,,
1702547746,1702547747,26,0,4145,4403.717773,4099.743652,4141.410156,4128.717773,4113.717773,4146.153809,4207.94873,4052.94873,4029.871826,4287.179688,4396.153809,4331.410156,4004.102539,0,3,69,,,,0,4,4,4,4,4,4,4,4,4,4,4,4,4,4,100,,,,,,,,,,,,,,,,,,,,,,,,,,,,,,,,,,,,,,,,,,,,,,,,,,,,,,,,,,,,,,,,,,,,,,,,,,,,,,,,,,,,,,,,,,,,,,,,,,,,,,,,,,,,,,,,,,,,,,,,,,,,,,,,,,,,,,
1702547746,1702547747,27,0,4165.128418,4416.410156,4131.666504,4161.666504,4120.641113,4112.05127,4164.487305,4219.230957,4069.615479,4033.846191,4303.589844,4406.794922,4348.974121,4029.358887,0,3,69,,,,0,4,4,4,4,4,4,4,4,4,4,4,4,4,4,100,,,,,,,,,,,,,,,,,,,,,,,,,,,,,,,,,,,,,,,,,,,,,,,,,,,,,,,,,,,,,,,,,,,,,,,,,,,,,,,,,,,,,,,,,,,,,,,,,,,,,,,,,,,,,,,,,,,,,,,,,,,,,,,,,,,,,,
1702547746,1702547747,28,0,4133.717773,4397.179688,4096.538574,4118.205078,4094.487061,4080.641113,4127.179688,4180.384766,4024.615479,3992.94873,4261.153809,4387.436035,4330.897461,3990.769287,0,3,69,,,,0,4,4,4,4,4,4,4,4,4,4,4,4,4,4,100,,,,,,,,,,,,,,,,,7,0,0.725972,-0.412415,-0.513916,-0.196899,0.899524,-0.381394,0.139177,-23.922604,2.648789,81.831429,,,,,,,,,,,,,,,,,,,,,,,,,,,,,,,,,,,,,,,,,,,,,,,,,,,,,,,,,,,,,,,,,,,,,,,,,,,,,,,,,,,,,,,,,,,,,,,,,,,,,,,,,,
1702547746,1702547747,29,0,4085,4351.153809,4047.05127,4067.692383,4085.641113,4062.692383,4098.077148,4160,3979.230713,3960.384521,4211.025879,4370.384766,4297.692383,3940.769287,0,3,69,,,,0,4,4,4,4,4,4,4,4,4,4,4,4,4,4,100,,,,,,,,,,,,,,,,,,,,,,,,,,,,,,,,,,,,,,,,,,,,,,,,,,,,,,,,,,,,,,,,,,,,,,,,,,,,,,,,,,,,,,,,,,,,,,,,,,,,,,,,,,,,,,,,,,,,,,,,,,,,,,,,,,,,,,
1702547746,1702547747,30,0,4126.410156,4377.563965,4102.820313,4119.871582,4095.128174,4107.820313,4153.461426,4213.205078,4036.153809,4019.102539,4271.282227,4397.307617,4358.077148,4002.94873,0,3,69,,,,0,4,4,4,4,4,4,4,4,4,4,4,4,4,4,100,1,0,0,0,0,0,0,0,0,0,0,0,0,0,0,0,,,,,,,,,,,,,,,,,,,,,,,,,,,,,,,,,,,,,,,,,,,,,,,,,1686.866943,641.910339,165.2164,44.985142,14.503188,1639.207764,517.918884,135.105972,41.073811,11.964901,1423.969727,592.24115,153.667542,46.338997,13.031958,1613.03833,661.35907,154.035416,41.248901,14.740662,1473.091309,616.980591,124.166946,42.561481,12.740538,1184.329468,535.030212,132.118393,36.526695,9.82465,941.704773,403.468689,105.408554,34.463257,9.21126,446.355133,213.880188,58.512249,21.857761,6.394653,1255.464966,537.377625,125.142738,46.464951,12.140767,1506.112793,633.895569,137.096359,54.588814,17.7584,1949.537354,833.290527,197.326645,64.280663,18.933481,188.762161,88.813805,28.159151,7.444712,2.536962,2031.191772,729.76532,174.411255,55.088799,17.305239,2039.539063,706.393005,203.618393,49.108582,16.795301
1702547746,1702547747,31,0,4178.205078,4424.230957,4158.461426,4167.307617,4105.512695,4133.077148,4183.205078,4235.769043,4079.102539,4064.358887,4327.563965,4413.077148,4425.128418,4062.94873,0,3,69,,,,0,4,4,4,4,4,4,4,4,4,4,4,4,4,4,100,,,,,,,,,,,,,,,,,,,,,,,,,,,,,,,,,,,,,,,,,,,,,,,,,,,,,,,,,,,,,,,,,,,,,,,,,,,,,,,,,,,,,,,,,,,,,,,,,,,,,,,,,,,,,,,,,,,,,,,,,,,,,,,,,,,,,,
1702547746,1702547747,32,0,4145.512695,4400.128418,4121.538574,4125.512695,4133.589844,4105.897461,4142.179688,4199.743652,4034.615479,4032.820557,4280.256348,4394.358887,4386.410156,4026.410156,0,3,69,,,,0,4,4,4,4,4,4,4,4,4,4,4,4,4,4,100,,,,,,,,,,,,,,,,,8,0,0.725981,-0.41272,-0.513611,-0.197021,0.887315,-0.379441,0.132829,-23.94701,2.700577,81.831619,,,,,,,,,,,,,,,,,,,,,,,,,,,,,,,,,,,,,,,,,,,,,,,,,,,,,,,,,,,,,,,,,,,,,,,,,,,,,,,,,,,,,,,,,,,,,,,,,,,,,,,,,,
1702547746,1702547747,33,0,4115.512695,4370.128418,4094.743652,4098.589844,4153.589844,4103.333496,4126.666504,4190.256348,4019.871826,4028.461426,4249.615234,4386.153809,4347.563965,4005.897461,0,3,69,,,,0,4,4,4,4,4,4,4,4,4,4,4,4,4,4,100,,,,,,,,,,,,,,,,,,,,,,,,,,,,,,,,,,,,,,,,,,,,,,,,,,,,,,,,,,,,,,,,,,,,,,,,,,,,,,,,,,,,,,,,,,,,,,,,,,,,,,,,,,,,,,,,,,,,,,,,,,,,,,,,,,,,,,
1702547746,1702547747,34,0,4124.871582,4378.077148,4103.589844,4113.461426,4109.487305,4109.615234,4131.410156,4195.512695,4037.435791,4045.384521,4265.512695,4387.563965,4364.615234,4016.666748,0,3,69,,,,0,4,4,4,4,4,4,4,4,4,4,4,4,4,4,100,,,,,,,,,,,,,,,,,,,,,,,,,,,,,,,,,,,,,,,,,,,,,,,,,,,,,,,,,,,,,,,,,,,,,,,,,,,,,,,,,,,,,,,,,,,,,,,,,,,,,,,,,,,,,,,,,,,,,,,,,,,,,,,,,,,,,,
1702547746,1702547747,35,0,4112.307617,4373.589844,4087.179443,4103.077148,4066.410156,4084.102539,4114.358887,4183.333496,4017.820557,4004.615479,4246.538574,4377.436035,4352.563965,3996.923096,0,3,69,,,,0,4,4,4,4,4,4,4,4,4,4,4,4,4,4,100,,,,,,,,,,,,,,,,,,,,,,,,,,,,,,,,,,,,,,,,,,,,,,,,,,,,,,,,,,,,,,,,,,,,,,,,,,,,,,,,,,,,,,,,,,,,,,,,,,,,,,,,,,,,,,,,,,,,,,,,,,,,,,,,,,,,,,
1702547746,1702547747,36,0,4091.666748,4366.666504,4071.410156,4093.846191,4063.846191,4074.615479,4111.153809,4179.487305,4010.384521,3971.666748,4225.512695,4371.922852,4322.179688,3988.333252,0,3,69,,,,0,4,4,4,4,4,4,4,4,4,4,4,4,4,4,100,,,,,,,,,,,,,,,,,9,0,0.726045,-0.41272,-0.513428,-0.197266,0.894152,-0.389208,0.148456,-24.202309,2.647186,81.698456,,,,,,,,,,,,,,,,,,,,,,,,,,,,,,,,,,,,,,,,,,,,,,,,,,,,,,,,,,,,,,,,,,,,,,,,,,,,,,,,,,,,,,,,,,,,,,,,,,,,,,,,,,
1702547746,1702547747,37,0,4090.256348,4372.563965,4075.897461,4104.487305,4072.692383,4077.564209,4116.410156,4176.666504,4025.769287,3995,4233.974121,4373.974121,4315.128418,4002.94873,0,3,69,,,,0,4,4,4,4,4,4,4,4,4,4,4,4,4,4,100,,,,,,,,,,,,,,,,,,,,,,,,,,,,,,,,,,,,,,,,,,,,,,,,,,,,,,,,,,,,,,,,,,,,,,,,,,,,,,,,,,,,,,,,,,,,,,,,,,,,,,,,,,,,,,,,,,,,,,,,,,,,,,,,,,,,,,
1702547746,1702547747,38,0,4100.512695,4375.897461,4085.512939,4109.487305,4063.974365,4061.538574,4111.538574,4169.615234,4027.564209,4033.076904,4240.769043,4374.871582,4316.922852,4012.692383,0,3,69,,,,0,4,4,4,4,4,4,4,4,4,4,4,4,4,4,100,,,,,,,,,,,,,,,,,,,,,,,,,,,,,,,,,,,,,,,,,,,,,,,,,,,,,,,,,,,,,,,,,,,,,,,,,,,,,,,,,,,,,,,,,,,,,,,,,,,,,,,,,,,,,,,,,,,,,,,,,,,,,,,,,,,,,,
1702547746,1702547747,39,0,4105.512695,4376.794922,4087.692383,4107.05127,4037.05127,4039.871826,4108.461426,4172.05127,4022.692383,4024.615479,4231.922852,4375.512695,4307.436035,4015.384521,0,3,69,,,,0,4,4,4,4,4,4,4,4,4,4,4,4,4,4,100,,,,,,,,,,,,,,,,,,,,,,,,,,,,,,,,,,,,,,,,,,,,,,,,,,,,,,,,,,,,,,,,,,,,,,,,,,,,,,,,,,,,,,,,,,,,,,,,,,,,,,,,,,,,,,,,,,,,,,,,,,,,,,,,,,,,,,
1702547746,1702547747,40,0,4097.820313,4373.077148,4077.820557,4105.384766,4073.333252,4032.05127,4107.179688,4173.846191,4019.743652,3975.384521,4222.436035,4374.871582,4287.692383,4010.512939,0,3,69,,,,0,4,4,4,4,4,4,4,4,4,4,4,4,4,4,100,,,,,,,,,,,,,,,,,10,0,0.726348,-0.412659,-0.513,-0.197388,0.904407,-0.399463,0.141131,-24.132078,2.515801,81.895279,,,,,,,,,,,,,,,,,,,,,,,,,,,,,,,,,,,,,,,,,,,,,,,,,,,,,,,,,,,,,,,,,,,,,,,,,,,,,,,,,,,,,,,,,,,,,,,,,,,,,,,,,,
1702547746,1702547747,41,0,4093.205078,4373.205078,4072.820557,4109.487305,4138.077148,4039.615479,4109.102539,4174.615234,4026.153809,3980,4221.410156,4373.077148,4282.563965,4009.358887,0,3,69,,,,0,4,4,4,4,4,4,4,4,4,4,4,4,4,4,100,,,,,,,,,,,,,,,,,,,,,,,,,,,,,,,,,,,,,,,,,,,,,,,,,,,,,,,,,,,,,,,,,,,,,,,,,,,,,,,,,,,,,,,,,,,,,,,,,,,,,,,,,,,,,,,,,,,,,,,,,,,,,,,,,,,,,,
1702547746,1702547747,42,0,4080.384521,4356.794922,4059.230713,4097.563965,4115.256348,4032.435791,4102.179688,4168.589844,4020.641113,4016.025635,4196.666504,4366.282227,4267.563965,3997.435791,0,3,69,,,,0,4,4,4,4,4,4,4,4,4,4,4,4,4,4,100,,,,,,,,,,,,,,,,,,,,,,,,,,,,,,,,,,,,,,,,,,,,,,,,,,,,,,,,,,,,,,,,,,,,,,,,,,,,,,,,,,,,,,,,,,,,,,,,,,,,,,,,,,,,,,,,,,,,,,,,,,,,,,,,,,,,,,
1702547746,1702547747,43,0,4051.025635,4328.461426,4027.94873,4072.435791,4042.435791,3988.461426,4085,4151.410156,3991.794922,3992.820557,4156.922852,4353.717773,4232.436035,3968.076904,0,3,69,,,,0,4,4,4,4,4,4,4,4,4,4,4,4,4,4,100,,,,,,,,,,,,,,,,,,,,,,,,,,,,,,,,,,,,,,,,,,,,,,,,,,,,,,,,,,,,,,,,,,,,,,,,,,,,,,,,,,,,,,,,,,,,,,,,,,,,,,,,,,,,,,,,,,,,,,,,,,,,,,,,,,,,,,
1702547746,1702547747,44,0,4051.538574,4337.179688,4029.358887,4077.179443,4037.564209,3943.846191,4088.846191,4153.461426,3992.307617,3967.435791,4160.897461,4356.025879,4233.333496,3978.076904,0,3,69,,,,0,4,4,4,4,4,4,4,4,4,4,4,4,4,4,100,,,,,,,,,,,,,,,,,11,0,0.726427,-0.412659,-0.512817,-0.197571,0.893664,-0.399951,0.139177,-24.068871,2.397554,81.905746,,,,,,,,,,,,,,,,,,,,,,,,,,,,,,,,,,,,,,,,,,,,,,,,,,,,,,,,,,,,,,,,,,,,,,,,,,,,,,,,,,,,,,,,,,,,,,,,,,,,,,,,,,
1702547746,1702547747,45,0,4083.333252,4360.769043,4060.769287,4104.230957,4071.410156,3927.692383,4105.769043,4173.846191,4026.025635,3992.94873,4185.384766,4370.769043,4264.102539,4020.897461,0,3,69,,,,0,4,4,4,4,4,4,4,4,4,4,4,4,4,4,100,,,,,,,,,,,,,,,,,,,,,,,,,,,,,,,,,,,,,,,,,,,,,,,,,,,,,,,,,,,,,,,,,,,,,,,,,,,,,,,,,,,,,,,,,,,,,,,,,,,,,,,,,,,,,,,,,,,,,,,,,,,,,,,,,,,,,,
1702547746,1702547747,46,0,4078.974365,4352.307617,4055.128174,4103.205078,4055.897461,3904.230713,4100,4171.282227,4030.512939,4004.743652,4167.563965,4368.077148,4254.102539,4019.230713,0,3,69,,,,0,4,4,4,4,4,4,4,4,4,4,4,4,4,4,100,,,,,,,,,,,,,,,,,,,,,,,,,,,,,,,,,,,,,,,,,,,,,,,,,,,,,,,,,,,,,,,,,959.951294,357.256958,90.468239,24.063799,8.4472,929.691223,291.74881,72.883369,22.079475,6.680261,828.579102,327.229156,83.713516,25.055592,7.450409,920.412292,365.595886,83.185112,21.93664,8.187242,849.704407,341.600037,67.569901,25.862444,7.529769,725.464844,306.385498,73.661598,20.422228,5.374035,542.444458,222.072495,58.410851,18.33382,5.255319,257.112671,116.794273,32.369617,11.93185,3.702738,735.589539,299.471375,70.079147,25.784187,7.009296,868.403687,347.638519,74.509117,30.680698,11.404612,1112.914673,458.432556,109.351631,35.097954,10.739267,110.223152,49.311108,15.218633,4.013992,1.479565,1246.625122,411.64447,94.547112,30.411566,10.3219,1178.643433,396.382751,113.830452,26.916594,9.705625
1702547746,1702547747,47,0,4044.615479,4335.384766,4024.102539,4082.179443,4016.153809,3859.871826,4083.718018,4150.512695,4007.05127,3991.410156,4132.820313,4353.205078,4221.538574,3985.128174,0,3,69,,,,0,4,4,4,4,4,4,4,4,4,4,4,4,4,4,100,,,,,,,,,,,,,,,,,,,,,,,,,,,,,,,,,,,,,,,,,,,,,,,,,,,,,,,,,,,,,,,,,,,,,,,,,,,,,,,,,,,,,,,,,,,,,,,,,,,,,,,,,,,,,,,,,,,,,,,,,,,,,,,,,,,,,,
1702547746,1702547747,48,0,4034.615479,4332.307617,4017.94873,4076.923096,4008.333252,3819.871826,4076.538574,4142.05127,3995,3963.974365,4124.358887,4349.743652,4216.410156,3976.025635,0,3,69,,,,0,4,4,4,4,4,4,4,4,4,4,4,4,4,4,100,,,,,,,,,,,,,,,,,12,0,0.726397,-0.412659,-0.512695,-0.197998,0.910756,-0.391161,0.134294,-23.92865,2.374465,81.881844,,,,,,,,,,,,,,,,,,,,,,,,,,,,,,,,,,,,,,,,,,,,,,,,,,,,,,,,,,,,,,,,,,,,,,,,,,,,,,,,,,,,,,,,,,,,,,,,,,,,,,,,,,
1702547746,1702547747,49,0,4038.589844,4322.692383,4024.615479,4075.769287,4024.615479,3729.230713,4068.718018,4142.307617,3993.076904,3939.230713,4125.769043,4352.307617,4216.666504,3983.205078,0,3,69,,,,0,4,4,4,4,4,4,4,4,4,4,4,4,4,4,100,,,,,,,,,,,,,,,,,,,,,,,,,,,,,,,,,,,,,,,,,,,,,,,,,,,,,,,,,,,,,,,,,,,,,,,,,,,,,,,,,,,,,,,,,,,,,,,,,,,,,,,,,,,,,,,,,,,,,,,,,,,,,,,,,,,,,,
1702547746,1702547747,50,0,4025,4307.179688,4012.307617,4059.743652,4013.076904,3539.102539,4055.256348,4137.563965,3989.230713,3962.564209,4105.897461,4348.333496,4197.820313,3971.281982,0,3,69,,,,0,4,4,4,4,4,4,4,4,4,4,4,4,4,4,100,,,,,,,,,,,,,,,,,,,,,,,,,,,,,,,,,,,,,,,,,,,,,,,,,,,,,,,,,,,,,,,,,,,,,,,,,,,,,,,,,,,,,,,,,,,,,,,,,,,,,,,,,,,,,,,,,,,,,,,,,,,,,,,,,,,,,,
1702547746,1702547747,51,0,4003.333252,4295.641113,3990.512939,4042.692383,3993.205078,3363.461426,4043.333252,4127.179688,3974.358887,3971.281982,4063.974365,4338.205078,4172.692383,3942.05127,0,3,69,,,,0,4,4,4,4,4,4,4,4,4,4,4,4,4,4,100,,,,,,,,,,,,,,,,,,,,,,,,,,,,,,,,,,,,,,,,,,,,,,,,,,,,,,,,,,,,,,,,,,,,,,,,,,,,,,,,,,,,,,,,,,,,,,,,,,,,,,,,,,,,,,,,,,,,,,,,,,,,,,,,,,,,,,
1702547746,1702547747,52,0,3998.076904,4288.717773,3988.846191,4045,3976.025635,3282.307617,4039.102539,4119.871582,3961.153809,3926.153809,4040.512939,4335,4167.05127,3934.743652,0,3,69,,,,0,4,4,4,4,4,4,4,4,4,4,4,4,4,4,100,,,,,,,,,,,,,,,,,13,0,0.726588,-0.412964,-0.512085,-0.198242,0.875107,-0.391161,0.141131,-23.752451,2.437019,81.860321,,,,,,,,,,,,,,,,,,,,,,,,,,,,,,,,,,,,,,,,,,,,,,,,,,,,,,,,,,,,,,,,,,,,,,,,,,,,,,,,,,,,,,,,,,,,,,,,,,,,,,,,,,
1702547747,1702547747,53,0,4013.846191,4297.179688,4012.564209,4059.358887,3969.230713,3218.333252,4048.589844,4128.461426,3973.205078,3937.05127,4054.743652,4341.282227,4185,3962.94873,0,3,69,,,,0,4,4,4,4,4,4,4,4,4,4,4,4,4,4,100,,,,,,,,,,,,,,,,,,,,,,,,,,,,,,,,,,,,,,,,,,,,,,,,,,,,,,,,,,,,,,,,,,,,,,,,,,,,,,,,,,,,,,,,,,,,,,,,,,,,,,,,,,,,,,,,,,,,,,,,,,,,,,,,,,,,,,
1702547747,1702547747,54,0,4033.333252,4315.128418,4030.897461,4070,4003.718018,3139.871826,4059.230713,4138.333496,3987.564209,3978.974365,4069.230713,4345,4198.205078,3990.384521,0,3,69,,,,0,4,4,4,4,4,4,4,4,4,4,4,4,4,4,100,,,,,,,,,,,,,,,,,,,,,,,,,,,,,,,,,,,,,,,,,,,,,,,,,,,,,,,,,,,,,,,,,,,,,,,,,,,,,,,,,,,,,,,,,,,,,,,,,,,,,,,,,,,,,,,,,,,,,,,,,,,,,,,,,,,,,,
1702547747,1702547747,55,0,4040.641113,4323.461426,4028.589844,4077.820557,4028.205078,3102.94873,4060.897461,4138.205078,3987.692383,3947.435791,4072.05127,4343.461426,4202.307617,3995.384521,0,3,69,,,,0,4,4,4,4,4,4,4,4,4,4,4,4,4,4,100,,,,,,,,,,,,,,,,,,,,,,,,,,,,,,,,,,,,,,,,,,,,,,,,,,,,,,,,,,,,,,,,,,,,,,,,,,,,,,,,,,,,,,,,,,,,,,,,,,,,,,,,,,,,,,,,,,,,,,,,,,,,,,,,,,,,,,
1702547747,1702547747,56,0,4038.205078,4320,4027.94873,4084.102539,4013.076904,3102.435791,4059.230713,4138.077148,3990.128174,3938.076904,4075.512939,4343.077148,4211.025879,3997.179443,0,3,69,,,,0,4,4,4,4,4,4,4,4,4,4,4,4,4,4,100,,,,,,,,,,,,,,,,,14,0,0.726747,-0.413269,-0.511353,-0.198914,0.900989,-0.387254,0.138689,-23.827208,2.309983,81.974289,,,,,,,,,,,,,,,,,,,,,,,,,,,,,,,,,,,,,,,,,,,,,,,,,,,,,,,,,,,,,,,,,,,,,,,,,,,,,,,,,,,,,,,,,,,,,,,,,,,,,,,,,,
1702547747,1702547747,57,0,4030.512939,4313.333496,4029.871826,4081.794922,4004.743652,3098.846191,4051.153809,4133.461426,3989.230713,3993.333252,4066.410156,4340.769043,4202.436035,3997.435791,0,3,69,,,,0,4,4,4,4,4,4,4,4,4,4,4,4,4,4,100,,,,,,,,,,,,,,,,,,,,,,,,,,,,,,,,,,,,,,,,,,,,,,,,,,,,,,,,,,,,,,,,,,,,,,,,,,,,,,,,,,,,,,,,,,,,,,,,,,,,,,,,,,,,,,,,,,,,,,,,,,,,,,,,,,,,,,
1702547747,1702547747,58,0,4014.743652,4297.436035,4015.512939,4063.205078,4016.923096,3089.871826,4034.487061,4117.307617,3970,3984.743652,4045.256348,4332.05127,4171.794922,3981.025635,0,3,69,,,,0,4,4,4,4,4,4,4,4,4,4,4,4,4,4,100,,,,,,,,,,,,,,,,,,,,,,,,,,,,,,,,,,,,,,,,,,,,,,,,,,,,,,,,,,,,,,,,,,,,,,,,,,,,,,,,,,,,,,,,,,,,,,,,,,,,,,,,,,,,,,,,,,,,,,,,,,,,,,,,,,,,,,
1702547747,1702547747,59,0,3987.05127,4264.102539,3985.769287,4030.512939,4002.435791,3072.820557,4011.538574,4097.94873,3937.307617,3903.846191,4021.281982,4323.589844,4144.871582,3950.128174,0,3,69,,,,0,4,4,4,4,4,4,4,4,4,4,4,4,4,4,100,,,,,,,,,,,,,,,,,,,,,,,,,,,,,,,,,,,,,,,,,,,,,,,,,,,,,,,,,,,,,,,,,,,,,,,,,,,,,,,,,,,,,,,,,,,,,,,,,,,,,,,,,,,,,,,,,,,,,,,,,,,,,,,,,,,,,,
1702547747,1702547747,60,0,3982.307617,4256.410156,3985.897461,4031.666748,3953.076904,3084.358887,4011.794922,4100.512695,3932.94873,3892.179443,4026.666748,4327.436035,4144.487305,3949.487061,0,3,69,,,,0,4,4,4,4,4,4,4,4,4,4,4,4,4,4,100,,,,,,,,,,,,,,,,,15,0,0.726698,-0.413635,-0.510864,-0.199585,0.890245,-0.393603,0.142107,-23.811153,2.278985,82.126862,,,,,,,,,,,,,,,,,,,,,,,,,,,,,,,,,,,,,,,,,,,,,,,,,,,,,,,,,,,,,,,,,,,,,,,,,,,,,,,,,,,,,,,,,,,,,,,,,,,,,,,,,,
1702547747,1702547747,61,0,4016.281982,4291.410156,4020.641113,4076.538574,3938.589844,3137.307617,4037.307617,4120.769043,3964.743652,3953.333252,4067.307617,4337.05127,4169.230957,3988.846191,0,3,69,,,,0,4,4,4,4,4,4,4,4,4,4,4,4,4,4,100,,,,,,,,,,,,,,,,,,,,,,,,,,,,,,,,,,,,,,,,,,,,,,,,,,,,,,,,,,,,,,,,,,,,,,,,,,,,,,,,,,,,,,,,,,,,,,,,,,,,,,,,,,,,,,,,,,,,,,,,,,,,,,,,,,,,,,
1702547747,1702547747,62,0,4026.153809,4301.410156,4022.94873,4085.256348,3979.871826,3161.538574,4036.153809,4116.282227,3966.666748,3945.641113,4072.179443,4332.05127,4174.102539,3996.666748,0,3,69,,,,0,4,4,4,4,4,4,4,4,4,4,4,4,4,4,100,,,,,,,,,,,,,,,,,,,,,,,,,,,,,,,,,,,,,,,,,,,,,,,,,,,,,,,,,,,,,,,,,453.905518,163.226883,43.194561,10.958024,5.10135,433.330536,135.223557,34.39563,10.133662,3.908999,407.669067,148.336411,38.593456,11.564516,4.358641,437.015411,165.723694,39.135746,10.043061,4.74074,414.184326,154.07019,32.072849,15.507938,5.352436,422.00766,156.794846,37.084869,11.102226,3.051415,261.811096,99.544617,27.782846,8.154258,3.020123,124.601959,52.146896,15.293247,5.511426,2.187785,375.577087,137.981598,34.701935,12.409155,4.1286,426.301727,156.024078,34.801029,15.484092,7.625975,536.467407,206.5504,52.699795,16.614704,6.271575,53.515709,22.39658,6.707162,1.829238,0.847035,666.532898,195.979324,43.539307,14.566195,6.391651,577.936096,182.838867,56.30006,13.111783,5.760756
1702547747,1702547747,63,0,4004.743652,4270.384766,4003.333252,4056.538574,4018.461426,3156.025635,4013.333252,4097.436035,3938.718018,3891.794922,4044.358887,4323.205078,4149.743652,3972.05127,0,3,69,,,,0,4,4,4,4,4,4,4,4,4,4,4,4,4,4,100,,,,,,,,,,,,,,,,,,,,,,,,,,,,,,,,,,,,,,,,,,,,,,,,,,,,,,,,,,,,,,,,,,,,,,,,,,,,,,,,,,,,,,,,,,,,,,,,,,,,,,,,,,,,,,,,,,,,,,,,,,,,,,,,,,,,,,
1702547747,1702547747,64,0,4022.94873,4282.179688,4027.564209,4073.076904,4040.769287,3189.743652,4025.641113,4108.974121,3955.641113,3929.615479,4065.769287,4331.410156,4157.563965,3991.410156,5534,3,69,,,,0,4,4,4,4,4,4,4,4,4,4,4,4,4,4,100,,,,,,,,,,,,,,,,,16,0,0.726785,-0.41394,-0.510254,-0.200195,0.894152,-0.407276,0.136247,-23.880037,2.201087,82.147507,,,,,,,,,,,,,,,,,,,,,,,,,,,,,,,,,,,,,,,,,,,,,,,,,,,,,,,,,,,,,,,,,,,,,,,,,,,,,,,,,,,,,,,,,,,,,,,,,,,,,,,,,,
1702547747,1702547747,65,0,4054.358887,4334.230957,4056.538574,4108.717773,4036.025635,3238.076904,4047.307617,4126.025879,3988.974365,4001.025635,4095.512939,4340.128418,4185.256348,4026.153809,5716,3,69,,,,0,4,4,4,4,4,4,4,4,4,4,4,4,4,4,100,,,,,,,,,,,,,,,,,,,,,,,,,,,,,,,,,,,,,,,,,,,,,,,,,,,,,,,,,,,,,,,,,,,,,,,,,,,,,,,,,,,,,,,,,,,,,,,,,,,,,,,,,,,,,,,,,,,,,,,,,,,,,,,,,,,,,,
1702547747,1702547747,66,0,4034.615479,4342.820313,4035,4095.128174,3971.923096,3235.256348,4023.589844,4107.563965,3970.128174,3969.615479,4058.333252,4329.230957,4158.589844,4010,5626,3,69,,,,0,4,4,4,4,4,4,4,4,4,4,4,4,4,4,100,,,,,,,,,,,,,,,,,,,,,,,,,,,,,,,,,,,,,,,,,,,,,,,,,,,,,,,,,,,,,,,,,,,,,,,,,,,,,,,,,,,,,,,,,,,,,,,,,,,,,,,,,,,,,,,,,,,,,,,,,,,,,,,,,,,,,,
1702547747,1702547747,67,0,4012.564209,4323.333496,4014.358887,4073.589844,3959.615479,3231.666748,3999.871826,4089.230713,3946.410156,3912.820557,4020.769287,4318.974121,4115.256348,3989.358887,5517,3,69,,,,0,4,4,4,4,4,4,4,4,4,4,4,4,4,4,100,,,,,,,,,,,,,,,,,,,,,,,,,,,,,,,,,,,,,,,,,,,,,,,,,,,,,,,,,,,,,,,,,,,,,,,,,,,,,,,,,,,,,,,,,,,,,,,,,,,,,,,,,,,,,,,,,,,,,,,,,,,,,,,,,,,,,,
1702547747,1702547747,68,0,4021.153809,4328.717773,4021.538574,4080.128174,4020.512939,3272.564209,4010.769287,4099.358887,3959.871826,3932.435791,4026.666748,4320.769043,4107.307617,4000.641113,5440,3,69,,,,0,4,4,4,4,4,4,4,4,4,4,4,4,4,4,100,,,,,,,,,,,,,,,,,17,0,0.726919,-0.414429,-0.509521,-0.200562,0.884385,-0.373581,0.140642,-23.842033,2.247645,82.332756,,,,,,,,,,,,,,,,,,,,,,,,,,,,,,,,,,,,,,,,,,,,,,,,,,,,,,,,,,,,,,,,,,,,,,,,,,,,,,,,,,,,,,,,,,,,,,,,,,,,,,,,,,
1702547747,1702547747,69,0,4000.769287,4319.358887,4005.769287,4066.025635,4006.410156,3303.076904,4006.923096,4102.05127,3953.205078,3937.94873,4011.025635,4314.871582,4084.743652,3987.564209,5207,3,69,,,,0,4,4,4,4,4,4,4,4,4,4,4,4,4,4,100,,,,,,,,,,,,,,,,,,,,,,,,,,,,,,,,,,,,,,,,,,,,,,,,,,,,,,,,,,,,,,,,,,,,,,,,,,,,,,,,,,,,,,,,,,,,,,,,,,,,,,,,,,,,,,,,,,,,,,,,,,,,,,,,,,,,,,
1702547747,1702547747,70,0,3967.820557,4285.641113,3980.128174,4033.205078,3954.487061,3319.615479,3987.94873,4090.512939,3927.307617,3894.358887,3982.820557,4307.05127,4052.692383,3957.307617,4841,3,69,,,,0,4,4,4,4,4,4,4,4,4,4,4,4,4,4,100,,,,,,,,,,,,,,,,,,,,,,,,,,,,,,,,,,,,,,,,,,,,,,,,,,,,,,,,,,,,,,,,,,,,,,,,,,,,,,,,,,,,,,,,,,,,,,,,,,,,,,,,,,,,,,,,,,,,,,,,,,,,,,,,,,,,,,
1702547747,1702547747,71,0,3975.897461,4283.974121,3986.538574,4029.743652,3954.487061,3361.153809,3989.230713,4087.307617,3929.358887,3871.153809,3991.153809,4308.589844,4059.230713,3962.820557,3996,3,69,,,,0,4,4,4,4,4,4,4,4,4,4,4,4,4,4,100,,,,,,,,,,,,,,,,,,,,,,,,,,,,,,,,,,,,,,,,,,,,,,,,,,,,,,,,,,,,,,,,,,,,,,,,,,,,,,,,,,,,,,,,,,,,,,,,,,,,,,,,,,,,,,,,,,,,,,,,,,,,,,,,,,,,,,
1702547747,1702547747,72,0,3981.538574,4291.666504,3993.461426,4036.281982,3944.358887,3399.358887,3988.846191,4084.358887,3933.461426,3871.153809,3996.281982,4305.256348,4060.384521,3971.794922,5197,3,69,,,,0,4,4,4,4,4,4,4,4,4,4,4,4,4,4,100,,,,,,,,,,,,,,,,,18,0,0.727172,-0.414917,-0.508667,-0.200806,0.908802,-0.398974,0.146014,-23.75783,2.239547,82.432816,,,,,,,,,,,,,,,,,,,,,,,,,,,,,,,,,,,,,,,,,,,,,,,,,,,,,,,,,,,,,,,,,,,,,,,,,,,,,,,,,,,,,,,,,,,,,,,,,,,,,,,,,,
1702547747,1702547747,73,0,3970.769287,4285,3993.205078,4038.461426,3937.435791,3425.897461,3983.846191,4081.281982,3932.179443,3909.358887,3988.461426,4301.025879,4047.05127,3970.384521,5529,3,69,,,,0,4,4,4,4,4,4,4,4,4,4,4,4,4,4,100,,,,,,,,,,,,,,,,,,,,,,,,,,,,,,,,,,,,,,,,,,,,,,,,,,,,,,,,,,,,,,,,,,,,,,,,,,,,,,,,,,,,,,,,,,,,,,,,,,,,,,,,,,,,,,,,,,,,,,,,,,,,,,,,,,,,,,
1702547747,1702547747,74,0,3985.512939,4293.077148,4012.307617,4050.641113,3978.974365,3472.307617,3997.179443,4088.461426,3942.94873,3958.461426,4003.589844,4309.871582,4062.05127,3987.94873,6052,3,69,,,,0,4,4,4,4,4,4,4,4,4,4,4,4,4,4,100,,,,,,,,,,,,,,,,,,,,,,,,,,,,,,,,,,,,,,,,,,,,,,,,,,,,,,,,,,,,,,,,,,,,,,,,,,,,,,,,,,,,,,,,,,,,,,,,,,,,,,,,,,,,,,,,,,,,,,,,,,,,,,,,,,,,,,
1702547747,1702547747,75,0,4008.974365,4308.077148,4032.94873,4065.384521,3995.128174,3521.281982,4007.05127,4097.307617,3947.307617,3952.692383,4022.435791,4317.436035,4080,4006.025635,6204,3,69,,,,0,4,4,4,4,4,4,4,4,4,4,4,4,4,4,100,,,,,,,,,,,,,,,,,,,,,,,,,,,,,,,,,,,,,,,,,,,,,,,,,,,,,,,,,,,,,,,,,,,,,,,,,,,,,,,,,,,,,,,,,,,,,,,,,,,,,,,,,,,,,,,,,,,,,,,,,,,,,,,,,,,,,,
1702547747,1702547747,76,0,4014.230713,4312.563965,4038.846191,4076.153809,3989.615479,3553.461426,4009.358887,4102.436035,3949.487061,3939.615479,4028.846191,4312.820313,4078.718018,4012.94873,6688,3,69,,,,0,4,4,4,4,4,4,4,4,4,4,4,4,4,4,100,,,,,,,,,,,,,,,,,19,0,0.727246,-0.415222,-0.50824,-0.200989,0.905872,-0.408253,0.1382,-23.732048,2.282259,82.47287,,,,,,,,,,,,,,,,,,,,,,,,,,,,,,,,,,,,,,,,,,,,,,,,,,,,,,,,,,,,,,,,,,,,,,,,,,,,,,,,,,,,,,,,,,,,,,,,,,,,,,,,,,
1702547747,1702547747,77,0,4014.102539,4313.077148,4043.461426,4077.179443,3995.897461,3579.102539,4016.410156,4106.025879,3956.794922,3954.615479,4038.076904,4313.333496,4075.384521,4020.769287,2085,3,69,,,,0,4,4,4,4,4,4,4,4,4,4,4,4,4,4,100,,,,,,,,,,,,,,,,,,,,,,,,,,,,,,,,,,,,,,,,,,,,,,,,,,,,,,,,,,,,,,,,,,,,,,,,,,,,,,,,,,,,,,,,,,,,,,,,,,,,,,,,,,,,,,,,,,,,,,,,,,,,,,,,,,,,,,
1702547747,1702547747,78,0,4013.589844,4301.410156,4046.153809,4067.692383,3956.923096,3597.564209,4011.410156,4099.487305,3949.743652,3931.410156,4036.153809,4316.282227,4065.641113,4017.94873,6052,3,69,,,,0,4,4,4,4,4,4,4,4,4,4,4,4,4,4,100,,,,,,,,,,,,,,,,,,,,,,,,,,,,,,,,,,,,,,,,,,,,,,,,,,,,,,,,,,,,,,,,,173.259186,57.189003,18.673506,4.465362,3.287905,162.488556,47.762093,14.61418,4.151893,2.438421,167.478165,51.815308,15.121241,4.837754,2.749241,167.184769,57.70351,16.255632,4.075933,3.001536,167.424545,53.583687,13.941352,10.095757,4.493126,282.361328,81.926178,19.045532,7.203198,1.904966,102.957779,33.694576,11.383279,3.174152,1.802667,49.758129,17.785263,6.179912,2.301276,1.39265,170.82518,50.126865,15.744234,5.657469,2.611616,175.369827,53.879444,13.96276,8.136939,5.486765,215.507446,71.062172,22.402721,7.330753,3.995915,20.647921,7.883119,2.375817,0.750681,0.497046,314.034332,78.284264,16.984562,6.464049,4.208493,242.193893,65.094658,25.449686,6.219092,3.68073
1702547747,1702547747,79,0,4000.641113,4278.205078,4030.512939,4057.05127,3937.179443,3619.743652,3997.94873,4088.205078,3934.230713,3890.128174,4009.615479,4309.615234,4039.743652,3995,6204,3,69,,,,0,4,4,4,4,4,4,4,4,4,4,4,4,4,4,100,,,,,,,,,,,,,,,,,,,,,,,,,,,,,,,,,,,,,,,,,,,,,,,,,,,,,,,,,,,,,,,,,,,,,,,,,,,,,,,,,,,,,,,,,,,,,,,,,,,,,,,,,,,,,,,,,,,,,,,,,,,,,,,,,,,,,,
1702547747,1702547747,80,0,3995.128174,4280.384766,4020.641113,4055,3982.05127,3657.564209,3999.358887,4092.564209,3941.025635,3910.769287,4004.358887,4304.230957,4028.718018,3989.487061,6688,3,69,,,,0,4,4,4,4,4,4,4,4,4,4,4,4,4,4,100,,,,,,,,,,,,,,,,,20,0,0.727483,-0.415955,-0.507324,-0.200928,0.897082,-0.394091,0.147967,-23.808842,2.337366,82.458916,,,,,,,,,,,,,,,,,,,,,,,,,,,,,,,,,,,,,,,,,,,,,,,,,,,,,,,,,,,,,,,,,,,,,,,,,,,,,,,,,,,,,,,,,,,,,,,,,,,,,,,,,,
1702547747,1702547747,81,0,4006.923096,4297.436035,4034.102539,4062.435791,3983.461426,3689.230713,4004.358887,4096.282227,3946.410156,3934.102539,4023.461426,4305.641113,4036.538574,4010,2085,3,69,,,,0,4,4,4,4,4,4,4,4,4,4,4,4,4,4,100,,,,,,,,,,,,,,,,,,,,,,,,,,,,,,,,,,,,,,,,,,,,,,,,,,,,,,,,,,,,,,,,,,,,,,,,,,,,,,,,,,,,,,,,,,,,,,,,,,,,,,,,,,,,,,,,,,,,,,,,,,,,,,,,,,,,,,
1702547747,1702547747,82,0,4020,4296.794922,4047.05127,4073.461426,3952.179443,3710.256348,4004.102539,4091.410156,3939.358887,3928.974365,4033.461426,4311.153809,4039.743652,4026.666748,6052,3,69,,,,0,4,4,4,4,4,4,4,4,4,4,4,4,4,4,100,,,,,,,,,,,,,,,,,,,,,,,,,,,,,,,,,,,,,,,,,,,,,,,,,,,,,,,,,,,,,,,,,,,,,,,,,,,,,,,,,,,,,,,,,,,,,,,,,,,,,,,,,,,,,,,,,,,,,,,,,,,,,,,,,,,,,,
1702547747,1702547747,83,0,4021.538574,4291.922852,4044.871826,4071.025635,3985.128174,3736.281982,4007.05127,4094.358887,3945.512939,3941.794922,4035.897461,4312.820313,4040.128174,4030,6204,3,69,,,,0,4,4,4,4,4,4,4,4,4,4,4,4,4,4,100,,,,,,,,,,,,,,,,,,,,,,,,,,,,,,,,,,,,,,,,,,,,,,,,,,,,,,,,,,,,,,,,,,,,,,,,,,,,,,,,,,,,,,,,,,,,,,,,,,,,,,,,,,,,,,,,,,,,,,,,,,,,,,,,,,,,,,
1702547747,1702547747,84,0,4015.256348,4298.205078,4038.076904,4056.281982,4013.333252,3762.564209,4006.666748,4098.846191,3954.615479,3951.794922,4034.102539,4307.692383,4036.538574,4025.128174,6688,3,69,,,,0,4,4,4,4,4,4,4,4,4,4,4,4,4,4,100,,,,,,,,,,,,,,,,,21,0,0.72755,-0.416626,-0.506653,-0.200989,0.911732,-0.392626,0.152851,-23.644625,2.20363,82.379692,,,,,,,,,,,,,,,,,,,,,,,,,,,,,,,,,,,,,,,,,,,,,,,,,,,,,,,,,,,,,,,,,,,,,,,,,,,,,,,,,,,,,,,,,,,,,,,,,,,,,,,,,,
1702547747,1702547747,85,0,4010.256348,4293.974121,4034.358887,4054.871826,3952.435791,3778.718018,4000.897461,4092.435791,3947.05127,3926.923096,4026.281982,4302.94873,4022.05127,4020.384521,2085,3,69,,,,0,4,4,4,4,4,4,4,4,4,4,4,4,4,4,100,,,,,,,,,,,,,,,,,,,,,,,,,,,,,,,,,,,,,,,,,,,,,,,,,,,,,,,,,,,,,,,,,,,,,,,,,,,,,,,,,,,,,,,,,,,,,,,,,,,,,,,,,,,,,,,,,,,,,,,,,,,,,,,,,,,,,,
1702547747,1702547747,86,0,4007.307617,4279.487305,4029.743652,4059.871826,3914.358887,3795,3999.871826,4088.333252,3936.410156,3913.589844,4019.487061,4304.615234,4011.666748,4021.538574,6052,3,69,,,,0,4,4,4,4,4,4,4,4,4,4,4,4,4,4,100,,,,,,,,,,,,,,,,,,,,,,,,,,,,,,,,,,,,,,,,,,,,,,,,,,,,,,,,,,,,,,,,,,,,,,,,,,,,,,,,,,,,,,,,,,,,,,,,,,,,,,,,,,,,,,,,,,,,,,,,,,,,,,,,,,,,,,
1702547747,1702547747,87,0,4017.94873,4289.230957,4041.153809,4066.281982,3980.256348,3831.410156,4013.205078,4101.538574,3955.769287,3955.769287,4039.230713,4311.794922,4032.307617,4040.384521,6204,3,69,,,,0,4,4,4,4,4,4,4,4,4,4,4,4,4,4,100,,,,,,,,,,,,,,,,,,,,,,,,,,,,,,,,,,,,,,,,,,,,,,,,,,,,,,,,,,,,,,,,,,,,,,,,,,,,,,,,,,,,,,,,,,,,,,,,,,,,,,,,,,,,,,,,,,,,,,,,,,,,,,,,,,,,,,
1702547747,1702547747,88,0,4028.589844,4304.871582,4055.769287,4078.974365,4038.974365,3868.589844,4026.153809,4110.641113,3978.589844,3983.846191,4059.743652,4314.358887,4049.358887,4057.435791,6688,3,69,,,,0,4,4,4,4,4,4,4,4,4,4,4,4,4,4,100,,,,,,,,,,,,,,,,,22,0,0.727503,-0.416931,-0.506348,-0.201294,0.887804,-0.4063,0.146014,-23.730162,2.183267,82.525055,,,,,,,,,,,,,,,,,,,,,,,,,,,,,,,,,,,,,,,,,,,,,,,,,,,,,,,,,,,,,,,,,,,,,,,,,,,,,,,,,,,,,,,,,,,,,,,,,,,,,,,,,,
1702547747,1702547747,89,0,4034.358887,4306.666504,4062.179443,4094.615479,4027.94873,3893.076904,4034.743652,4111.666504,3986.281982,3967.307617,4065,4315,4039.871826,4064.615479,2085,3,69,,,,0,4,4,4,4,4,4,4,4,4,4,4,4,4,4,100,,,,,,,,,,,,,,,,,,,,,,,,,,,,,,,,,,,,,,,,,,,,,,,,,,,,,,,,,,,,,,,,,,,,,,,,,,,,,,,,,,,,,,,,,,,,,,,,,,,,,,,,,,,,,,,,,,,,,,,,,,,,,,,,,,,,,,
1702547747,1702547747,90,0,4054.230713,4313.846191,4079.871826,4111.153809,3976.410156,3916.538574,4049.487061,4124.358887,4012.692383,3977.564209,4083.974365,4321.794922,4042.564209,4084.358887,6052,3,69,,,,0,4,4,4,4,4,4,4,4,4,4,4,4,4,4,100,,,,,,,,,,,,,,,,,,,,,,,,,,,,,,,,,,,,,,,,,,,,,,,,,,,,,,,,,,,,,,,,,,,,,,,,,,,,,,,,,,,,,,,,,,,,,,,,,,,,,,,,,,,,,,,,,,,,,,,,,,,,,,,,,,,,,,
1702547747,1702547747,91,0,4063.846191,4315.769043,4090.641113,4111.666504,3970,3934.487061,4051.923096,4130.128418,4028.205078,3994.230713,4095.128174,4326.794922,4051.538574,4097.820313,6204,3,69,,,,0,4,4,4,4,4,4,4,4,4,4,4,4,4,4,100,,,,,,,,,,,,,,,,,,,,,,,,,,,,,,,,,,,,,,,,,,,,,,,,,,,,,,,,,,,,,,,,,,,,,,,,,,,,,,,,,,,,,,,,,,,,,,,,,,,,,,,,,,,,,,,,,,,,,,,,,,,,,,,,,,,,,,
1702547747,1702547747,92,0,4051.025635,4303.846191,4081.410156,4099.102539,4028.333252,3940.641113,4038.333252,4117.436035,4009.487061,3962.692383,4062.435791,4324.358887,4038.718018,4093.076904,6688,3,69,,,,0,4,4,4,4,4,4,4,4,4,4,4,4,4,4,100,,,,,,,,,,,,,,,,,23,0,0.727549,-0.417236,-0.505981,-0.201416,0.902454,-0.403858,0.145526,-23.723812,2.248273,82.572548,,,,,,,,,,,,,,,,,,,,,,,,,,,,,,,,,,,,,,,,,,,,,,,,,,,,,,,,,,,,,,,,,,,,,,,,,,,,,,,,,,,,,,,,,,,,,,,,,,,,,,,,,,
1702547747,1702547747,93,0,4043.461426,4296.922852,4070.769287,4093.974365,4023.974365,3938.205078,4032.179443,4107.94873,3998.974365,3948.589844,4022.435791,4320.256348,4021.666748,4087.05127,2085,3,69,,,,0,4,4,4,4,4,4,4,4,4,4,4,4,4,4,100,,,,,,,,,,,,,,,,,,,,,,,,,,,,,,,,,,,,,,,,,,,,,,,,,,,,,,,,,,,,,,,,,,,,,,,,,,,,,,,,,,,,,,,,,,,,,,,,,,,,,,,,,,,,,,,,,,,,,,,,,,,,,,,,,,,,,,
1702547747,1702547747,94,0,4044.487061,4295.384766,4064.102539,4094.615479,3976.153809,3936.410156,4032.307617,4107.307617,3999.615479,3983.205078,4012.564209,4318.717773,4016.794922,4084.358887,6052,3,69,,,,0,4,4,4,4,4,4,4,4,4,4,4,4,4,4,100,1,0,0,0,0,0,0,0,0,0,0,0,0,0,0,0,,,,,,,,,,,,,,,,,,,,,,,,,,,,,,,,,,,,,,,,,,,,,,,,,61.347282,17.336342,9.824443,2.434828,2.558213,55.425049,14.110533,7.508191,2.213298,1.842484,65.909683,16.116133,6.842204,2.730425,2.217731,57.525166,17.606331,8.103979,2.111112,2.413535,62.962555,17.448524,8.431475,7.787388,4.341312,257.162537,61.309319,14.10126,6.748594,1.556323,36.799313,9.689437,5.170433,1.687523,1.3254,18.539705,5.34568,2.74692,1.305621,1.115092,82.229515,17.15848,8.219843,3.434754,2.07251,69.647072,17.28693,6.517263,6.143469,4.539624,87.838936,21.646984,11.060719,4.300549,3.23977,6.577652,2.576426,0.961072,0.426792,0.358393,146.782959,32.218853,7.763453,3.759454,3.266323,106.122551,20.726944,13.445272,3.894789,2.952118
1702547747,1702547747,95,0,4049.743652,4291.153809,4064.487061,4098.461426,3996.410156,3948.846191,4029.743652,4106.794922,3993.333252,3990.897461,4015.769287,4318.974121,4018.589844,4088.205078,6204,3,69,,,,0,4,4,4,4,4,4,4,4,4,4,4,4,4,4,100,,,,,,,,,,,,,,,,,,,,,,,,,,,,,,,,,,,,,,,,,,,,,,,,,,,,,,,,,,,,,,,,,,,,,,,,,,,,,,,,,,,,,,,,,,,,,,,,,,,,,,,,,,,,,,,,,,,,,,,,,,,,,,,,,,,,,,
1702547747,1702547747,96,0,4054.102539,4283.077148,4067.692383,4096.794922,4029.743652,3964.615479,4027.307617,4103.974121,3992.564209,3953.333252,4011.923096,4314.743652,4019.743652,4088.205078,6688,3,69,,,,0,4,4,4,4,4,4,4,4,4,4,4,4,4,4,100,,,,,,,,,,,,,,,,,24,0,0.727629,-0.417542,-0.505493,-0.201721,0.892199,-0.389696,0.146502,-23.651432,2.156779,82.515297,,,,,,,,,,,,,,,,,,,,,,,,,,,,,,,,,,,,,,,,,,,,,,,,,,,,,,,,,,,,,,,,,,,,,,,,,,,,,,,,,,,,,,,,,,,,,,,,,,,,,,,,,,
1702547747,1702547747,97,0,4050.769287,4281.666504,4068.461426,4091.923096,4013.461426,3976.281982,4030.897461,4105.512695,4000.897461,3945.897461,4013.718018,4312.179688,4024.102539,4083.461426,2085,3,69,,,,0,4,4,4,4,4,4,4,4,4,4,4,4,4,4,100,,,,,,,,,,,,,,,,,,,,,,,,,,,,,,,,,,,,,,,,,,,,,,,,,,,,,,,,,,,,,,,,,,,,,,,,,,,,,,,,,,,,,,,,,,,,,,,,,,,,,,,,,,,,,,,,,,,,,,,,,,,,,,,,,,,,,,
1702547747,1702547747,98,0,4068.076904,4315.128418,4089.230713,4117.563965,4023.205078,4007.820557,4053.846191,4121.410156,4024.230713,3998.589844,4051.025635,4325.128418,4052.435791,4115.769043,6052,3,69,,,,0,4,4,4,4,4,4,4,4,4,4,4,4,4,4,100,,,,,,,,,,,,,,,,,,,,,,,,,,,,,,,,,,,,,,,,,,,,,,,,,,,,,,,,,,,,,,,,,,,,,,,,,,,,,,,,,,,,,,,,,,,,,,,,,,,,,,,,,,,,,,,,,,,,,,,,,,,,,,,,,,,,,,
1702547747,1702547747,99,0,4090,4341.410156,4111.410156,4146.282227,4043.846191,4040.256348,4072.94873,4134.102539,4049.102539,4005.128174,4081.666748,4336.922852,4072.307617,4151.282227,6204,3,69,,,,0,4,4,4,4,4,4,4,4,4,4,4,4,4,4,100,,,,,,,,,,,,,,,,,,,,,,,,,,,,,,,,,,,,,,,,,,,,,,,,,,,,,,,,,,,,,,,,,,,,,,,,,,,,,,,,,,,,,,,,,,,,,,,,,,,,,,,,,,,,,,,,,,,,,,,,,,,,,,,,,,,,,,
1702547747,1702547747,100,0,4070.897461,4318.461426,4095.769287,4128.846191,4044.871826,4047.564209,4065.384521,4126.025879,4045.897461,3939.743652,4056.025635,4331.282227,4038.076904,4133.974121,6688,3,69,,,,0,4,4,4,4,4,4,4,4,4,4,4,4,4,4,100,,,,,,,,,,,,,,,,,25,0,0.727684,-0.417786,-0.505066,-0.202087,0.899036,-0.397998,0.141131,-23.619621,2.091101,82.697098,,,,,,,,,,,,,,,,,,,,,,,,,,,,,,,,,,,,,,,,,,,,,,,,,,,,,,,,,,,,,,,,,,,,,,,,,,,,,,,,,,,,,,,,,,,,,,,,,,,,,,,,,,
1702547747,1702547747,101,0,4056.281982,4307.692383,4088.589844,4115.769043,4067.820557,4067.307617,4064.230713,4119.743652,4051.794922,3953.205078,4041.794922,4325.769043,3999.743652,4133.974121,2085,3,69,,,,0,4,4,4,4,4,4,4,4,4,4,4,4,4,4,100,,,,,,,,,,,,,,,,,,,,,,,,,,,,,,,,,,,,,,,,,,,,,,,,,,,,,,,,,,,,,,,,,,,,,,,,,,,,,,,,,,,,,,,,,,,,,,,,,,,,,,,,,,,,,,,,,,,,,,,,,,,,,,,,,,,,,,
1702547747,1702547747,102,0,4079.871826,4333.077148,4106.922852,4140,4019.102539,4091.153809,4078.718018,4126.282227,4090.641113,4025.897461,4077.05127,4331.410156,3992.179443,4181.794922,6052,3,69,,,,0,4,4,4,4,4,4,4,4,4,4,4,4,4,4,100,,,,,,,,,,,,,,,,,,,,,,,,,,,,,,,,,,,,,,,,,,,,,,,,,,,,,,,,,,,,,,,,,,,,,,,,,,,,,,,,,,,,,,,,,,,,,,,,,,,,,,,,,,,,,,,,,,,,,,,,,,,,,,,,,,,,,,
1702547747,1702547747,103,0,4087.179443,4335.512695,4104.615234,4144.487305,3974.487061,4092.820557,4078.205078,4126.666504,4109.871582,3994.230713,4092.307617,4332.436035,3967.307617,4200.256348,6204,3,69,,,,0,4,4,4,4,4,4,4,4,4,4,4,4,4,4,100,,,,,,,,,,,,,,,,,,,,,,,,,,,,,,,,,,,,,,,,,,,,,,,,,,,,,,,,,,,,,,,,,,,,,,,,,,,,,,,,,,,,,,,,,,,,,,,,,,,,,,,,,,,,,,,,,,,,,,,,,,,,,,,,,,,,,,
1702547747,1702547747,104,0,4063.589844,4307.94873,4085.769287,4118.846191,4052.820557,4096.410156,4063.076904,4119.743652,4101.282227,3927.692383,4066.794922,4324.102539,3911.153809,4174.743652,6688,3,69,,,,0,4,4,4,4,4,4,4,4,4,4,4,4,4,4,100,,,,,,,,,,,,,,,,,26,0,0.727569,-0.41803,-0.504883,-0.202454,0.887315,-0.405811,0.147479,-23.474327,2.065325,82.710724,,,,,,,,,,,,,,,,,,,,,,,,,,,,,,,,,,,,,,,,,,,,,,,,,,,,,,,,,,,,,,,,,,,,,,,,,,,,,,,,,,,,,,,,,,,,,,,,,,,,,,,,,,
1702547747,1702547747,105,0,4059.230713,4307.05127,4086.794922,4118.333496,4085.128174,4110.512695,4060.897461,4121.025879,4106.666504,3938.076904,4070.256348,4322.179688,3885.384521,4171.538574,2085,3,69,,,,0,4,4,4,4,4,4,4,4,4,4,4,4,4,4,100,,,,,,,,,,,,,,,,,,,,,,,,,,,,,,,,,,,,,,,,,,,,,,,,,,,,,,,,,,,,,,,,,,,,,,,,,,,,,,,,,,,,,,,,,,,,,,,,,,,,,,,,,,,,,,,,,,,,,,,,,,,,,,,,,,,,,,
1702547747,1702547747,106,0,4086.281982,4345.512695,4103.205078,4149.871582,4036.923096,4129.230957,4080,4133.333496,4125.512695,3949.358887,4119.615234,4333.333496,3917.179443,4205.897461,6052,3,69,,,,0,4,4,4,4,4,4,4,4,4,4,4,4,4,4,100,,,,,,,,,,,,,,,,,,,,,,,,,,,,,,,,,,,,,,,,,,,,,,,,,,,,,,,,,,,,,,,,,,,,,,,,,,,,,,,,,,,,,,,,,,,,,,,,,,,,,,,,,,,,,,,,,,,,,,,,,,,,,,,,,,,,,,
1702547747,1702547747,107,0,4103.974121,4357.692383,4110,4164.871582,4038.846191,4152.692383,4094.487061,4141.025879,4132.179688,3943.718018,4151.794922,4342.563965,3936.410156,4220,6204,3,69,,,,0,4,4,4,4,4,4,4,4,4,4,4,4,4,4,100,,,,,,,,,,,,,,,,,,,,,,,,,,,,,,,,,,,,,,,,,,,,,,,,,,,,,,,,,,,,,,,,,,,,,,,,,,,,,,,,,,,,,,,,,,,,,,,,,,,,,,,,,,,,,,,,,,,,,,,,,,,,,,,,,,,,,,
1702547747,1702547747,108,0,4094.230713,4329.230957,4102.05127,4150.641113,4056.923096,4166.538574,4088.718018,4136.410156,4121.282227,3966.153809,4132.692383,4335.641113,3900.384521,4196.666504,6688,3,69,,,,0,4,4,4,4,4,4,4,4,4,4,4,4,4,4,100,,,,,,,,,,,,,,,,,27,0,0.727577,-0.418457,-0.504395,-0.202759,0.888292,-0.405323,0.144061,-23.460226,1.975459,82.989647,,,,,,,,,,,,,,,,,,,,,,,,,,,,,,,,,,,,,,,,,,,,,,,,,,,,,,,,,,,,,,,,,,,,,,,,,,,,,,,,,,,,,,,,,,,,,,,,,,,,,,,,,,
1702547747,1702547747,109,0,4100.384766,4332.436035,4105,4154.487305,4061.025635,4173.589844,4093.333252,4140.897461,4123.974121,3998.205078,4138.333496,4336.794922,3908.205078,4201.538574,2085,3,69,,,,0,4,4,4,4,4,4,4,4,4,4,4,4,4,4,100,,,,,,,,,,,,,,,,,,,,,,,,,,,,,,,,,,,,,,,,,,,,,,,,,,,,,,,,,,,,,,,,,,,,,,,,,,,,,,,,,,,,,,,,,,,,,,,,,,,,,,,,,,,,,,,,,,,,,,,,,,,,,,,,,,,,,,
1702547747,1702547747,110,0,4115.256348,4342.692383,4112.307617,4164.871582,4091.153809,4174.615234,4101.410156,4144.743652,4123.077148,3996.666748,4175.384766,4345.769043,3964.615479,4221.922852,6052,3,69,,,,0,4,4,4,4,4,4,4,4,4,4,4,4,4,4,100,,,,,,,,,,,,,,,,,,,,,,,,,,,,,,,,,,,,,,,,,,,,,,,,,,,,,,,,,,,,,,,,,32.649117,7.654871,6.911759,2.133795,2.382515,27.960863,5.860276,5.138518,1.835907,1.683474,36.973316,7.531152,4.56439,2.421709,2.246696,29.600286,8.141058,5.734502,1.759014,2.387341,32.756279,9.832395,8.106636,6.492733,4.43661,308.74585,64.380249,14.413154,7.284039,1.593562,18.799604,4.241309,3.151978,1.516943,1.241598,10.112945,2.508795,1.644384,1.176196,1.100203,50.84034,8.593736,5.184329,2.956515,2.037467,38.299835,9.543061,4.52566,6.140812,4.28474,54.757263,10.617758,7.637987,3.697372,3.204476,2.977235,1.355591,0.693709,0.396314,0.334977,87.358383,17.852072,5.827089,3.212571,2.950709,63.932098,9.957693,9.155169,3.310325,2.899465
1702547747,1702547747,111,0,4090.897461,4300.769043,4087.179443,4136.794922,4077.94873,4155.641113,4080.384521,4123.077148,4077.179443,3954.102539,4158.717773,4331.794922,3964.615479,4190.256348,6204,3,69,,,,0,4,4,4,4,4,4,4,4,4,4,4,4,4,4,100,,,,,,,,,,,,,,,,,,,,,,,,,,,,,,,,,,,,,,,,,,,,,,,,,,,,,,,,,,,,,,,,,,,,,,,,,,,,,,,,,,,,,,,,,,,,,,,,,,,,,,,,,,,,,,,,,,,,,,,,,,,,,,,,,,,,,,
1702547747,1702547747,112,0,4078.718018,4284.487305,4075.512939,4126.794922,4034.743652,4154.871582,4075.512939,4118.974121,4055,3940.641113,4153.846191,4324.230957,3965.256348,4177.820313,6688,3,69,,,,0,4,4,4,4,4,4,4,4,4,4,4,4,4,4,100,,,,,,,,,,,,,,,,,28,0,0.727615,-0.41864,-0.504089,-0.203003,0.899036,-0.398974,0.154804,-23.397537,1.927913,82.924019,,,,,,,,,,,,,,,,,,,,,,,,,,,,,,,,,,,,,,,,,,,,,,,,,,,,,,,,,,,,,,,,,,,,,,,,,,,,,,,,,,,,,,,,,,,,,,,,,,,,,,,,,,
1702547747,1702547747,113,0,4117.179688,4323.589844,4116.794922,4165.769043,4046.923096,4190,4106.538574,4149.487305,4089.615479,3982.692383,4215.512695,4341.794922,4024.487061,4227.692383,2085,3,69,,,,0,4,4,4,4,4,4,4,4,4,4,4,4,4,4,100,,,,,,,,,,,,,,,,,,,,,,,,,,,,,,,,,,,,,,,,,,,,,,,,,,,,,,,,,,,,,,,,,,,,,,,,,,,,,,,,,,,,,,,,,,,,,,,,,,,,,,,,,,,,,,,,,,,,,,,,,,,,,,,,,,,,,,
1702547747,1702547747,114,0,4140.641113,4329.615234,4146.153809,4178.717773,4067.94873,4207.307617,4116.794922,4160.384766,4098.461426,4010,4239.102539,4350,4049.358887,4242.563965,6052,3,69,,,,0,4,4,4,4,4,4,4,4,4,4,4,4,4,4,100,,,,,,,,,,,,,,,,,,,,,,,,,,,,,,,,,,,,,,,,,,,,,,,,,,,,,,,,,,,,,,,,,,,,,,,,,,,,,,,,,,,,,,,,,,,,,,,,,,,,,,,,,,,,,,,,,,,,,,,,,,,,,,,,,,,,,,
1702547747,1702547747,115,0,4132.05127,4314.615234,4138.333496,4162.05127,4076.281982,4207.307617,4104.871582,4149.871582,4075.512939,4010.128174,4213.333496,4344.871582,4027.564209,4215.897461,6204,3,69,,,,0,4,4,4,4,4,4,4,4,4,4,4,4,4,4,100,,,,,,,,,,,,,,,,,,,,,,,,,,,,,,,,,,,,,,,,,,,,,,,,,,,,,,,,,,,,,,,,,,,,,,,,,,,,,,,,,,,,,,,,,,,,,,,,,,,,,,,,,,,,,,,,,,,,,,,,,,,,,,,,,,,,,,
1702547747,1702547747,116,0,4143.717773,4338.717773,4144.230957,4175.641113,4113.205078,4230.384766,4113.846191,4155,4082.435791,4035.256348,4230.769043,4348.333496,4048.846191,4224.487305,6688,3,69,,,,0,4,4,4,4,4,4,4,4,4,4,4,4,4,4,100,,,,,,,,,,,,,,,,,29,0,0.727588,-0.419067,-0.503601,-0.20343,0.897082,-0.400928,0.145526,-23.491117,1.835122,82.964951,,,,,,,,,,,,,,,,,,,,,,,,,,,,,,,,,,,,,,,,,,,,,,,,,,,,,,,,,,,,,,,,,,,,,,,,,,,,,,,,,,,,,,,,,,,,,,,,,,,,,,,,,,
1702547747,1702547747,117,0,4160.897461,4354.487305,4165.128418,4195.897461,4120.769043,4251.922852,4122.692383,4161.922852,4089.358887,4045.897461,4257.307617,4349.358887,4083.589844,4239.487305,2085,3,69,,,,0,4,4,4,4,4,4,4,4,4,4,4,4,4,4,100,,,,,,,,,,,,,,,,,,,,,,,,,,,,,,,,,,,,,,,,,,,,,,,,,,,,,,,,,,,,,,,,,,,,,,,,,,,,,,,,,,,,,,,,,,,,,,,,,,,,,,,,,,,,,,,,,,,,,,,,,,,,,,,,,,,,,,
1702547747,1702547747,118,0,4146.794922,4334.871582,4159.102539,4181.410156,4085,4246.025879,4109.230957,4152.179688,4062.94873,4020,4238.846191,4342.820313,4076.794922,4216.666504,6052,3,69,,,,0,4,4,4,4,4,4,4,4,4,4,4,4,4,4,100,,,,,,,,,,,,,,,,,,,,,,,,,,,,,,,,,,,,,,,,,,,,,,,,,,,,,,,,,,,,,,,,,,,,,,,,,,,,,,,,,,,,,,,,,,,,,,,,,,,,,,,,,,,,,,,,,,,,,,,,,,,,,,,,,,,,,,
1702547747,1702547747,119,0,4127.692383,4320.897461,4142.179688,4162.820313,4081.794922,4244.487305,4102.05127,4146.922852,4051.794922,4023.333252,4222.436035,4342.179688,4063.461426,4199.102539,6204,3,69,,,,0,4,4,4,4,4,4,4,4,4,4,4,4,4,4,100,,,,,,,,,,,,,,,,,,,,,,,,,,,,,,,,,,,,,,,,,,,,,,,,,,,,,,,,,,,,,,,,,,,,,,,,,,,,,,,,,,,,,,,,,,,,,,,,,,,,,,,,,,,,,,,,,,,,,,,,,,,,,,,,,,,,,,
1702547747,1702547747,120,0,4125.128418,4317.563965,4137.820313,4155.641113,4102.94873,4246.282227,4100.128418,4145.384766,4054.871826,4029.743652,4223.333496,4337.436035,4062.564209,4197.307617,6688,3,69,,,,0,4,4,4,4,4,4,4,4,4,4,4,4,4,4,100,,,,,,,,,,,,,,,,,30,0,0.727612,-0.419495,-0.503113,-0.203674,0.900501,-0.392138,0.147479,-23.492006,1.701609,83.001785,,,,,,,,,,,,,,,,,,,,,,,,,,,,,,,,,,,,,,,,,,,,,,,,,,,,,,,,,,,,,,,,,,,,,,,,,,,,,,,,,,,,,,,,,,,,,,,,,,,,,,,,,,
1702547747,1702547747,121,0,4120.897461,4307.307617,4136.666504,4144.743652,4075,4234.871582,4091.538574,4137.307617,4041.410156,4005.128174,4223.077148,4329.102539,4064.102539,4186.410156,2085,3,69,,,,0,4,4,4,4,4,4,4,4,4,4,4,4,4,4,100,,,,,,,,,,,,,,,,,,,,,,,,,,,,,,,,,,,,,,,,,,,,,,,,,,,,,,,,,,,,,,,,,,,,,,,,,,,,,,,,,,,,,,,,,,,,,,,,,,,,,,,,,,,,,,,,,,,,,,,,,,,,,,,,,,,,,,
1702547747,1702547747,122,0,4116.794922,4305.384766,4139.743652,4145.256348,4020.769287,4231.922852,4097.692383,4140.256348,4039.102539,3997.435791,4235.128418,4334.358887,4073.205078,4178.589844,6052,3,69,,,,0,4,4,4,4,4,4,4,4,4,4,4,4,4,4,100,,,,,,,,,,,,,,,,,,,,,,,,,,,,,,,,,,,,,,,,,,,,,,,,,,,,,,,,,,,,,,,,,,,,,,,,,,,,,,,,,,,,,,,,,,,,,,,,,,,,,,,,,,,,,,,,,,,,,,,,,,,,,,,,,,,,,,
1702547747,1702547747,123,0,4130.128418,4321.922852,4152.94873,4164.102539,4055.897461,4251.153809,4118.974121,4154.871582,4061.538574,4028.333252,4262.692383,4344.743652,4101.410156,4188.077148,6204,3,69,,,,0,4,4,4,4,4,4,4,4,4,4,4,4,4,4,100,,,,,,,,,,,,,,,,,,,,,,,,,,,,,,,,,,,,,,,,,,,,,,,,,,,,,,,,,,,,,,,,,,,,,,,,,,,,,,,,,,,,,,,,,,,,,,,,,,,,,,,,,,,,,,,,,,,,,,,,,,,,,,,,,,,,,,
1702547747,1702547747,124,0,4137.94873,4328.077148,4159.487305,4168.589844,4128.717773,4262.94873,4121.922852,4156.410156,4068.333252,4046.410156,4272.820313,4343.205078,4114.615234,4191.410156,6688,3,69,,,,0,4,4,4,4,4,4,4,4,4,4,4,4,4,4,100,,,,,,,,,,,,,,,,,31,0,0.727581,-0.420044,-0.502625,-0.203857,0.905384,-0.397021,0.143084,-23.526138,1.664782,83.101608,,,,,,,,,,,,,,,,,,,,,,,,,,,,,,,,,,,,,,,,,,,,,,,,,,,,,,,,,,,,,,,,,,,,,,,,,,,,,,,,,,,,,,,,,,,,,,,,,,,,,,,,,,
1702547747,1702547747,125,0,4128.205078,4316.153809,4150.769043,4155.384766,4112.94873,4258.333496,4110.769043,4144.102539,4048.589844,4037.692383,4257.307617,4335.769043,4101.666504,4179.615234,2085,3,69,,,,0,4,4,4,4,4,4,4,4,4,4,4,4,4,4,100,,,,,,,,,,,,,,,,,,,,,,,,,,,,,,,,,,,,,,,,,,,,,,,,,,,,,,,,,,,,,,,,,,,,,,,,,,,,,,,,,,,,,,,,,,,,,,,,,,,,,,,,,,,,,,,,,,,,,,,,,,,,,,,,,,,,,,
1702547747,1702547747,126,0,4118.077148,4304.102539,4137.436035,4143.333496,4049.487061,4255,4105.128418,4135.128418,4032.692383,4033.718018,4235.512695,4330.512695,4090.256348,4167.436035,6052,3,69,,,,0,4,4,4,4,4,4,4,4,4,4,4,4,4,4,100,,,,,,,,,,,,,,,,,,,,,,,,,,,,,,,,,,,,,,,,,,,,,,,,,,,,,,,,,,,,,,,,,21.348881,6.145639,5.329542,2.145907,2.376604,18.375376,4.424458,3.993335,1.730375,1.666811,23.944342,6.162379,3.739094,2.410884,2.425753,20.520615,6.847302,4.784961,1.742988,2.513631,19.873106,9.44604,8.848267,5.463426,4.576477,369.941193,71.40345,15.234504,7.519878,1.733423,11.500174,3.636277,2.312041,1.541694,1.289953,6.601983,2.204769,1.206511,1.184706,1.158544,33.555462,6.372087,3.546468,2.7438,2.158844,23.830715,9.011106,4.019701,6.251947,4.431867,41.480965,9.530508,6.450929,3.53353,3.333021,1.927878,1.166436,0.640909,0.415383,0.353562,52.468987,12.693512,5.764391,3.022299,2.829211,42.190559,8.1624,7.046721,3.118133,3.01265
1702547747,1702547747,127,0,4117.94873,4309.871582,4137.05127,4144.615234,4055,4263.077148,4110,4141.282227,4042.94873,4033.205078,4235.769043,4330.769043,4096.282227,4165.897461,69,3,69,,,,0,4,4,4,4,4,4,4,4,4,4,4,4,4,4,100,,,,,,,,,,,,,,,,,,,,,,,,,,,,,,,,,,,,,,,,,,,,,,,,,,,,,,,,,,,,,,,,,,,,,,,,,,,,,,,,,,,,,,,,,,,,,,,,,,,,,,,,,,,,,,,,,,,,,,,,,,,,,,,,,,,,,,
1702547747,1702547747,0,0,4129.871582,4326.282227,4151.410156,4157.563965,4104.871582,4278.333496,4122.179688,4155.384766,4064.743652,4033.076904,4261.794922,4335.256348,4114.230957,4172.820313,5511,3,69,,,,0,4,4,4,4,4,4,4,4,4,4,4,4,4,4,100,,,,,,,,,,,,,,,,,0,0,0.727445,-0.420349,-0.502441,-0.204163,0.904896,-0.407276,0.137224,-23.540192,1.61497,83.174782,,,,,,,,,,,,,,,,,,,,,,,,,,,,,,,,,,,,,,,,,,,,,,,,,,,,,,,,,,,,,,,,,,,,,,,,,,,,,,,,,,,,,,,,,,,,,,,,,,,,,,,,,,
1702547747,1702547747,1,0,4134.615234,4327.436035,4156.410156,4160.128418,4112.179688,4282.692383,4118.461426,4152.307617,4059.358887,4040.128174,4271.922852,4336.922852,4123.333496,4172.307617,5694,3,69,,,,0,4,4,4,4,4,4,4,4,4,4,4,4,4,4,100,,,,,,,,,,,,,,,,,,,,,,,,,,,,,,,,,,,,,,,,,,,,,,,,,,,,,,,,,,,,,,,,,,,,,,,,,,,,,,,,,,,,,,,,,,,,,,,,,,,,,,,,,,,,,,,,,,,,,,,,,,,,,,,,,,,,,,
1702547747,1702547747,2,0,4126.025879,4321.410156,4148.974121,4154.102539,4085.512939,4276.153809,4100.641113,4136.410156,4038.461426,4058.974365,4265.897461,4333.974121,4126.153809,4167.05127,5609,3,69,,,,0,4,4,4,4,4,4,4,4,4,4,4,4,4,4,100,,,,,,,,,,,,,,,,,,,,,,,,,,,,,,,,,,,,,,,,,,,,,,,,,,,,,,,,,,,,,,,,,,,,,,,,,,,,,,,,,,,,,,,,,,,,,,,,,,,,,,,,,,,,,,,,,,,,,,,,,,,,,,,,,,,,,,
1702547747,1702547747,3,0,4122.563965,4323.717773,4152.436035,4154.871582,4057.05127,4268.717773,4094.487061,4135,4040.128174,4068.718018,4271.410156,4332.05127,4130,4166.666504,5489,3,69,,,,0,4,4,4,4,4,4,4,4,4,4,4,4,4,4,100,,,,,,,,,,,,,,,,,,,,,,,,,,,,,,,,,,,,,,,,,,,,,,,,,,,,,,,,,,,,,,,,,,,,,,,,,,,,,,,,,,,,,,,,,,,,,,,,,,,,,,,,,,,,,,,,,,,,,,,,,,,,,,,,,,,,,,
1702547747,1702547748,4,0,4125,4320.641113,4153.333496,4146.025879,4046.923096,4246.794922,4094.102539,4139.358887,4037.307617,4036.666748,4273.077148,4331.153809,4124.743652,4162.692383,5437,3,69,,,,0,4,4,4,4,4,4,4,4,4,4,4,4,4,4,100,,,,,,,,,,,,,,,,,1,0,0.72733,-0.420532,-0.50238,-0.204346,0.878037,-0.399951,0.152851,-23.536173,1.72014,83.190636,,,,,,,,,,,,,,,,,,,,,,,,,,,,,,,,,,,,,,,,,,,,,,,,,,,,,,,,,,,,,,,,,,,,,,,,,,,,,,,,,,,,,,,,,,,,,,,,,,,,,,,,,,
1702547747,1702547748,5,0,4122.692383,4309.743652,4144.743652,4134.230957,4051.794922,4226.922852,4091.666748,4135.128418,4021.538574,4007.307617,4263.205078,4326.538574,4119.358887,4159.615234,5121,3,69,,,,0,4,4,4,4,4,4,4,4,4,4,4,4,4,4,100,,,,,,,,,,,,,,,,,,,,,,,,,,,,,,,,,,,,,,,,,,,,,,,,,,,,,,,,,,,,,,,,,,,,,,,,,,,,,,,,,,,,,,,,,,,,,,,,,,,,,,,,,,,,,,,,,,,,,,,,,,,,,,,,,,,,,,
1702547747,1702547748,6,0,4117.307617,4301.282227,4144.743652,4135.769043,4071.410156,4229.102539,4094.743652,4130.384766,4022.564209,4024.743652,4257.563965,4323.461426,4120.512695,4154.230957,4839,3,69,,,,0,4,4,4,4,4,4,4,4,4,4,4,4,4,4,100,,,,,,,,,,,,,,,,,,,,,,,,,,,,,,,,,,,,,,,,,,,,,,,,,,,,,,,,,,,,,,,,,,,,,,,,,,,,,,,,,,,,,,,,,,,,,,,,,,,,,,,,,,,,,,,,,,,,,,,,,,,,,,,,,,,,,,
1702547747,1702547748,7,0,4093.718018,4282.05127,4130.128418,4117.05127,4079.358887,4219.102539,4080.128174,4116.666504,4009.358887,4017.307617,4229.743652,4317.05127,4100.384766,4124.487305,3982,3,69,,,,0,4,4,4,4,4,4,4,4,4,4,4,4,4,4,100,,,,,,,,,,,,,,,,,,,,,,,,,,,,,,,,,,,,,,,,,,,,,,,,,,,,,,,,,,,,,,,,,,,,,,,,,,,,,,,,,,,,,,,,,,,,,,,,,,,,,,,,,,,,,,,,,,,,,,,,,,,,,,,,,,,,,,
1702547747,1702547748,8,0,4082.307617,4279.487305,4116.666504,4105.641113,4053.461426,4213.589844,4073.974365,4113.589844,3998.076904,3998.205078,4209.615234,4312.94873,4090.769287,4112.563965,5182,3,69,,,,0,4,4,4,4,4,4,4,4,4,4,4,4,4,4,100,,,,,,,,,,,,,,,,,2,0,0.727496,-0.420593,-0.502014,-0.204529,0.903919,-0.401905,0.146991,-23.482555,1.964793,83.204903,,,,,,,,,,,,,,,,,,,,,,,,,,,,,,,,,,,,,,,,,,,,,,,,,,,,,,,,,,,,,,,,,,,,,,,,,,,,,,,,,,,,,,,,,,,,,,,,,,,,,,,,,,
1702547747,1702547748,9,0,4124.743652,4320.769043,4148.205078,4148.077148,4063.589844,4251.410156,4113.589844,4142.179688,4037.94873,4049.230713,4249.102539,4326.410156,4130.641113,4159.230957,5490,3,69,,,,0,4,4,4,4,4,4,4,4,4,4,4,4,4,4,100,,,,,,,,,,,,,,,,,,,,,,,,,,,,,,,,,,,,,,,,,,,,,,,,,,,,,,,,,,,,,,,,,,,,,,,,,,,,,,,,,,,,,,,,,,,,,,,,,,,,,,,,,,,,,,,,,,,,,,,,,,,,,,,,,,,,,,
1702547747,1702547748,10,0,4147.05127,4339.743652,4160.512695,4167.05127,4080.128174,4271.153809,4130.128418,4146.538574,4060.897461,4082.564209,4271.410156,4334.871582,4153.717773,4182.563965,6040,3,69,,,,0,4,4,4,4,4,4,4,4,4,4,4,4,4,4,100,,,,,,,,,,,,,,,,,,,,,,,,,,,,,,,,,,,,,,,,,,,,,,,,,,,,,,,,,,,,,,,,,,,,,,,,,,,,,,,,,,,,,,,,,,,,,,,,,,,,,,,,,,,,,,,,,,,,,,,,,,,,,,,,,,,,,,
1702547747,1702547748,11,0,4111.794922,4308.846191,4116.794922,4127.05127,4053.974365,4242.94873,4096.153809,4118.461426,4029.615479,4042.564209,4236.538574,4324.487305,4135.128418,4148.461426,6172,3,69,,,,0,4,4,4,4,4,4,4,4,4,4,4,4,4,4,100,,,,,,,,,,,,,,,,,,,,,,,,,,,,,,,,,,,,,,,,,,,,,,,,,,,,,,,,,,,,,,,,,,,,,,,,,,,,,,,,,,,,,,,,,,,,,,,,,,,,,,,,,,,,,,,,,,,,,,,,,,,,,,,,,,,,,,
1702547747,1702547748,12,0,4106.538574,4305.384766,4104.487305,4119.487305,4061.794922,4241.025879,4092.820557,4125.256348,4029.871826,4050,4234.358887,4321.794922,4140.512695,4146.025879,6656,3,69,,,,0,4,4,4,4,4,4,4,4,4,4,4,4,4,4,100,,,,,,,,,,,,,,,,,3,0,0.72765,-0.420898,-0.501709,-0.204102,0.892199,-0.395068,0.147967,-23.484299,1.98498,83.284416,,,,,,,,,,,,,,,,,,,,,,,,,,,,,,,,,,,,,,,,,,,,,,,,,,,,,,,,,,,,,,,,,,,,,,,,,,,,,,,,,,,,,,,,,,,,,,,,,,,,,,,,,,
1702547747,1702547748,13,0,4138.333496,4336.922852,4130.769043,4151.282227,4097.436035,4266.025879,4118.205078,4146.666504,4056.666748,4092.692383,4263.589844,4330.897461,4163.589844,4175.384766,2084,3,69,,,,0,4,4,4,4,4,4,4,4,4,4,4,4,4,4,100,,,,,,,,,,,,,,,,,,,,,,,,,,,,,,,,,,,,,,,,,,,,,,,,,,,,,,,,,,,,,,,,,,,,,,,,,,,,,,,,,,,,,,,,,,,,,,,,,,,,,,,,,,,,,,,,,,,,,,,,,,,,,,,,,,,,,,
1702547747,1702547748,14,0,4130.128418,4330.256348,4118.205078,4144.487305,4087.435791,4254.102539,4102.179688,4126.025879,4034.743652,4057.94873,4246.794922,4326.922852,4153.846191,4162.563965,6040,3,69,,,,0,4,4,4,4,4,4,4,4,4,4,4,4,4,4,100,,,,,,,,,,,,,,,,,,,,,,,,,,,,,,,,,,,,,,,,,,,,,,,,,,,,,,,,,,,,,,,,,14.943647,6.22254,4.647237,2.200903,2.378525,13.186639,4.590055,3.764004,1.68493,1.695559,16.272427,6.038693,3.701062,2.390465,2.553351,15.607707,7.210429,4.607997,1.787679,2.614612,12.513453,9.901164,9.837685,4.965178,4.809715,421.634338,73.862465,15.399614,7.244109,1.865022,7.063193,3.810509,2.057502,1.551088,1.35317,4.27821,2.332206,1.088403,1.177859,1.2054,20.01215,5.51896,2.886813,2.516431,2.278684,14.628604,9.498398,4.622532,6.130313,4.893729,33.74295,10.001118,6.325723,3.433382,3.422467,1.473162,1.095166,0.638282,0.428773,0.378745,32.947823,11.192974,6.330492,2.841334,2.756839,26.183407,7.740422,6.195105,3.071565,3.080951
1702547747,1702547748,15,0,4096.666504,4299.230957,4087.692383,4116.025879,4061.025635,4231.282227,4075.512939,4104.230957,4002.820557,4002.820557,4212.05127,4315.512695,4134.743652,4131.282227,6172,3,69,,,,0,4,4,4,4,4,4,4,4,4,4,4,4,4,4,100,,,,,,,,,,,,,,,,,,,,,,,,,,,,,,,,,,,,,,,,,,,,,,,,,,,,,,,,,,,,,,,,,,,,,,,,,,,,,,,,,,,,,,,,,,,,,,,,,,,,,,,,,,,,,,,,,,,,,,,,,,,,,,,,,,,,,,
1702547747,1702547748,16,0,4073.205078,4282.692383,4067.05127,4096.025879,4027.179443,4229.487305,4070.769287,4101.410156,3988.974365,3981.410156,4190.641113,4306.666504,4116.794922,4110.897461,0,3,69,,,,0,4,4,4,4,4,4,4,4,4,4,4,4,4,4,100,,,,,,,,,,,,,,,,,4,0,0.72781,-0.420959,-0.501526,-0.203857,0.89757,-0.401416,0.148456,-23.469202,2.069815,83.222641,,,,,,,,,,,,,,,,,,,,,,,,,,,,,,,,,,,,,,,,,,,,,,,,,,,,,,,,,,,,,,,,,,,,,,,,,,,,,,,,,,,,,,,,,,,,,,,,,,,,,,,,,,
1702547747,1702547748,17,0,4050.641113,4264.743652,4041.153809,4068.461426,3992.179443,4228.589844,4061.281982,4092.692383,3970.897461,3982.94873,4164.615234,4297.820313,4091.666748,4085,0,3,69,,,,0,4,4,4,4,4,4,4,4,4,4,4,4,4,4,100,,,,,,,,,,,,,,,,,,,,,,,,,,,,,,,,,,,,,,,,,,,,,,,,,,,,,,,,,,,,,,,,,,,,,,,,,,,,,,,,,,,,,,,,,,,,,,,,,,,,,,,,,,,,,,,,,,,,,,,,,,,,,,,,,,,,,,
1702547747,1702547748,18,0,4056.281982,4264.487305,4043.461426,4068.461426,4032.179443,4233.205078,4061.281982,4097.307617,3982.820557,4031.153809,4170.641113,4300.897461,4101.282227,4092.820557,0,3,69,,,,0,4,4,4,4,4,4,4,4,4,4,4,4,4,4,100,,,,,,,,,,,,,,,,,,,,,,,,,,,,,,,,,,,,,,,,,,,,,,,,,,,,,,,,,,,,,,,,,,,,,,,,,,,,,,,,,,,,,,,,,,,,,,,,,,,,,,,,,,,,,,,,,,,,,,,,,,,,,,,,,,,,,,
1702547747,1702547748,19,0,4079.487061,4280.769043,4067.179443,4094.230713,4079.871826,4249.871582,4076.153809,4113.333496,4008.974365,4055.256348,4197.820313,4309.230957,4126.025879,4124.358887,0,3,69,,,,0,4,4,4,4,4,4,4,4,4,4,4,4,4,4,100,,,,,,,,,,,,,,,,,,,,,,,,,,,,,,,,,,,,,,,,,,,,,,,,,,,,,,,,,,,,,,,,,,,,,,,,,,,,,,,,,,,,,,,,,,,,,,,,,,,,,,,,,,,,,,,,,,,,,,,,,,,,,,,,,,,,,,
1702547747,1702547748,20,0,4071.281982,4268.974121,4060,4085.384521,4034.358887,4260.384766,4075.384521,4106.153809,3995.128174,4016.923096,4184.358887,4301.666504,4111.922852,4116.153809,0,3,69,,,,0,4,4,4,4,4,4,4,4,4,4,4,4,4,4,100,,,,,,,,,,,,,,,,,5,0,0.727963,-0.421265,-0.501221,-0.20343,0.889757,-0.40044,0.144061,-23.555616,2.1295,83.233711,,,,,,,,,,,,,,,,,,,,,,,,,,,,,,,,,,,,,,,,,,,,,,,,,,,,,,,,,,,,,,,,,,,,,,,,,,,,,,,,,,,,,,,,,,,,,,,,,,,,,,,,,,
1702547747,1702547748,21,0,4067.820557,4273.846191,4054.487061,4079.358887,4019.487061,4272.436035,4075.641113,4101.666504,3992.94873,4017.94873,4177.820313,4298.461426,4108.717773,4110.256348,0,3,69,,,,0,4,4,4,4,4,4,4,4,4,4,4,4,4,4,100,,,,,,,,,,,,,,,,,,,,,,,,,,,,,,,,,,,,,,,,,,,,,,,,,,,,,,,,,,,,,,,,,,,,,,,,,,,,,,,,,,,,,,,,,,,,,,,,,,,,,,,,,,,,,,,,,,,,,,,,,,,,,,,,,,,,,,
1702547747,1702547748,22,0,4097.05127,4316.410156,4084.230713,4111.794922,4078.333252,4299.871582,4096.666504,4120.256348,4033.205078,4052.05127,4211.922852,4312.05127,4137.820313,4143.333496,0,3,69,,,,0,4,4,4,4,4,4,4,4,4,4,4,4,4,4,100,,,,,,,,,,,,,,,,,,,,,,,,,,,,,,,,,,,,,,,,,,,,,,,,,,,,,,,,,,,,,,,,,,,,,,,,,,,,,,,,,,,,,,,,,,,,,,,,,,,,,,,,,,,,,,,,,,,,,,,,,,,,,,,,,,,,,,
1702547747,1702547748,23,0,4087.435791,4311.794922,4078.076904,4103.589844,4052.05127,4292.820313,4084.230713,4109.487305,4022.179443,4006.666748,4190.384766,4305.641113,4115.384766,4130.897461,0,3,69,,,,0,4,4,4,4,4,4,4,4,4,4,4,4,4,4,100,,,,,,,,,,,,,,,,,,,,,,,,,,,,,,,,,,,,,,,,,,,,,,,,,,,,,,,,,,,,,,,,,,,,,,,,,,,,,,,,,,,,,,,,,,,,,,,,,,,,,,,,,,,,,,,,,,,,,,,,,,,,,,,,,,,,,,
1702547747,1702547748,24,0,4046.923096,4283.205078,4035,4063.718018,3967.564209,4256.794922,4045.128174,4077.692383,3970.769287,3969.358887,4125.384766,4285.641113,4064.743652,4078.205078,0,3,69,,,,0,4,4,4,4,4,4,4,4,4,4,4,4,4,4,100,,,,,,,,,,,,,,,,,6,0,0.728108,-0.42157,-0.500977,-0.202881,0.890245,-0.409718,0.149921,-23.733387,2.233217,83.210342,,,,,,,,,,,,,,,,,,,,,,,,,,,,,,,,,,,,,,,,,,,,,,,,,,,,,,,,,,,,,,,,,,,,,,,,,,,,,,,,,,,,,,,,,,,,,,,,,,,,,,,,,,
1702547747,1702547748,25,0,4065.641113,4312.436035,4049.487061,4084.871826,3995,4272.179688,4056.025635,4088.461426,3988.205078,4027.307617,4143.974121,4292.307617,4077.820557,4100.512695,0,3,69,,,,0,4,4,4,4,4,4,4,4,4,4,4,4,4,4,100,,,,,,,,,,,,,,,,,,,,,,,,,,,,,,,,,,,,,,,,,,,,,,,,,,,,,,,,,,,,,,,,,,,,,,,,,,,,,,,,,,,,,,,,,,,,,,,,,,,,,,,,,,,,,,,,,,,,,,,,,,,,,,,,,,,,,,
1702547747,1702547748,26,0,4105.641113,4335.256348,4093.846191,4120.384766,4088.846191,4312.05127,4089.358887,4116.666504,4038.333252,4052.94873,4199.102539,4310.769043,4100.256348,4160.512695,0,3,69,,,,0,4,4,4,4,4,4,4,4,4,4,4,4,4,4,100,,,,,,,,,,,,,,,,,,,,,,,,,,,,,,,,,,,,,,,,,,,,,,,,,,,,,,,,,,,,,,,,,,,,,,,,,,,,,,,,,,,,,,,,,,,,,,,,,,,,,,,,,,,,,,,,,,,,,,,,,,,,,,,,,,,,,,
1702547747,1702547748,27,0,4089.871826,4305.897461,4085.128174,4102.820313,4088.718018,4292.436035,4084.358887,4109.487305,4032.179443,4027.820557,4180.128418,4305.384766,4065.128174,4155,0,3,69,,,,0,4,4,4,4,4,4,4,4,4,4,4,4,4,4,100,,,,,,,,,,,,,,,,,,,,,,,,,,,,,,,,,,,,,,,,,,,,,,,,,,,,,,,,,,,,,,,,,,,,,,,,,,,,,,,,,,,,,,,,,,,,,,,,,,,,,,,,,,,,,,,,,,,,,,,,,,,,,,,,,,,,,,
1702547747,1702547748,28,0,4061.025635,4290.256348,4056.410156,4082.564209,4027.307617,4246.282227,4068.718018,4091.153809,4004.871826,4047.179443,4143.717773,4292.692383,4035.769287,4122.307617,0,3,69,,,,0,4,4,4,4,4,4,4,4,4,4,4,4,4,4,100,,,,,,,,,,,,,,,,,7,0,0.728316,-0.421631,-0.500671,-0.202759,0.89464,-0.406788,0.158222,-23.626715,2.193229,83.339302,,,,,,,,,,,,,,,,,,,,,,,,,,,,,,,,,,,,,,,,,,,,,,,,,,,,,,,,,,,,,,,,,,,,,,,,,,,,,,,,,,,,,,,,,,,,,,,,,,,,,,,,,,
1702547747,1702547748,29,0,4065.256348,4292.563965,4059.102539,4087.179443,4027.564209,4240.512695,4071.538574,4092.692383,4006.538574,4042.94873,4150.769043,4296.794922,4044.358887,4125.384766,0,3,69,,,,0,4,4,4,4,4,4,4,4,4,4,4,4,4,4,100,,,,,,,,,,,,,,,,,,,,,,,,,,,,,,,,,,,,,,,,,,,,,,,,,,,,,,,,,,,,,,,,,,,,,,,,,,,,,,,,,,,,,,,,,,,,,,,,,,,,,,,,,,,,,,,,,,,,,,,,,,,,,,,,,,,,,,
1702547747,1702547748,30,0,4065.256348,4277.692383,4061.025635,4073.589844,4058.333252,4251.410156,4066.153809,4091.794922,4005.384521,3990.384521,4147.94873,4295.512695,4035.128174,4131.153809,0,3,69,,,,0,4,4,4,4,4,4,4,4,4,4,4,4,4,4,100,1,0,1,1,0,0,0,0,0,1,1,1,0,3,0,1,,,,,,,,,,,,,,,,,,,,,,,,,,,,,,,,,,,,,,,,,,,,,,,,,10.364538,6.267591,4.686557,2.181946,2.303904,9.555467,4.932592,4.31147,1.651229,1.728374,10.929455,5.921204,4.087216,2.267841,2.524496,11.807008,7.492162,4.903857,1.78813,2.592139,7.864538,9.776133,10.614945,5.093719,5.223067,449.462799,71.365814,14.983276,6.523372,1.919839,3.999159,3.892796,2.076378,1.484998,1.362734,2.518062,2.378154,1.106778,1.11794,1.195,11.659951,5.229801,2.848369,2.21827,2.305637,8.445739,9.600897,6.114724,5.773062,5.517374,27.606749,10.269739,6.727539,3.285554,3.387296,1.053282,0.989476,0.642601,0.418605,0.390738,24.420408,11.40272,7.058084,2.630631,2.669541,14.631327,7.344636,6.169475,3.002283,3.023112
1702547747,1702547748,31,0,4063.333252,4279.230957,4061.025635,4064.743652,4036.923096,4251.922852,4060,4089.487061,4004.230713,4012.820557,4137.05127,4291.538574,4024.230713,4130.897461,0,3,69,,,,0,4,4,4,4,4,4,4,4,4,4,4,4,4,4,100,,,,,,,,,,,,,,,,,,,,,,,,,,,,,,,,,,,,,,,,,,,,,,,,,,,,,,,,,,,,,,,,,,,,,,,,,,,,,,,,,,,,,,,,,,,,,,,,,,,,,,,,,,,,,,,,,,,,,,,,,,,,,,,,,,,,,,
1702547747,1702547748,32,0,4077.179443,4296.282227,4074.102539,4085.641113,4026.281982,4257.94873,4068.461426,4095.128174,4017.692383,4061.538574,4148.846191,4297.307617,4037.05127,4140.384766,0,3,69,,,,0,4,4,4,4,4,4,4,4,4,4,4,4,4,4,100,,,,,,,,,,,,,,,,,8,0,0.728565,-0.421753,-0.500305,-0.202515,0.889757,-0.394579,0.157734,-23.564043,2.107239,83.288712,,,,,,,,,,,,,,,,,,,,,,,,,,,,,,,,,,,,,,,,,,,,,,,,,,,,,,,,,,,,,,,,,,,,,,,,,,,,,,,,,,,,,,,,,,,,,,,,,,,,,,,,,,
1702547747,1702547748,33,0,4076.794922,4285.769043,4071.923096,4087.435791,4073.461426,4273.461426,4072.820557,4096.794922,4012.307617,4026.794922,4153.077148,4298.717773,4038.205078,4135.256348,0,3,69,,,,0,4,4,4,4,4,4,4,4,4,4,4,4,4,4,100,,,,,,,,,,,,,,,,,,,,,,,,,,,,,,,,,,,,,,,,,,,,,,,,,,,,,,,,,,,,,,,,,,,,,,,,,,,,,,,,,,,,,,,,,,,,,,,,,,,,,,,,,,,,,,,,,,,,,,,,,,,,,,,,,,,,,,
1702547747,1702547748,34,0,4072.820557,4282.692383,4063.333252,4078.461426,4059.102539,4293.077148,4078.076904,4104.358887,4009.487061,4012.820557,4154.230957,4296.538574,4044.230713,4131.922852,0,3,69,,,,0,4,4,4,4,4,4,4,4,4,4,4,4,4,4,100,,,,,,,,,,,,,,,,,,,,,,,,,,,,,,,,,,,,,,,,,,,,,,,,,,,,,,,,,,,,,,,,,,,,,,,,,,,,,,,,,,,,,,,,,,,,,,,,,,,,,,,,,,,,,,,,,,,,,,,,,,,,,,,,,,,,,,
1702547747,1702547748,35,0,4076.281982,4297.436035,4062.435791,4083.589844,3987.820557,4297.307617,4082.692383,4110.897461,4022.820557,4059.743652,4156.410156,4294.743652,4062.435791,4137.94873,0,3,69,,,,0,4,4,4,4,4,4,4,4,4,4,4,4,4,4,100,,,,,,,,,,,,,,,,,,,,,,,,,,,,,,,,,,,,,,,,,,,,,,,,,,,,,,,,,,,,,,,,,,,,,,,,,,,,,,,,,,,,,,,,,,,,,,,,,,,,,,,,,,,,,,,,,,,,,,,,,,,,,,,,,,,,,,
1702547747,1702547748,36,0,4066.538574,4287.307617,4052.05127,4073.974365,4029.871826,4291.666504,4075.641113,4098.205078,4012.179443,4047.564209,4137.563965,4292.307617,4056.666748,4124.743652,0,3,69,,,,0,4,4,4,4,4,4,4,4,4,4,4,4,4,4,100,,,,,,,,,,,,,,,,,9,0,0.728705,-0.421875,-0.500122,-0.202209,0.88878,-0.392626,0.140154,-23.80764,2.113182,83.35984,,,,,,,,,,,,,,,,,,,,,,,,,,,,,,,,,,,,,,,,,,,,,,,,,,,,,,,,,,,,,,,,,,,,,,,,,,,,,,,,,,,,,,,,,,,,,,,,,,,,,,,,,,
1702547747,1702547748,37,0,4056.281982,4275,4043.846191,4058.718018,4100.897461,4295.512695,4069.615479,4084.230713,3985.769287,4007.179443,4118.333496,4288.589844,4038.846191,4106.922852,0,3,69,,,,0,4,4,4,4,4,4,4,4,4,4,4,4,4,4,100,,,,,,,,,,,,,,,,,,,,,,,,,,,,,,,,,,,,,,,,,,,,,,,,,,,,,,,,,,,,,,,,,,,,,,,,,,,,,,,,,,,,,,,,,,,,,,,,,,,,,,,,,,,,,,,,,,,,,,,,,,,,,,,,,,,,,,
1702547747,1702547748,38,0,4049.743652,4272.179688,4042.435791,4056.923096,4037.435791,4291.538574,4064.743652,4081.666748,3973.076904,4027.307617,4110.256348,4283.589844,4029.743652,4099.487305,0,3,69,,,,0,4,4,4,4,4,4,4,4,4,4,4,4,4,4,100,,,,,,,,,,,,,,,,,,,,,,,,,,,,,,,,,,,,,,,,,,,,,,,,,,,,,,,,,,,,,,,,,,,,,,,,,,,,,,,,,,,,,,,,,,,,,,,,,,,,,,,,,,,,,,,,,,,,,,,,,,,,,,,,,,,,,,
1702547747,1702547748,39,0,4027.05127,4249.230957,4023.589844,4038.589844,3989.487061,4275.769043,4049.358887,4075,3959.615479,4031.025635,4088.589844,4278.589844,4018.846191,4081.153809,0,3,69,,,,0,4,4,4,4,4,4,4,4,4,4,4,4,4,4,100,,,,,,,,,,,,,,,,,,,,,,,,,,,,,,,,,,,,,,,,,,,,,,,,,,,,,,,,,,,,,,,,,,,,,,,,,,,,,,,,,,,,,,,,,,,,,,,,,,,,,,,,,,,,,,,,,,,,,,,,,,,,,,,,,,,,,,
1702547747,1702547748,40,0,4016.923096,4237.692383,4016.025635,4026.281982,4053.461426,4285.769043,4052.05127,4076.666748,3952.307617,3999.230713,4080.512939,4281.025879,4022.692383,4070.128174,0,3,69,,,,0,4,4,4,4,4,4,4,4,4,4,4,4,4,4,100,,,,,,,,,,,,,,,,,10,0,0.728767,-0.422058,-0.5,-0.201904,0.881944,-0.400928,0.145526,-23.810209,2.085197,83.423851,,,,,,,,,,,,,,,,,,,,,,,,,,,,,,,,,,,,,,,,,,,,,,,,,,,,,,,,,,,,,,,,,,,,,,,,,,,,,,,,,,,,,,,,,,,,,,,,,,,,,,,,,,
1702547747,1702547748,41,0,4027.564209,4249.230957,4026.410156,4041.153809,4067.820557,4304.102539,4067.179443,4083.205078,3955.256348,4008.846191,4088.076904,4282.820313,4030.641113,4077.05127,0,3,69,,,,0,4,4,4,4,4,4,4,4,4,4,4,4,4,4,100,,,,,,,,,,,,,,,,,,,,,,,,,,,,,,,,,,,,,,,,,,,,,,,,,,,,,,,,,,,,,,,,,,,,,,,,,,,,,,,,,,,,,,,,,,,,,,,,,,,,,,,,,,,,,,,,,,,,,,,,,,,,,,,,,,,,,,
1702547747,1702547748,42,0,4028.076904,4247.179688,4024.871826,4044.358887,4015.128174,4298.974121,4061.281982,4080.128174,3954.230713,4026.538574,4081.153809,4279.358887,4021.794922,4077.692383,0,3,69,,,,0,4,4,4,4,4,4,4,4,4,4,4,4,4,4,100,,,,,,,,,,,,,,,,,,,,,,,,,,,,,,,,,,,,,,,,,,,,,,,,,,,,,,,,,,,,,,,,,,,,,,,,,,,,,,,,,,,,,,,,,,,,,,,,,,,,,,,,,,,,,,,,,,,,,,,,,,,,,,,,,,,,,,
1702547747,1702547748,43,0,4043.461426,4259.102539,4039.487061,4053.076904,4021.538574,4306.666504,4067.94873,4089.615479,3970.256348,4020.512939,4097.563965,4285.769043,4037.307617,4097.820313,0,3,69,,,,0,4,4,4,4,4,4,4,4,4,4,4,4,4,4,100,,,,,,,,,,,,,,,,,,,,,,,,,,,,,,,,,,,,,,,,,,,,,,,,,,,,,,,,,,,,,,,,,,,,,,,,,,,,,,,,,,,,,,,,,,,,,,,,,,,,,,,,,,,,,,,,,,,,,,,,,,,,,,,,,,,,,,
1702547747,1702547748,44,0,4068.076904,4282.436035,4061.794922,4073.076904,4040.897461,4326.410156,4088.589844,4098.461426,3986.025635,4037.820557,4127.692383,4293.077148,4058.718018,4124.743652,0,3,69,,,,0,4,4,4,4,4,4,4,4,4,4,4,4,4,4,100,,,,,,,,,,,,,,,,,11,0,0.729028,-0.422302,-0.499512,-0.20166,0.898059,-0.41802,0.142596,-23.879189,1.910011,83.598137,,,,,,,,,,,,,,,,,,,,,,,,,,,,,,,,,,,,,,,,,,,,,,,,,,,,,,,,,,,,,,,,,,,,,,,,,,,,,,,,,,,,,,,,,,,,,,,,,,,,,,,,,,
1702547747,1702547748,45,0,4061.666748,4274.230957,4049.615479,4071.153809,4005.641113,4326.153809,4087.435791,4089.487061,3979.230713,4057.307617,4122.94873,4289.871582,4045,4117.436035,0,3,69,,,,0,4,4,4,4,4,4,4,4,4,4,4,4,4,4,100,,,,,,,,,,,,,,,,,,,,,,,,,,,,,,,,,,,,,,,,,,,,,,,,,,,,,,,,,,,,,,,,,,,,,,,,,,,,,,,,,,,,,,,,,,,,,,,,,,,,,,,,,,,,,,,,,,,,,,,,,,,,,,,,,,,,,,
1702547747,1702547748,46,0,4048.846191,4261.153809,4030.512939,4061.410156,4006.410156,4317.436035,4075,4083.718018,3974.743652,4035.641113,4111.153809,4285.128418,4029.743652,4104.102539,0,3,69,,,,0,4,4,4,4,4,4,4,4,4,4,4,4,4,4,100,,,,,,,,,,,,,,,,,,,,,,,,,,,,,,,,,,,,,,,,,,,,,,,,,,,,,,,,,,,,,,,,,7.533141,6.29495,5.174069,2.063584,2.143698,7.305789,5.36864,5.300546,1.625849,1.756559,7.569974,5.974119,4.657428,2.058518,2.332217,9.010031,7.622031,5.409043,1.734803,2.435561,5.395502,9.142349,10.93248,5.674828,5.838153,434.606445,64.959099,14.189958,5.539395,1.867283,2.212872,3.961754,2.26256,1.356,1.303298,1.36863,2.357253,1.229991,1.014793,1.121597,8.318207,5.594484,3.204385,1.89636,2.220986,5.425358,9.427243,8.074708,5.359432,6.0875,23.66086,10.473811,7.458569,3.098291,3.236421,0.726449,0.901951,0.660705,0.38958,0.383503,24.713097,12.813738,7.777411,2.403681,2.55267,8.438721,7.236619,6.443861,2.835989,2.854275
1702547747,1702547748,47,0,4054.102539,4264.615234,4034.358887,4064.358887,4063.076904,4316.410156,4070.384521,4082.692383,3972.05127,4026.410156,4115.769043,4284.615234,4038.718018,4110,0,3,69,,,,0,4,4,4,4,4,4,4,4,4,4,4,4,4,4,100,,,,,,,,,,,,,,,,,,,,,,,,,,,,,,,,,,,,,,,,,,,,,,,,,,,,,,,,,,,,,,,,,,,,,,,,,,,,,,,,,,,,,,,,,,,,,,,,,,,,,,,,,,,,,,,,,,,,,,,,,,,,,,,,,,,,,,
1702547747,1702547748,48,0,4047.179443,4253.846191,4029.358887,4055.897461,4071.794922,4318.333496,4062.820557,4073.589844,3958.974365,4035.769287,4114.487305,4282.05127,4041.794922,4102.05127,0,3,69,,,,0,4,4,4,4,4,4,4,4,4,4,4,4,4,4,100,,,,,,,,,,,,,,,,,12,0,0.729083,-0.422424,-0.499329,-0.20166,0.889269,-0.41216,0.150409,-23.99127,1.86901,83.538322,,,,,,,,,,,,,,,,,,,,,,,,,,,,,,,,,,,,,,,,,,,,,,,,,,,,,,,,,,,,,,,,,,,,,,,,,,,,,,,,,,,,,,,,,,,,,,,,,,,,,,,,,,
1702547747,1702547748,49,0,4022.179443,4233.974121,4002.820557,4035.769287,4020.769287,4313.974121,4051.923096,4066.666748,3951.923096,4020.128174,4118.205078,4274.102539,4023.718018,4078.333252,0,3,69,,,,0,4,4,4,4,4,4,4,4,4,4,4,4,4,4,100,,,,,,,,,,,,,,,,,,,,,,,,,,,,,,,,,,,,,,,,,,,,,,,,,,,,,,,,,,,,,,,,,,,,,,,,,,,,,,,,,,,,,,,,,,,,,,,,,,,,,,,,,,,,,,,,,,,,,,,,,,,,,,,,,,,,,,
1702547747,1702547748,50,0,4012.564209,4224.487305,3987.435791,4028.846191,4001.538574,4306.794922,4050.641113,4068.589844,3953.589844,4021.153809,4046.794922,4268.461426,4013.974365,4071.281982,0,3,69,,,,0,4,4,4,4,4,4,4,4,4,4,4,4,4,4,100,,,,,,,,,,,,,,,,,,,,,,,,,,,,,,,,,,,,,,,,,,,,,,,,,,,,,,,,,,,,,,,,,,,,,,,,,,,,,,,,,,,,,,,,,,,,,,,,,,,,,,,,,,,,,,,,,,,,,,,,,,,,,,,,,,,,,,
1702547747,1702547748,51,0,4022.820557,4221.282227,3994.358887,4032.564209,4028.333252,4311.410156,4059.615479,4069.487061,3947.94873,4015.897461,3852.820557,4270.512695,4021.666748,4076.025635,0,3,69,,,,0,4,4,4,4,4,4,4,4,4,4,4,4,4,4,100,,,,,,,,,,,,,,,,,,,,,,,,,,,,,,,,,,,,,,,,,,,,,,,,,,,,,,,,,,,,,,,,,,,,,,,,,,,,,,,,,,,,,,,,,,,,,,,,,,,,,,,,,,,,,,,,,,,,,,,,,,,,,,,,,,,,,,
1702547747,1702547748,52,0,4015.384521,4216.666504,3990.897461,4025.384521,4021.666748,4319.358887,4059.102539,4060,3930.897461,3966.153809,3554.615479,4269.102539,4012.94873,4062.820557,0,3,69,,,,0,4,4,4,4,4,4,4,4,4,4,4,4,4,4,100,,,,,,,,,,,,,,,,,13,0,0.729141,-0.422668,-0.498962,-0.201843,0.892199,-0.414601,0.159687,-24.008808,1.748775,83.567825,,,,,,,,,,,,,,,,,,,,,,,,,,,,,,,,,,,,,,,,,,,,,,,,,,,,,,,,,,,,,,,,,,,,,,,,,,,,,,,,,,,,,,,,,,,,,,,,,,,,,,,,,,
1702547748,1702547748,53,0,3993.846191,4209.358887,3970.769287,4011.794922,3978.718018,4309.871582,4041.923096,4048.974365,3918.718018,3958.974365,2857.820557,4261.538574,3993.974365,4036.666748,0,3,69,,,,0,4,4,4,4,4,4,4,4,4,4,4,4,4,4,100,,,,,,,,,,,,,,,,,,,,,,,,,,,,,,,,,,,,,,,,,,,,,,,,,,,,,,,,,,,,,,,,,,,,,,,,,,,,,,,,,,,,,,,,,,,,,,,,,,,,,,,,,,,,,,,,,,,,,,,,,,,,,,,,,,,,,,
1702547748,1702547748,54,0,4015.769287,4221.794922,3986.410156,4033.974365,3985.128174,4313.461426,4052.564209,4065,3942.564209,4033.589844,1781.794922,4270.128418,4021.153809,4044.102539,0,3,69,,,,0,4,4,4,4,4,4,4,4,4,4,4,4,4,4,100,,,,,,,,,,,,,,,,,,,,,,,,,,,,,,,,,,,,,,,,,,,,,,,,,,,,,,,,,,,,,,,,,,,,,,,,,,,,,,,,,,,,,,,,,,,,,,,,,,,,,,,,,,,,,,,,,,,,,,,,,,,,,,,,,,,,,,
1702547748,1702547748,55,0,4055.256348,4245.256348,4022.05127,4067.05127,4041.794922,4340,4079.487061,4082.820557,3970.641113,4078.333252,1025.897461,4283.333496,4060.897461,4061.410156,0,3,69,,,,0,4,4,4,4,4,4,4,4,4,4,4,4,4,4,100,,,,,,,,,,,,,,,,,,,,,,,,,,,,,,,,,,,,,,,,,,,,,,,,,,,,,,,,,,,,,,,,,,,,,,,,,,,,,,,,,,,,,,,,,,,,,,,,,,,,,,,,,,,,,,,,,,,,,,,,,,,,,,,,,,,,,,
1702547748,1702547748,56,0,4051.281982,4238.846191,4021.794922,4063.205078,4059.743652,4348.589844,4076.538574,4072.307617,3963.461426,4031.025635,849.871765,4280.897461,4059.358887,4038.846191,0,3,69,,,,0,4,4,4,4,4,4,4,4,4,4,4,4,4,4,100,,,,,,,,,,,,,,,,,14,0,0.72912,-0.422791,-0.49884,-0.201965,0.882432,-0.413625,0.151874,-24.024595,1.690565,83.477707,,,,,,,,,,,,,,,,,,,,,,,,,,,,,,,,,,,,,,,,,,,,,,,,,,,,,,,,,,,,,,,,,,,,,,,,,,,,,,,,,,,,,,,,,,,,,,,,,,,,,,,,,,
1702547748,1702547748,57,0,4032.435791,4218.205078,4007.820557,4047.307617,4032.05127,4338.205078,4063.076904,4062.94873,3951.794922,3996.281982,812.179504,4273.974121,4051.666748,4005.641113,0,3,69,,,,0,4,4,4,4,4,4,4,4,4,4,4,4,4,4,100,,,,,,,,,,,,,,,,,,,,,,,,,,,,,,,,,,,,,,,,,,,,,,,,,,,,,,,,,,,,,,,,,,,,,,,,,,,,,,,,,,,,,,,,,,,,,,,,,,,,,,,,,,,,,,,,,,,,,,,,,,,,,,,,,,,,,,
1702547748,1702547748,58,0,4029.743652,4214.743652,4004.871826,4044.230713,4016.025635,4329.871582,4056.410156,4063.076904,3948.846191,4007.94873,749.615356,4268.333496,4052.435791,3988.589844,0,3,69,,,,0,4,4,4,4,4,4,4,4,4,4,4,4,4,4,100,,,,,,,,,,,,,,,,,,,,,,,,,,,,,,,,,,,,,,,,,,,,,,,,,,,,,,,,,,,,,,,,,,,,,,,,,,,,,,,,,,,,,,,,,,,,,,,,,,,,,,,,,,,,,,,,,,,,,,,,,,,,,,,,,,,,,,
1702547748,1702547748,59,0,4029.358887,4208.589844,4002.692383,4044.615479,4007.179443,4324.615234,4050.128174,4059.871826,3943.333252,4005.384521,780.512817,4268.077148,4049.230713,3975.897461,0,3,69,,,,0,4,4,4,4,4,4,4,4,4,4,4,4,4,4,100,,,,,,,,,,,,,,,,,,,,,,,,,,,,,,,,,,,,,,,,,,,,,,,,,,,,,,,,,,,,,,,,,,,,,,,,,,,,,,,,,,,,,,,,,,,,,,,,,,,,,,,,,,,,,,,,,,,,,,,,,,,,,,,,,,,,,,
1702547748,1702547748,60,0,4030.128174,4192.692383,4006.281982,4043.589844,3985.897461,4325.256348,4049.615479,4057.820557,3943.205078,4004.230713,819.487183,4271.666504,4054.871826,3965.256348,0,3,69,,,,0,4,4,4,4,4,4,4,4,4,4,4,4,4,4,100,,,,,,,,,,,,,,,,,15,0,0.729175,-0.422913,-0.498657,-0.201965,0.894152,-0.418996,0.149921,-23.972136,1.654841,83.463272,,,,,,,,,,,,,,,,,,,,,,,,,,,,,,,,,,,,,,,,,,,,,,,,,,,,,,,,,,,,,,,,,,,,,,,,,,,,,,,,,,,,,,,,,,,,,,,,,,,,,,,,,,
1702547748,1702547748,61,0,4023.333252,4182.05127,4002.564209,4032.692383,3966.666748,4323.205078,4045.897461,4052.564209,3934.871826,4003.974365,825.512817,4267.692383,4051.794922,3947.307617,0,3,69,,,,0,4,4,4,4,4,4,4,4,4,4,4,4,4,4,100,,,,,,,,,,,,,,,,,,,,,,,,,,,,,,,,,,,,,,,,,,,,,,,,,,,,,,,,,,,,,,,,,,,,,,,,,,,,,,,,,,,,,,,,,,,,,,,,,,,,,,,,,,,,,,,,,,,,,,,,,,,,,,,,,,,,,,
1702547748,1702547748,62,0,4007.435791,4165.769043,3987.820557,4013.589844,3976.538574,4312.820313,4038.846191,4047.564209,3919.102539,3978.205078,833.461548,4258.974121,4029.358887,3923.718018,0,3,69,,,,0,4,4,4,4,4,4,4,4,4,4,4,4,4,4,100,,,,,,,,,,,,,,,,,,,,,,,,,,,,,,,,,,,,,,,,,,,,,,,,,,,,,,,,,,,,,,,,,5.936959,6.309313,5.738497,1.877092,1.948444,5.533689,5.866852,6.340679,1.602031,1.788723,6.06394,6.143692,5.165114,1.822106,2.047045,6.566996,7.576765,5.852138,1.65533,2.209308,4.252711,8.141963,10.741868,6.38094,6.618184,380.025146,55.72897,13.056599,4.477505,1.723179,1.278865,4.078118,2.499221,1.204425,1.205772,0.747139,2.291685,1.410076,0.898147,1.014552,8.011761,6.396378,3.670847,1.623447,2.076639,4.538476,9.111922,9.917234,5.110755,6.421989,20.815142,11.07796,8.160097,2.978078,3.050444,0.511879,0.853111,0.694273,0.354661,0.362056,32.008728,14.609697,8.341474,2.17884,2.425534,5.33045,7.385128,6.587687,2.578682,2.650162
1702547748,1702547748,63,0,4020.897461,4165.641113,3998.846191,4020.512939,4022.564209,4315.128418,4055,4058.974365,3930.256348,3975,834.230774,4265,4037.820557,3936.153809,0,3,69,,,,0,4,4,4,4,4,4,4,4,4,4,4,4,4,4,100,,,,,,,,,,,,,,,,,,,,,,,,,,,,,,,,,,,,,,,,,,,,,,,,,,,,,,,,,,,,,,,,,,,,,,,,,,,,,,,,,,,,,,,,,,,,,,,,,,,,,,,,,,,,,,,,,,,,,,,,,,,,,,,,,,,,,,
1702547748,1702547748,64,0,4036.794922,4180.512695,4014.230713,4032.307617,4058.333252,4324.743652,4065.256348,4062.820557,3945.641113,4001.410156,835,4273.461426,4056.794922,3948.461426,5500,3,69,,,,0,4,4,4,4,4,4,4,4,4,4,4,4,4,4,100,,,,,,,,,,,,,,,,,16,0,0.729306,-0.422974,-0.498413,-0.201965,0.886827,-0.415578,0.157246,-24.041588,1.539357,83.400276,,,,,,,,,,,,,,,,,,,,,,,,,,,,,,,,,,,,,,,,,,,,,,,,,,,,,,,,,,,,,,,,,,,,,,,,,,,,,,,,,,,,,,,,,,,,,,,,,,,,,,,,,,
1702547748,1702547748,65,0,4024.102539,4175.256348,4001.794922,4022.435791,4015.512939,4319.871582,4051.281982,4051.666748,3932.692383,3974.615479,833.84613,4266.410156,4044.871826,3926.281982,5681,3,69,,,,0,4,4,4,4,4,4,4,4,4,4,4,4,4,4,100,,,,,,,,,,,,,,,,,,,,,,,,,,,,,,,,,,,,,,,,,,,,,,,,,,,,,,,,,,,,,,,,,,,,,,,,,,,,,,,,,,,,,,,,,,,,,,,,,,,,,,,,,,,,,,,,,,,,,,,,,,,,,,,,,,,,,,
1702547748,1702547748,66,0,4032.435791,4173.077148,4001.281982,4026.281982,3968.076904,4318.205078,4054.487061,4054.871826,3926.923096,3940.641113,833.717957,4264.487305,4046.794922,3925.641113,5597,3,69,,,,0,4,4,4,4,4,4,4,4,4,4,4,4,4,4,100,,,,,,,,,,,,,,,,,,,,,,,,,,,,,,,,,,,,,,,,,,,,,,,,,,,,,,,,,,,,,,,,,,,,,,,,,,,,,,,,,,,,,,,,,,,,,,,,,,,,,,,,,,,,,,,,,,,,,,,,,,,,,,,,,,,,,,
1702547748,1702547748,67,0,4048.589844,4190.769043,4010.769287,4037.05127,4009.871826,4330,4063.076904,4056.923096,3931.281982,3960.897461,834.102539,4267.94873,4058.076904,3937.692383,5485,3,69,,,,0,4,4,4,4,4,4,4,4,4,4,4,4,4,4,100,,,,,,,,,,,,,,,,,,,,,,,,,,,,,,,,,,,,,,,,,,,,,,,,,,,,,,,,,,,,,,,,,,,,,,,,,,,,,,,,,,,,,,,,,,,,,,,,,,,,,,,,,,,,,,,,,,,,,,,,,,,,,,,,,,,,,,
1702547748,1702547748,68,0,4026.923096,4186.538574,3991.153809,4019.871826,4036.538574,4326.666504,4045.128174,4040.641113,3914.743652,3949.102539,831.923096,4259.743652,4036.538574,3912.94873,5484,3,69,,,,0,4,4,4,4,4,4,4,4,4,4,4,4,4,4,100,,,,,,,,,,,,,,,,,17,0,0.729396,-0.423035,-0.49823,-0.201965,0.897082,-0.403858,0.152362,-24.087429,1.535421,83.610245,,,,,,,,,,,,,,,,,,,,,,,,,,,,,,,,,,,,,,,,,,,,,,,,,,,,,,,,,,,,,,,,,,,,,,,,,,,,,,,,,,,,,,,,,,,,,,,,,,,,,,,,,,
1702547748,1702547748,69,0,4015.769287,4165.512695,3981.923096,4008.333252,4000.256348,4317.94873,4040.512939,4040.256348,3912.05127,3925.512939,832.307678,4253.846191,4025.512939,3900.897461,5091,3,69,,,,0,4,4,4,4,4,4,4,4,4,4,4,4,4,4,100,,,,,,,,,,,,,,,,,,,,,,,,,,,,,,,,,,,,,,,,,,,,,,,,,,,,,,,,,,,,,,,,,,,,,,,,,,,,,,,,,,,,,,,,,,,,,,,,,,,,,,,,,,,,,,,,,,,,,,,,,,,,,,,,,,,,,,
1702547748,1702547748,70,0,4048.076904,4177.94873,4012.820557,4033.846191,4023.974365,4335.897461,4071.794922,4063.846191,3943.461426,3951.410156,841.923096,4265.897461,4051.794922,3937.820557,4826,3,69,,,,0,4,4,4,4,4,4,4,4,4,4,4,4,4,4,100,,,,,,,,,,,,,,,,,,,,,,,,,,,,,,,,,,,,,,,,,,,,,,,,,,,,,,,,,,,,,,,,,,,,,,,,,,,,,,,,,,,,,,,,,,,,,,,,,,,,,,,,,,,,,,,,,,,,,,,,,,,,,,,,,,,,,,
1702547748,1702547748,71,0,4073.333252,4208.974121,4037.307617,4053.333252,4079.230713,4358.205078,4089.487061,4076.538574,3965.128174,3985.512939,850.512817,4278.974121,4067.94873,3963.333252,3976,3,69,,,,0,4,4,4,4,4,4,4,4,4,4,4,4,4,4,100,,,,,,,,,,,,,,,,,,,,,,,,,,,,,,,,,,,,,,,,,,,,,,,,,,,,,,,,,,,,,,,,,,,,,,,,,,,,,,,,,,,,,,,,,,,,,,,,,,,,,,,,,,,,,,,,,,,,,,,,,,,,,,,,,,,,,,
1702547748,1702547748,72,0,4079.487061,4216.410156,4041.794922,4049.871826,4044.487061,4359.743652,4080.769287,4075.384521,3968.076904,4007.692383,850.512817,4278.717773,4071.538574,3961.538574,5158,3,69,,,,0,4,4,4,4,4,4,4,4,4,4,4,4,4,4,100,,,,,,,,,,,,,,,,,18,0,0.729367,-0.423157,-0.498169,-0.201965,0.88292,-0.414601,0.149921,-24.145353,1.481879,83.732559,,,,,,,,,,,,,,,,,,,,,,,,,,,,,,,,,,,,,,,,,,,,,,,,,,,,,,,,,,,,,,,,,,,,,,,,,,,,,,,,,,,,,,,,,,,,,,,,,,,,,,,,,,
1702547748,1702547748,73,0,4082.435791,4204.615234,4046.025635,4042.564209,3998.589844,4349.743652,4079.230713,4075.384521,3969.743652,3997.692383,856.025635,4275.897461,4079.743652,3958.461426,5467,3,69,,,,0,4,4,4,4,4,4,4,4,4,4,4,4,4,4,100,,,,,,,,,,,,,,,,,,,,,,,,,,,,,,,,,,,,,,,,,,,,,,,,,,,,,,,,,,,,,,,,,,,,,,,,,,,,,,,,,,,,,,,,,,,,,,,,,,,,,,,,,,,,,,,,,,,,,,,,,,,,,,,,,,,,,,
1702547748,1702547748,74,0,4080.128174,4198.077148,4049.358887,4037.05127,4032.564209,4344.487305,4090.897461,4079.487061,3970,3976.923096,868.717957,4277.820313,4075.384521,3955.641113,6033,3,69,,,,0,4,4,4,4,4,4,4,4,4,4,4,4,4,4,100,,,,,,,,,,,,,,,,,,,,,,,,,,,,,,,,,,,,,,,,,,,,,,,,,,,,,,,,,,,,,,,,,,,,,,,,,,,,,,,,,,,,,,,,,,,,,,,,,,,,,,,,,,,,,,,,,,,,,,,,,,,,,,,,,,,,,,
1702547748,1702547748,75,0,4093.974365,4212.563965,4058.205078,4050.769287,4075.512939,4356.410156,4106.153809,4091.281982,3978.205078,4010.128174,881.538452,4282.05127,4075.128174,3967.307617,6155,3,69,,,,0,4,4,4,4,4,4,4,4,4,4,4,4,4,4,100,,,,,,,,,,,,,,,,,,,,,,,,,,,,,,,,,,,,,,,,,,,,,,,,,,,,,,,,,,,,,,,,,,,,,,,,,,,,,,,,,,,,,,,,,,,,,,,,,,,,,,,,,,,,,,,,,,,,,,,,,,,,,,,,,,,,,,
1702547748,1702547748,76,0,4109.102539,4223.333496,4069.743652,4061.666748,4081.025635,4372.179688,4111.666504,4096.025879,3988.076904,4040.512939,901.025635,4282.820313,4083.205078,3980.897461,4732,3,69,,,,0,4,4,4,4,4,4,4,4,4,4,4,4,4,4,100,,,,,,,,,,,,,,,,,19,0,0.729356,-0.423218,-0.498108,-0.202026,0.89757,-0.392626,0.133317,-23.947485,1.517025,83.642632,,,,,,,,,,,,,,,,,,,,,,,,,,,,,,,,,,,,,,,,,,,,,,,,,,,,,,,,,,,,,,,,,,,,,,,,,,,,,,,,,,,,,,,,,,,,,,,,,,,,,,,,,,
1702547748,1702547748,77,0,4093.589844,4212.692383,4064.487061,4036.153809,4064.230713,4360.641113,4102.05127,4082.435791,3976.025635,4000.641113,926.538452,4277.563965,4071.923096,3968.718018,2075,3,69,,,,0,4,4,4,4,4,4,4,4,4,4,4,4,4,4,100,,,,,,,,,,,,,,,,,,,,,,,,,,,,,,,,,,,,,,,,,,,,,,,,,,,,,,,,,,,,,,,,,,,,,,,,,,,,,,,,,,,,,,,,,,,,,,,,,,,,,,,,,,,,,,,,,,,,,,,,,,,,,,,,,,,,,,
1702547748,1702547748,78,0,4070.769287,4195,4049.615479,4000,4040,4337.692383,4089.743652,4066.923096,3955.128174,3971.025635,948.974365,4271.282227,4053.718018,3947.692383,6033,3,69,,,,0,4,4,4,4,4,4,4,4,4,4,4,4,4,4,100,,,,,,,,,,,,,,,,,,,,,,,,,,,,,,,,,,,,,,,,,,,,,,,,,,,,,,,,,,,,,,,,,4.951671,6.301584,6.041554,1.68928,1.788402,4.406287,6.449005,7.031945,1.566334,1.832456,5.369761,6.215569,5.381252,1.628772,1.773093,4.616947,7.377082,6.009852,1.590427,1.999862,3.545921,6.922706,10.09178,6.900724,7.495151,296.636047,44.801601,11.567379,3.482769,1.538317,0.852329,4.224476,2.684936,1.076214,1.120328,0.454974,2.197743,1.591724,0.802003,0.917904,9.271196,7.321527,4.009727,1.455353,1.953309,4.671735,8.742862,11.054576,5.135149,6.444484,77.099358,27.523874,12.878067,4.362858,3.024123,0.390579,0.835789,0.735114,0.326535,0.337581,40.61203,16.047667,8.582271,1.995049,2.321961,4.228851,7.554659,6.351162,2.298952,2.492738
1702547748,1702547748,79,0,4066.923096,4185,4042.435791,3988.461426,4010.384521,4335.769043,4081.410156,4062.564209,3943.846191,3983.589844,973.076904,4269.230957,4051.025635,3938.333252,6155,3,69,,,,0,4,4,4,4,4,4,4,4,4,4,4,4,4,4,100,,,,,,,,,,,,,,,,,,,,,,,,,,,,,,,,,,,,,,,,,,,,,,,,,,,,,,,,,,,,,,,,,,,,,,,,,,,,,,,,,,,,,,,,,,,,,,,,,,,,,,,,,,,,,,,,,,,,,,,,,,,,,,,,,,,,,,
1702547748,1702547748,80,0,4079.871826,4192.436035,4053.205078,3997.692383,4005.769287,4342.94873,4083.461426,4068.205078,3944.487061,3999.743652,1006.666687,4272.563965,4063.718018,3939.487061,4732,3,69,,,,0,4,4,4,4,4,4,4,4,4,4,4,4,4,4,100,,,,,,,,,,,,,,,,,20,0,0.729514,-0.423523,-0.497742,-0.201721,0.87413,-0.415578,0.158711,-24.169403,1.365322,83.661705,,,,,,,,,,,,,,,,,,,,,,,,,,,,,,,,,,,,,,,,,,,,,,,,,,,,,,,,,,,,,,,,,,,,,,,,,,,,,,,,,,,,,,,,,,,,,,,,,,,,,,,,,,
1702547748,1702547748,81,0,4092.307617,4210.384766,4071.538574,4002.692383,4053.718018,4348.333496,4097.05127,4075.641113,3953.718018,4034.871826,1046.794922,4276.410156,4089.615479,3950.384521,2075,3,69,,,,0,4,4,4,4,4,4,4,4,4,4,4,4,4,4,100,,,,,,,,,,,,,,,,,,,,,,,,,,,,,,,,,,,,,,,,,,,,,,,,,,,,,,,,,,,,,,,,,,,,,,,,,,,,,,,,,,,,,,,,,,,,,,,,,,,,,,,,,,,,,,,,,,,,,,,,,,,,,,,,,,,,,,
1702547748,1702547748,82,0,4085.897461,4216.025879,4073.718018,3994.615479,4101.538574,4357.436035,4105.256348,4073.333252,3949.102539,4035.256348,1085.384644,4275.769043,4109.743652,3952.820557,6033,3,69,,,,0,4,4,4,4,4,4,4,4,4,4,4,4,4,4,100,,,,,,,,,,,,,,,,,,,,,,,,,,,,,,,,,,,,,,,,,,,,,,,,,,,,,,,,,,,,,,,,,,,,,,,,,,,,,,,,,,,,,,,,,,,,,,,,,,,,,,,,,,,,,,,,,,,,,,,,,,,,,,,,,,,,,,
1702547748,1702547748,83,0,4079.615479,4212.179688,4072.94873,3993.333252,4088.333252,4367.820313,4103.974121,4071.538574,3941.538574,3998.589844,1123.589722,4277.179688,4120.384766,3950.641113,6155,3,69,,,,0,4,4,4,4,4,4,4,4,4,4,4,4,4,4,100,,,,,,,,,,,,,,,,,,,,,,,,,,,,,,,,,,,,,,,,,,,,,,,,,,,,,,,,,,,,,,,,,,,,,,,,,,,,,,,,,,,,,,,,,,,,,,,,,,,,,,,,,,,,,,,,,,,,,,,,,,,,,,,,,,,,,,
1702547748,1702547748,84,0,4099.358887,4219.358887,4087.435791,4009.102539,4029.487061,4370.641113,4107.820313,4077.94873,3954.102539,4023.333252,1163.205078,4282.692383,4142.436035,3964.615479,4732,3,69,,,,0,4,4,4,4,4,4,4,4,4,4,4,4,4,4,100,,,,,,,,,,,,,,,,,21,0,0.729655,-0.423523,-0.497559,-0.20166,0.883897,-0.419485,0.143572,-24.202463,1.512123,83.595535,,,,,,,,,,,,,,,,,,,,,,,,,,,,,,,,,,,,,,,,,,,,,,,,,,,,,,,,,,,,,,,,,,,,,,,,,,,,,,,,,,,,,,,,,,,,,,,,,,,,,,,,,,
1702547748,1702547748,85,0,4109.487305,4221.025879,4095,4006.153809,4017.307617,4364.230957,4112.692383,4079.743652,3959.871826,4053.461426,1198.205078,4282.692383,4154.358887,3968.718018,2075,3,69,,,,0,4,4,4,4,4,4,4,4,4,4,4,4,4,4,100,,,,,,,,,,,,,,,,,,,,,,,,,,,,,,,,,,,,,,,,,,,,,,,,,,,,,,,,,,,,,,,,,,,,,,,,,,,,,,,,,,,,,,,,,,,,,,,,,,,,,,,,,,,,,,,,,,,,,,,,,,,,,,,,,,,,,,
1702547748,1702547748,86,0,4102.692383,4210.128418,4092.435791,3992.435791,4081.538574,4366.794922,4117.563965,4085.128174,3952.820557,4039.358887,1233.974365,4283.717773,4151.666504,3961.923096,6033,3,69,,,,0,4,4,4,4,4,4,4,4,4,4,4,4,4,4,100,,,,,,,,,,,,,,,,,,,,,,,,,,,,,,,,,,,,,,,,,,,,,,,,,,,,,,,,,,,,,,,,,,,,,,,,,,,,,,,,,,,,,,,,,,,,,,,,,,,,,,,,,,,,,,,,,,,,,,,,,,,,,,,,,,,,,,
1702547748,1702547748,87,0,4118.846191,4222.94873,4109.871582,4011.538574,4130.512695,4387.307617,4136.153809,4102.563965,3965.128174,4060.384521,1284.102539,4291.538574,4176.666504,3977.692383,6155,3,69,,,,0,4,4,4,4,4,4,4,4,4,4,4,4,4,4,100,,,,,,,,,,,,,,,,,,,,,,,,,,,,,,,,,,,,,,,,,,,,,,,,,,,,,,,,,,,,,,,,,,,,,,,,,,,,,,,,,,,,,,,,,,,,,,,,,,,,,,,,,,,,,,,,,,,,,,,,,,,,,,,,,,,,,,
1702547748,1702547748,88,0,4141.282227,4245.641113,4135.128418,4032.94873,4128.717773,4402.692383,4155.641113,4112.563965,3988.333252,4091.410156,1344.359009,4298.589844,4207.05127,3995.128174,4732,3,69,,,,0,4,4,4,4,4,4,4,4,4,4,4,4,4,4,100,,,,,,,,,,,,,,,,,22,0,0.72968,-0.423767,-0.497314,-0.20166,0.887804,-0.409718,0.147967,-24.198883,1.644244,83.419312,,,,,,,,,,,,,,,,,,,,,,,,,,,,,,,,,,,,,,,,,,,,,,,,,,,,,,,,,,,,,,,,,,,,,,,,,,,,,,,,,,,,,,,,,,,,,,,,,,,,,,,,,,
1702547748,1702547748,89,0,4141.538574,4240.641113,4137.692383,4026.025635,4119.102539,4395.897461,4155.512695,4109.230957,3991.153809,4087.820557,1398.076904,4301.282227,4206.922852,3990.128174,2075,3,69,,,,0,4,4,4,4,4,4,4,4,4,4,4,4,4,4,100,,,,,,,,,,,,,,,,,,,,,,,,,,,,,,,,,,,,,,,,,,,,,,,,,,,,,,,,,,,,,,,,,,,,,,,,,,,,,,,,,,,,,,,,,,,,,,,,,,,,,,,,,,,,,,,,,,,,,,,,,,,,,,,,,,,,,,
1702547748,1702547748,90,0,4144.102539,4236.922852,4138.846191,4025.512939,4111.282227,4395.256348,4148.846191,4110.769043,3984.871826,4081.153809,1451.923096,4302.692383,4214.871582,3991.410156,6033,3,69,,,,0,4,4,4,4,4,4,4,4,4,4,4,4,4,4,100,,,,,,,,,,,,,,,,,,,,,,,,,,,,,,,,,,,,,,,,,,,,,,,,,,,,,,,,,,,,,,,,,,,,,,,,,,,,,,,,,,,,,,,,,,,,,,,,,,,,,,,,,,,,,,,,,,,,,,,,,,,,,,,,,,,,,,
1702547748,1702547748,91,0,4164.615234,4260.897461,4159.358887,4047.179443,4109.230957,4412.820313,4161.153809,4122.05127,3992.05127,4094.102539,1522.692261,4307.692383,4245,4010.769287,6155,3,69,,,,0,4,4,4,4,4,4,4,4,4,4,4,4,4,4,100,,,,,,,,,,,,,,,,,,,,,,,,,,,,,,,,,,,,,,,,,,,,,,,,,,,,,,,,,,,,,,,,,,,,,,,,,,,,,,,,,,,,,,,,,,,,,,,,,,,,,,,,,,,,,,,,,,,,,,,,,,,,,,,,,,,,,,
1702547748,1702547748,92,0,4174.743652,4270.897461,4171.153809,4057.564209,4132.94873,4413.461426,4179.102539,4126.794922,4004.358887,4121.025879,1590.25647,4310.897461,4259.615234,4014.615479,4732,3,69,,,,0,4,4,4,4,4,4,4,4,4,4,4,4,4,4,100,,,,,,,,,,,,,,,,,23,0,0.729791,-0.42395,-0.49707,-0.201477,0.893664,-0.420461,0.158711,-23.995661,1.663153,83.277382,,,,,,,,,,,,,,,,,,,,,,,,,,,,,,,,,,,,,,,,,,,,,,,,,,,,,,,,,,,,,,,,,,,,,,,,,,,,,,,,,,,,,,,,,,,,,,,,,,,,,,,,,,
1702547748,1702547748,93,0,4171.666504,4262.436035,4167.820313,4056.153809,4165.641113,4415.384766,4184.102539,4123.974121,4010.384521,4141.410156,1645.640991,4310.128418,4263.717773,4008.718018,2075,3,69,,,,0,4,4,4,4,4,4,4,4,4,4,4,4,4,4,100,,,,,,,,,,,,,,,,,,,,,,,,,,,,,,,,,,,,,,,,,,,,,,,,,,,,,,,,,,,,,,,,,,,,,,,,,,,,,,,,,,,,,,,,,,,,,,,,,,,,,,,,,,,,,,,,,,,,,,,,,,,,,,,,,,,,,,
1702547748,1702547748,94,0,4190.256348,4284.871582,4183.461426,4077.307617,4191.025879,4427.05127,4191.922852,4128.205078,4016.666748,4135.128418,1717.179443,4314.358887,4290.641113,4031.666748,6033,3,69,,,,0,4,4,4,4,4,4,4,4,4,4,4,4,4,4,100,1,8.333333,1,1,1,1,1,0,1,1,3,1,0,4,1,1,,,,,,,,,,,,,,,,,,,,,,,,,,,,,,,,,,,,,,,,,,,,,,,,,4.354311,6.348021,6.017364,1.565006,1.713748,3.681706,7.17021,7.240361,1.514187,1.879599,5.38512,6.083385,5.253523,1.526584,1.593996,3.262228,7.171587,5.863571,1.570288,1.866141,2.94887,5.644942,9.167011,7.10497,8.37961,200.31546,33.331509,9.739063,2.639756,1.372223,0.688599,4.352631,2.789123,1.00489,1.084934,0.364666,2.100783,1.733253,0.749226,0.864384,10.816315,8.150202,4.178001,1.415397,1.906296,5.059307,8.385256,11.317402,5.409631,6.204856,418.848267,118.162956,40.250183,11.752391,3.64834,0.3336,0.835382,0.769865,0.310648,0.320747,45.792,16.333385,8.396526,1.887329,2.265856,4.502472,7.580238,5.89427,2.093422,2.424825
1702547748,1702547748,95,0,4218.205078,4316.410156,4210.256348,4105.897461,4199.743652,4344.743652,4205.897461,4135.897461,4029.102539,4143.205078,1796.025635,4320.641113,4324.102539,4061.794922,6155,3,69,,,,0,4,4,4,4,4,4,4,4,4,4,4,4,4,4,100,,,,,,,,,,,,,,,,,,,,,,,,,,,,,,,,,,,,,,,,,,,,,,,,,,,,,,,,,,,,,,,,,,,,,,,,,,,,,,,,,,,,,,,,,,,,,,,,,,,,,,,,,,,,,,,,,,,,,,,,,,,,,,,,,,,,,,
1702547748,1702547748,96,0,4211.025879,4302.563965,4202.692383,4093.589844,4187.563965,4163.333496,4202.692383,4129.743652,4026.794922,4164.230957,1841.923096,4316.410156,4325.256348,4047.435791,4732,3,69,,,,0,4,4,4,4,4,4,4,4,4,4,4,4,4,4,100,,,,,,,,,,,,,,,,,24,0,0.729766,-0.42395,-0.497131,-0.201416,0.878525,-0.408741,0.144549,-24.112762,1.446838,83.399643,,,,,,,,,,,,,,,,,,,,,,,,,,,,,,,,,,,,,,,,,,,,,,,,,,,,,,,,,,,,,,,,,,,,,,,,,,,,,,,,,,,,,,,,,,,,,,,,,,,,,,,,,,
1702547748,1702547748,97,0,4185.384766,4282.563965,4180.384766,4056.794922,4185.256348,4034.743652,4191.794922,4120.384766,4011.153809,4139.615234,1871.538452,4309.615234,4301.025879,4018.076904,2075,3,69,,,,0,4,4,4,4,4,4,4,4,4,4,4,4,4,4,100,,,,,,,,,,,,,,,,,,,,,,,,,,,,,,,,,,,,,,,,,,,,,,,,,,,,,,,,,,,,,,,,,,,,,,,,,,,,,,,,,,,,,,,,,,,,,,,,,,,,,,,,,,,,,,,,,,,,,,,,,,,,,,,,,,,,,,
1702547748,1702547748,98,0,4213.333496,4318.589844,4212.692383,4078.076904,4217.820313,4019.230713,4221.538574,4149.230957,4038.076904,4157.436035,1951.666626,4322.436035,4324.102539,4049.102539,6033,3,69,,,,0,4,4,4,4,4,4,4,4,4,4,4,4,4,4,100,,,,,,,,,,,,,,,,,,,,,,,,,,,,,,,,,,,,,,,,,,,,,,,,,,,,,,,,,,,,,,,,,,,,,,,,,,,,,,,,,,,,,,,,,,,,,,,,,,,,,,,,,,,,,,,,,,,,,,,,,,,,,,,,,,,,,,
1702547748,1702547748,99,0,4300.512695,4392.179688,4298.589844,4163.333496,4301.282227,4053.333252,4288.077148,4207.179688,4118.077148,4261.922852,2095.641113,4353.974121,4414.615234,4135,6155,3,69,,,,0,4,4,4,4,4,4,4,4,4,4,4,4,4,4,100,,,,,,,,,,,,,,,,,,,,,,,,,,,,,,,,,,,,,,,,,,,,,,,,,,,,,,,,,,,,,,,,,,,,,,,,,,,,,,,,,,,,,,,,,,,,,,,,,,,,,,,,,,,,,,,,,,,,,,,,,,,,,,,,,,,,,,
1702547748,1702547748,100,0,4380.128418,4458.077148,4376.538574,4234.358887,4382.179688,4098.717773,4343.974121,4245.769043,4191.025879,4323.717773,2244.615479,4383.333496,4504.102539,4217.05127,4732,3,69,,,,0,4,4,4,4,4,4,4,4,4,4,4,4,4,4,100,,,,,,,,,,,,,,,,,25,0,0.729741,-0.42395,-0.497192,-0.201355,0.891222,-0.423392,0.145037,-24.08482,1.402154,83.459679,,,,,,,,,,,,,,,,,,,,,,,,,,,,,,,,,,,,,,,,,,,,,,,,,,,,,,,,,,,,,,,,,,,,,,,,,,,,,,,,,,,,,,,,,,,,,,,,,,,,,,,,,,
1702547748,1702547748,101,0,4422.820313,4504.102539,4424.615234,4270.641113,4414.871582,4145.641113,4378.846191,4267.563965,4235.256348,4343.077148,2356.281982,4402.563965,4556.282227,4274.615234,2075,3,69,,,,0,4,4,4,4,4,4,4,4,4,4,4,4,4,4,100,,,,,,,,,,,,,,,,,,,,,,,,,,,,,,,,,,,,,,,,,,,,,,,,,,,,,,,,,,,,,,,,,,,,,,,,,,,,,,,,,,,,,,,,,,,,,,,,,,,,,,,,,,,,,,,,,,,,,,,,,,,,,,,,,,,,,,
1702547748,1702547748,102,0,4442.563965,4526.794922,4449.487305,4295.256348,4451.666504,4184.871582,4402.307617,4290.769043,4270,4400.384766,2438.718018,4411.666504,4582.692383,4303.205078,6033,3,69,,,,0,4,4,4,4,4,4,4,4,4,4,4,4,4,4,100,,,,,,,,,,,,,,,,,,,,,,,,,,,,,,,,,,,,,,,,,,,,,,,,,,,,,,,,,,,,,,,,,,,,,,,,,,,,,,,,,,,,,,,,,,,,,,,,,,,,,,,,,,,,,,,,,,,,,,,,,,,,,,,,,,,,,,
1702547748,1702547748,103,0,4449.743652,4530.641113,4455.641113,4304.358887,4462.820313,4213.974121,4406.153809,4292.692383,4281.410156,4434.871582,2511.538574,4411.410156,4598.589844,4307.563965,6155,3,69,,,,0,4,4,4,4,4,4,4,4,4,4,4,4,4,4,100,,,,,,,,,,,,,,,,,,,,,,,,,,,,,,,,,,,,,,,,,,,,,,,,,,,,,,,,,,,,,,,,,,,,,,,,,,,,,,,,,,,,,,,,,,,,,,,,,,,,,,,,,,,,,,,,,,,,,,,,,,,,,,,,,,,,,,
1702547748,1702547748,104,0,4443.333496,4525.256348,4458.205078,4296.410156,4412.94873,4224.102539,4391.794922,4271.794922,4258.077148,4401.922852,2569.102539,4409.487305,4609.487305,4304.102539,4732,3,69,,,,0,4,4,4,4,4,4,4,4,4,4,4,4,4,4,100,,,,,,,,,,,,,,,,,26,0,0.729881,-0.424011,-0.497009,-0.201172,0.883409,-0.415578,0.151386,-24.093004,1.378605,83.380379,,,,,,,,,,,,,,,,,,,,,,,,,,,,,,,,,,,,,,,,,,,,,,,,,,,,,,,,,,,,,,,,,,,,,,,,,,,,,,,,,,,,,,,,,,,,,,,,,,,,,,,,,,
1702547748,1702547748,105,0,4431.410156,4512.563965,4456.538574,4287.05127,4407.436035,4228.461426,4377.307617,4261.666504,4229.615234,4389.358887,2606.666748,4406.410156,4604.102539,4295.641113,2075,3,69,,,,0,4,4,4,4,4,4,4,4,4,4,4,4,4,4,100,,,,,,,,,,,,,,,,,,,,,,,,,,,,,,,,,,,,,,,,,,,,,,,,,,,,,,,,,,,,,,,,,,,,,,,,,,,,,,,,,,,,,,,,,,,,,,,,,,,,,,,,,,,,,,,,,,,,,,,,,,,,,,,,,,,,,,
1702547748,1702547748,106,0,4438.205078,4511.666504,4457.94873,4290.512695,4463.077148,4254.102539,4382.179688,4271.282227,4237.563965,4431.538574,2659.102539,4406.794922,4601.282227,4298.846191,6033,3,69,,,,0,4,4,4,4,4,4,4,4,4,4,4,4,4,4,100,,,,,,,,,,,,,,,,,,,,,,,,,,,,,,,,,,,,,,,,,,,,,,,,,,,,,,,,,,,,,,,,,,,,,,,,,,,,,,,,,,,,,,,,,,,,,,,,,,,,,,,,,,,,,,,,,,,,,,,,,,,,,,,,,,,,,,
1702547748,1702547748,107,0,4461.794922,4532.307617,4480,4307.94873,4478.205078,4292.307617,4405.897461,4286.410156,4272.94873,4460,2743.718018,4414.230957,4625.256348,4328.333496,6155,3,69,,,,0,4,4,4,4,4,4,4,4,4,4,4,4,4,4,100,,,,,,,,,,,,,,,,,,,,,,,,,,,,,,,,,,,,,,,,,,,,,,,,,,,,,,,,,,,,,,,,,,,,,,,,,,,,,,,,,,,,,,,,,,,,,,,,,,,,,,,,,,,,,,,,,,,,,,,,,,,,,,,,,,,,,,
1702547748,1702547748,108,0,4470.641113,4539.230957,4492.307617,4315.384766,4472.436035,4316.282227,4413.461426,4290.128418,4282.820313,4435.384766,2810.256348,4418.077148,4639.487305,4342.563965,4732,3,69,,,,0,4,4,4,4,4,4,4,4,4,4,4,4,4,4,100,,,,,,,,,,,,,,,,,27,0,0.729935,-0.424133,-0.496826,-0.201172,0.883409,-0.40923,0.160176,-24.25037,1.340745,83.575676,,,,,,,,,,,,,,,,,,,,,,,,,,,,,,,,,,,,,,,,,,,,,,,,,,,,,,,,,,,,,,,,,,,,,,,,,,,,,,,,,,,,,,,,,,,,,,,,,,,,,,,,,,
1702547748,1702547748,109,0,4445.384766,4511.282227,4463.077148,4292.307617,4472.820313,4313.461426,4388.589844,4273.589844,4254.487305,4382.563965,2827.692383,4407.692383,4603.461426,4307.436035,2075,3,69,,,,0,4,4,4,4,4,4,4,4,4,4,4,4,4,4,100,,,,,,,,,,,,,,,,,,,,,,,,,,,,,,,,,,,,,,,,,,,,,,,,,,,,,,,,,,,,,,,,,,,,,,,,,,,,,,,,,,,,,,,,,,,,,,,,,,,,,,,,,,,,,,,,,,,,,,,,,,,,,,,,,,,,,,
1702547748,1702547748,110,0,4439.615234,4505,4454.487305,4286.153809,4453.461426,4323.077148,4387.563965,4276.410156,4256.922852,4379.358887,2875.256348,4407.820313,4591.410156,4302.820313,6033,3,69,,,,0,4,4,4,4,4,4,4,4,4,4,4,4,4,4,100,,,,,,,,,,,,,,,,,,,,,,,,,,,,,,,,,,,,,,,,,,,,,,,,,,,,,,,,,,,,,,,,,3.994184,6.580349,5.784219,1.519237,1.724492,3.422736,8.02952,7.002643,1.43657,1.901371,5.765871,5.877995,4.871747,1.511049,1.529784,2.625199,7.141186,5.516374,1.590365,1.811613,2.387606,4.466437,8.159356,7.125638,9.170809,114.418427,22.78223,7.772073,1.991001,1.2641,0.672264,4.428679,2.834542,0.999093,1.101572,0.362681,2.055155,1.822585,0.740751,0.856606,11.88572,8.773636,4.216176,1.472017,1.929654,5.190427,8.121703,10.850314,5.790418,5.832974,1321.566772,352.751587,112.276054,29.937759,5.416638,0.329806,0.853245,0.794063,0.304114,0.314541,44.63332,15.4744,7.866526,1.843353,2.235459,5.992212,7.404312,5.471037,2.005695,2.426482
1702547748,1702547748,111,0,4484.615234,4541.410156,4499.230957,4328.846191,4466.282227,4371.666504,4427.692383,4312.436035,4313.077148,4453.717773,2980.384521,4431.666504,4643.461426,4360.256348,6155,3,69,,,,0,4,4,4,4,4,4,4,4,4,4,4,4,4,4,100,,,,,,,,,,,,,,,,,,,,,,,,,,,,,,,,,,,,,,,,,,,,,,,,,,,,,,,,,,,,,,,,,,,,,,,,,,,,,,,,,,,,,,,,,,,,,,,,,,,,,,,,,,,,,,,,,,,,,,,,,,,,,,,,,,,,,,
1702547748,1702547748,112,0,4517.692383,4565.128418,4523.717773,4361.794922,4521.025879,4410.769043,4449.487305,4328.589844,4343.589844,4517.436035,3057.435791,4444.230957,4681.025879,4393.077148,4732,3,69,,,,0,4,4,4,4,4,4,4,4,4,4,4,4,4,4,100,,,,,,,,,,,,,,,,,28,0,0.730014,-0.424255,-0.496704,-0.200928,0.878037,-0.401416,0.154316,-24.292,1.423337,83.501442,,,,,,,,,,,,,,,,,,,,,,,,,,,,,,,,,,,,,,,,,,,,,,,,,,,,,,,,,,,,,,,,,,,,,,,,,,,,,,,,,,,,,,,,,,,,,,,,,,,,,,,,,,
1702547748,1702547748,113,0,4508.589844,4565.641113,4511.794922,4359.743652,4519.743652,4414.102539,4442.563965,4314.102539,4327.94873,4494.615234,3091.410156,4438.846191,4677.563965,4383.974121,2075,3,69,,,,0,4,4,4,4,4,4,4,4,4,4,4,4,4,4,100,,,,,,,,,,,,,,,,,,,,,,,,,,,,,,,,,,,,,,,,,,,,,,,,,,,,,,,,,,,,,,,,,,,,,,,,,,,,,,,,,,,,,,,,,,,,,,,,,,,,,,,,,,,,,,,,,,,,,,,,,,,,,,,,,,,,,,
1702547748,1702547748,114,0,4492.692383,4552.179688,4501.153809,4348.846191,4475.384766,4408.717773,4432.563965,4305.641113,4317.436035,4435.384766,3128.205078,4437.307617,4664.230957,4372.692383,6033,3,69,,,,0,4,4,4,4,4,4,4,4,4,4,4,4,4,4,100,,,,,,,,,,,,,,,,,,,,,,,,,,,,,,,,,,,,,,,,,,,,,,,,,,,,,,,,,,,,,,,,,,,,,,,,,,,,,,,,,,,,,,,,,,,,,,,,,,,,,,,,,,,,,,,,,,,,,,,,,,,,,,,,,,,,,,
1702547748,1702547748,115,0,4485,4525,4490.256348,4337.692383,4485.256348,4411.538574,4421.922852,4307.563965,4323.461426,4431.666504,3172.692383,4437.94873,4656.282227,4364.743652,6155,3,69,,,,0,4,4,4,4,4,4,4,4,4,4,4,4,4,4,100,,,,,,,,,,,,,,,,,,,,,,,,,,,,,,,,,,,,,,,,,,,,,,,,,,,,,,,,,,,,,,,,,,,,,,,,,,,,,,,,,,,,,,,,,,,,,,,,,,,,,,,,,,,,,,,,,,,,,,,,,,,,,,,,,,,,,,
1702547748,1702547748,116,0,4477.307617,4516.538574,4479.230957,4329.743652,4493.717773,4417.563965,4417.563965,4308.461426,4326.922852,4464.102539,3209.871826,4434.871582,4658.461426,4358.846191,4732,3,69,,,,0,4,4,4,4,4,4,4,4,4,4,4,4,4,4,100,,,,,,,,,,,,,,,,,29,0,0.730089,-0.424255,-0.496643,-0.200806,0.886339,-0.425833,0.163106,-24.1628,1.414337,83.51796,,,,,,,,,,,,,,,,,,,,,,,,,,,,,,,,,,,,,,,,,,,,,,,,,,,,,,,,,,,,,,,,,,,,,,,,,,,,,,,,,,,,,,,,,,,,,,,,,,,,,,,,,,
1702547748,1702547748,117,0,4494.487305,4555.897461,4503.461426,4357.436035,4477.307617,4450.641113,4441.153809,4325.128418,4349.230957,4490,3272.307617,4442.05127,4685.897461,4384.102539,2075,3,69,,,,0,4,4,4,4,4,4,4,4,4,4,4,4,4,4,100,,,,,,,,,,,,,,,,,,,,,,,,,,,,,,,,,,,,,,,,,,,,,,,,,,,,,,,,,,,,,,,,,,,,,,,,,,,,,,,,,,,,,,,,,,,,,,,,,,,,,,,,,,,,,,,,,,,,,,,,,,,,,,,,,,,,,,
1702547748,1702547748,118,0,4548.974121,4611.922852,4560.897461,4423.461426,4557.94873,4521.153809,4489.102539,4361.153809,4401.538574,4516.794922,3379.487061,4466.410156,4738.974121,4441.666504,6033,3,69,,,,0,4,4,4,4,4,4,4,4,4,4,4,4,4,4,100,,,,,,,,,,,,,,,,,,,,,,,,,,,,,,,,,,,,,,,,,,,,,,,,,,,,,,,,,,,,,,,,,,,,,,,,,,,,,,,,,,,,,,,,,,,,,,,,,,,,,,,,,,,,,,,,,,,,,,,,,,,,,,,,,,,,,,
1702547748,1702547748,119,0,4619.871582,4672.820313,4627.179688,4502.94873,4668.077148,4600,4546.025879,4404.102539,4464.615234,4575.384766,3508.333252,4494.487305,4814.871582,4512.563965,6155,3,69,,,,0,4,4,4,4,4,4,4,4,4,4,4,4,4,4,100,,,,,,,,,,,,,,,,,,,,,,,,,,,,,,,,,,,,,,,,,,,,,,,,,,,,,,,,,,,,,,,,,,,,,,,,,,,,,,,,,,,,,,,,,,,,,,,,,,,,,,,,,,,,,,,,,,,,,,,,,,,,,,,,,,,,,,
1702547748,1702547748,120,0,4716.794922,4773.974121,4724.102539,4613.205078,4693.333496,4697.563965,4630.384766,4464.358887,4557.820313,4693.717773,3664.358887,4527.820313,4930.897461,4619.358887,4732,3,69,,,,0,4,4,4,4,4,4,4,4,4,4,4,4,4,4,100,,,,,,,,,,,,,,,,,30,0,0.730148,-0.4245,-0.496521,-0.200378,0.892687,-0.41216,0.143572,-24.179853,1.406236,83.366165,,,,,,,,,,,,,,,,,,,,,,,,,,,,,,,,,,,,,,,,,,,,,,,,,,,,,,,,,,,,,,,,,,,,,,,,,,,,,,,,,,,,,,,,,,,,,,,,,,,,,,,,,,
1702547748,1702547748,121,0,4832.307617,4885.256348,4836.025879,4737.692383,4798.461426,4815.256348,4725.769043,4527.179688,4665.897461,4807.179688,3830.384521,4570.769043,5051.410156,4746.666504,2075,3,69,,,,0,4,4,4,4,4,4,4,4,4,4,4,4,4,4,100,,,,,,,,,,,,,,,,,,,,,,,,,,,,,,,,,,,,,,,,,,,,,,,,,,,,,,,,,,,,,,,,,,,,,,,,,,,,,,,,,,,,,,,,,,,,,,,,,,,,,,,,,,,,,,,,,,,,,,,,,,,,,,,,,,,,,,
1702547748,1702547748,122,0,4984.358887,5022.820313,4978.333496,4888.077148,5044.358887,4958.333496,4840.384766,4607.436035,4796.153809,4928.077148,4039.358887,4631.666504,5206.794922,4911.922852,6033,3,69,,,,0,4,4,4,4,4,4,4,4,4,4,4,4,4,4,100,,,,,,,,,,,,,,,,,,,,,,,,,,,,,,,,,,,,,,,,,,,,,,,,,,,,,,,,,,,,,,,,,,,,,,,,,,,,,,,,,,,,,,,,,,,,,,,,,,,,,,,,,,,,,,,,,,,,,,,,,,,,,,,,,,,,,,
1702547748,1702547748,123,0,5181.410156,5204.487305,5173.205078,5086.538574,5207.179688,5128.333496,4986.025879,4721.794922,4972.94873,5121.794922,4315.512695,4706.282227,5425.769043,5130.897461,6155,3,69,,,,0,4,4,4,4,4,4,4,4,4,4,4,4,4,4,100,,,,,,,,,,,,,,,,,,,,,,,,,,,,,,,,,,,,,,,,,,,,,,,,,,,,,,,,,,,,,,,,,,,,,,,,,,,,,,,,,,,,,,,,,,,,,,,,,,,,,,,,,,,,,,,,,,,,,,,,,,,,,,,,,,,,,,
1702547748,1702547748,124,0,5294.615234,5301.794922,5286.025879,5205.512695,5222.307617,5228.717773,5068.205078,4781.025879,5091.153809,5260.897461,4496.538574,4745.897461,5548.846191,5261.794922,4732,3,69,,,,0,4,4,4,4,4,4,4,4,4,4,4,4,4,4,100,,,,,,,,,,,,,,,,,31,0,0.730212,-0.424561,-0.496399,-0.200317,0.88585,-0.410206,0.155781,-24.195202,1.482279,83.396217,,,,,,,,,,,,,,,,,,,,,,,,,,,,,,,,,,,,,,,,,,,,,,,,,,,,,,,,,,,,,,,,,,,,,,,,,,,,,,,,,,,,,,,,,,,,,,,,,,,,,,,,,,
1702547748,1702547748,125,0,5287.179688,5288.205078,5274.102539,5200.769043,5244.871582,5232.563965,5060.256348,4765.641113,5097.820313,5269.230957,4527.94873,4740.128418,5536.410156,5259.102539,2075,3,69,,,,0,4,4,4,4,4,4,4,4,4,4,4,4,4,4,100,,,,,,,,,,,,,,,,,,,,,,,,,,,,,,,,,,,,,,,,,,,,,,,,,,,,,,,,,,,,,,,,,,,,,,,,,,,,,,,,,,,,,,,,,,,,,,,,,,,,,,,,,,,,,,,,,,,,,,,,,,,,,,,,,,,,,,
1702547748,1702547748,126,0,5303.846191,5310.641113,5294.230957,5223.974121,5333.205078,5268.717773,5078.333496,4778.717773,5119.615234,5290.256348,4592.436035,4748.461426,5556.538574,5284.487305,6033,3,69,,,,0,4,4,4,4,4,4,4,4,4,4,4,4,4,4,100,,,,,,,,,,,,,,,,,,,,,,,,,,,,,,,,,,,,,,,,,,,,,,,,,,,,,,,,,,,,,,,,,3.969906,7.130557,5.437315,1.535562,1.78026,3.932684,9.010237,6.443257,1.343079,1.868008,6.55973,5.965177,4.380017,1.548656,1.540707,2.818978,7.444808,5.059356,1.632005,1.797892,2.44716,3.570955,7.195246,7.295381,9.744904,54.623066,15.6106,6.333672,1.687119,1.224581,0.936385,4.509564,2.830893,1.049699,1.138296,0.486873,2.176027,1.840429,0.763248,0.86985,12.433709,9.301852,4.143665,1.573662,1.965408,5.090922,8.088421,9.925359,6.089594,5.468296,2878.785889,749.127136,237.426498,59.727371,8.401011,0.348745,0.915495,0.797968,0.300208,0.313795,38.643913,13.840712,7.136627,1.832188,2.185226,9.085129,7.168375,5.214342,2.025963,2.434289
1702547748,1702547748,127,0,5359.230957,5368.077148,5356.666504,5286.794922,5394.102539,5340.512695,5129.102539,4816.666504,5182.94873,5327.692383,4701.153809,4773.974121,5601.794922,5354.615234,69,3,69,,,,0,4,4,4,4,4,4,4,4,4,4,4,4,4,4,100,,,,,,,,,,,,,,,,,,,,,,,,,,,,,,,,,,,,,,,,,,,,,,,,,,,,,,,,,,,,,,,,,,,,,,,,,,,,,,,,,,,,,,,,,,,,,,,,,,,,,,,,,,,,,,,,,,,,,,,,,,,,,,,,,,,,,,
1702547748,1702547748,0,0,5357.436035,5357.563965,5350.897461,5277.05127,5371.410156,5340,5125.769043,4808.333496,5194.230957,5311.153809,4730.769043,4769.358887,5578.846191,5359.230957,5382,3,69,,,,0,4,4,4,4,4,4,4,4,4,4,4,4,4,4,100,,,,,,,,,,,,,,,,,0,0,0.730308,-0.424438,-0.49646,-0.200073,0.889757,-0.404346,0.141619,-24.192348,1.400718,83.523262,,,,,,,,,,,,,,,,,,,,,,,,,,,,,,,,,,,,,,,,,,,,,,,,,,,,,,,,,,,,,,,,,,,,,,,,,,,,,,,,,,,,,,,,,,,,,,,,,,,,,,,,,,
1702547748,1702547748,1,0,5326.666504,5321.282227,5317.94873,5236.922852,5314.358887,5304.102539,5091.666504,4782.94873,5173.333496,5310.641113,4734.871582,4755.641113,5559.487305,5331.666504,5586,3,69,,,,0,4,4,4,4,4,4,4,4,4,4,4,4,4,4,100,,,,,,,,,,,,,,,,,,,,,,,,,,,,,,,,,,,,,,,,,,,,,,,,,,,,,,,,,,,,,,,,,,,,,,,,,,,,,,,,,,,,,,,,,,,,,,,,,,,,,,,,,,,,,,,,,,,,,,,,,,,,,,,,,,,,,,
1702547748,1702547748,2,0,5291.410156,5289.615234,5288.846191,5201.410156,5260.256348,5281.153809,5059.102539,4757.94873,5140.256348,5274.487305,4740.128418,4748.205078,5542.307617,5299.487305,5474,3,69,,,,0,4,4,4,4,4,4,4,4,4,4,4,4,4,4,100,,,,,,,,,,,,,,,,,,,,,,,,,,,,,,,,,,,,,,,,,,,,,,,,,,,,,,,,,,,,,,,,,,,,,,,,,,,,,,,,,,,,,,,,,,,,,,,,,,,,,,,,,,,,,,,,,,,,,,,,,,,,,,,,,,,,,,
1702547748,1702547748,3,0,5243.846191,5247.307617,5245.641113,5142.94873,5233.333496,5250.641113,5027.307617,4734.487305,5099.230957,5192.436035,4720.897461,4734.871582,5482.94873,5254.871582,5395,3,69,,,,0,4,4,4,4,4,4,4,4,4,4,4,4,4,4,100,,,,,,,,,,,,,,,,,,,,,,,,,,,,,,,,,,,,,,,,,,,,,,,,,,,,,,,,,,,,,,,,,,,,,,,,,,,,,,,,,,,,,,,,,,,,,,,,,,,,,,,,,,,,,,,,,,,,,,,,,,,,,,,,,,,,,,
1702547748,1702547749,4,0,5241.153809,5243.333496,5246.922852,5119.871582,5264.102539,5251.666504,5030,4751.538574,5112.05127,5190.256348,4756.538574,4736.538574,5476.025879,5257.94873,5322,3,69,,,,0,4,4,4,4,4,4,4,4,4,4,4,4,4,4,100,,,,,,,,,,,,,,,,,1,0,0.730489,-0.4245,-0.496216,-0.19989,0.873153,-0.411671,0.149921,-24.206446,1.360646,83.454269,,,,,,,,,,,,,,,,,,,,,,,,,,,,,,,,,,,,,,,,,,,,,,,,,,,,,,,,,,,,,,,,,,,,,,,,,,,,,,,,,,,,,,,,,,,,,,,,,,,,,,,,,,
1702547748,1702547749,5,0,5260.897461,5256.410156,5273.205078,5132.94873,5271.794922,5278.974121,5049.487305,4774.358887,5142.179688,5222.307617,4820.769043,4747.820313,5510.256348,5280.256348,4999,3,69,,,,0,4,4,4,4,4,4,4,4,4,4,4,4,4,4,100,,,,,,,,,,,,,,,,,,,,,,,,,,,,,,,,,,,,,,,,,,,,,,,,,,,,,,,,,,,,,,,,,,,,,,,,,,,,,,,,,,,,,,,,,,,,,,,,,,,,,,,,,,,,,,,,,,,,,,,,,,,,,,,,,,,,,,
1702547748,1702547749,6,0,5229.487305,5223.974121,5244.358887,5105.256348,5210.641113,5265.128418,5032.563965,4756.410156,5115.897461,5182.820313,4818.846191,4738.077148,5477.820313,5247.436035,4719,3,69,,,,0,4,4,4,4,4,4,4,4,4,4,4,4,4,4,100,,,,,,,,,,,,,,,,,,,,,,,,,,,,,,,,,,,,,,,,,,,,,,,,,,,,,,,,,,,,,,,,,,,,,,,,,,,,,,,,,,,,,,,,,,,,,,,,,,,,,,,,,,,,,,,,,,,,,,,,,,,,,,,,,,,,,,
1702547748,1702547749,7,0,5204.358887,5195.769043,5216.153809,5076.410156,5202.436035,5244.487305,5014.230957,4753.333496,5103.589844,5149.102539,4827.94873,4733.077148,5445.769043,5228.333496,3917,3,69,,,,0,4,4,4,4,4,4,4,4,4,4,4,4,4,4,100,,,,,,,,,,,,,,,,,,,,,,,,,,,,,,,,,,,,,,,,,,,,,,,,,,,,,,,,,,,,,,,,,,,,,,,,,,,,,,,,,,,,,,,,,,,,,,,,,,,,,,,,,,,,,,,,,,,,,,,,,,,,,,,,,,,,,,
1702547748,1702547749,8,0,5249.358887,5238.461426,5261.922852,5120,5260.769043,5285.128418,5052.179688,4791.922852,5153.461426,5204.743652,4920.641113,4758.846191,5506.025879,5287.05127,5063,3,69,,,,0,4,4,4,4,4,4,4,4,4,4,4,4,4,4,100,,,,,,,,,,,,,,,,,2,0,0.730729,-0.424744,-0.49585,-0.199402,0.887804,-0.430228,0.163106,-24.285801,1.424582,83.408844,,,,,,,,,,,,,,,,,,,,,,,,,,,,,,,,,,,,,,,,,,,,,,,,,,,,,,,,,,,,,,,,,,,,,,,,,,,,,,,,,,,,,,,,,,,,,,,,,,,,,,,,,,
1702547748,1702547749,9,0,5300.769043,5294.102539,5315.769043,5176.153809,5267.05127,5337.563965,5099.230957,4810.512695,5182.94873,5259.615234,5004.871582,4777.436035,5567.05127,5344.102539,5385,3,69,,,,0,4,4,4,4,4,4,4,4,4,4,4,4,4,4,100,,,,,,,,,,,,,,,,,,,,,,,,,,,,,,,,,,,,,,,,,,,,,,,,,,,,,,,,,,,,,,,,,,,,,,,,,,,,,,,,,,,,,,,,,,,,,,,,,,,,,,,,,,,,,,,,,,,,,,,,,,,,,,,,,,,,,,
1702547748,1702547749,10,0,5287.05127,5276.410156,5302.436035,5163.846191,5230.897461,5329.743652,5085.256348,4788.333496,5160,5216.282227,5017.94873,4768.205078,5541.794922,5329.230957,5890,3,69,,,,0,4,4,4,4,4,4,4,4,4,4,4,4,4,4,100,,,,,,,,,,,,,,,,,,,,,,,,,,,,,,,,,,,,,,,,,,,,,,,,,,,,,,,,,,,,,,,,,,,,,,,,,,,,,,,,,,,,,,,,,,,,,,,,,,,,,,,,,,,,,,,,,,,,,,,,,,,,,,,,,,,,,,
1702547748,1702547749,11,0,5235,5216.410156,5252.94873,5112.94873,5237.179688,5290.769043,5036.538574,4764.358887,5128.205078,5141.153809,4990.769043,4752.692383,5481.282227,5278.077148,6038,3,69,,,,0,4,4,4,4,4,4,4,4,4,4,4,4,4,4,100,,,,,,,,,,,,,,,,,,,,,,,,,,,,,,,,,,,,,,,,,,,,,,,,,,,,,,,,,,,,,,,,,,,,,,,,,,,,,,,,,,,,,,,,,,,,,,,,,,,,,,,,,,,,,,,,,,,,,,,,,,,,,,,,,,,,,,
1702547748,1702547749,12,0,5201.922852,5186.153809,5224.615234,5086.538574,5246.538574,5276.282227,5016.666504,4757.692383,5112.820313,5143.333496,4952.307617,4745.256348,5449.230957,5247.692383,5743,3,69,,,,0,4,4,4,4,4,4,4,4,4,4,4,4,4,4,100,,,,,,,,,,,,,,,,,3,0,0.730703,-0.424988,-0.495728,-0.19928,0.872665,-0.420461,0.151386,-24.307222,1.34879,83.301292,,,,,,,,,,,,,,,,,,,,,,,,,,,,,,,,,,,,,,,,,,,,,,,,,,,,,,,,,,,,,,,,,,,,,,,,,,,,,,,,,,,,,,,,,,,,,,,,,,,,,,,,,,
1702547748,1702547749,13,0,5188.717773,5181.153809,5210.512695,5078.333496,5218.589844,5268.974121,5007.563965,4747.692383,5097.436035,5160.512695,4913.974121,4740.512695,5437.179688,5232.307617,2045,3,69,,,,0,4,4,4,4,4,4,4,4,4,4,4,4,4,4,100,,,,,,,,,,,,,,,,,,,,,,,,,,,,,,,,,,,,,,,,,,,,,,,,,,,,,,,,,,,,,,,,,,,,,,,,,,,,,,,,,,,,,,,,,,,,,,,,,,,,,,,,,,,,,,,,,,,,,,,,,,,,,,,,,,,,,,
1702547748,1702547749,14,0,5154.230957,5153.717773,5177.563965,5048.205078,5178.333496,5237.307617,4977.179688,4722.563965,5058.589844,5093.589844,4873.589844,4725.641113,5399.102539,5193.077148,5890,3,69,,,,0,4,4,4,4,4,4,4,4,4,4,4,4,4,4,100,,,,,,,,,,,,,,,,,,,,,,,,,,,,,,,,,,,,,,,,,,,,,,,,,,,,,,,,,,,,,,,,,7.690162,8.315701,5.115435,1.663364,1.830953,8.004177,10.091285,5.789718,1.32346,1.773971,10.754807,6.862597,4.021069,1.667703,1.565896,7.435164,8.395258,4.695098,1.753016,1.781925,6.364097,3.388258,6.395809,7.962325,9.973644,32.69521,14.217743,6.72382,2.028777,1.25077,3.505044,4.919021,2.843641,1.180633,1.155469,1.89555,2.684614,1.833445,0.823589,0.87204,14.76318,10.341347,4.100779,1.745359,1.948621,8.273167,8.625057,8.95663,6.26386,5.197756,4841.233398,1246.352173,398.363068,96.004852,12.07819,0.840873,1.104742,0.799206,0.304028,0.309961,33.222424,11.828279,6.531675,1.91531,2.087604,16.244465,7.428069,5.233261,2.209774,2.390824
1702547748,1702547749,15,0,5119.743652,5122.692383,5152.436035,5024.743652,5130.897461,5217.692383,4963.974121,4715,5032.307617,5045.512695,4863.205078,4715.897461,5360,5162.563965,6038,3,69,,,,0,4,4,4,4,4,4,4,4,4,4,4,4,4,4,100,,,,,,,,,,,,,,,,,,,,,,,,,,,,,,,,,,,,,,,,,,,,,,,,,,,,,,,,,,,,,,,,,,,,,,,,,,,,,,,,,,,,,,,,,,,,,,,,,,,,,,,,,,,,,,,,,,,,,,,,,,,,,,,,,,,,,,
1702547748,1702547749,16,0,5140.256348,5138.461426,5173.846191,5051.794922,5094.358887,5241.538574,4993.846191,4750.256348,5065.384766,5090.512695,4928.077148,4731.025879,5389.743652,5193.717773,0,3,69,,,,0,4,4,4,4,4,4,4,4,4,4,4,4,4,4,100,,,,,,,,,,,,,,,,,4,0,0.73081,-0.424805,-0.495728,-0.19928,0.879014,-0.402881,0.151874,-24.259832,1.480578,83.371162,,,,,,,,,,,,,,,,,,,,,,,,,,,,,,,,,,,,,,,,,,,,,,,,,,,,,,,,,,,,,,,,,,,,,,,,,,,,,,,,,,,,,,,,,,,,,,,,,,,,,,,,,,
1702547748,1702547749,17,0,5173.589844,5162.563965,5205.512695,5080.512695,5109.358887,5264.358887,5026.666504,4786.282227,5120.897461,5127.692383,5007.820313,4748.974121,5434.615234,5239.230957,0,3,69,,,,0,4,4,4,4,4,4,4,4,4,4,4,4,4,4,100,,,,,,,,,,,,,,,,,,,,,,,,,,,,,,,,,,,,,,,,,,,,,,,,,,,,,,,,,,,,,,,,,,,,,,,,,,,,,,,,,,,,,,,,,,,,,,,,,,,,,,,,,,,,,,,,,,,,,,,,,,,,,,,,,,,,,,
1702547748,1702547749,18,0,5129.871582,5119.102539,5168.717773,5034.615234,5142.436035,5228.717773,4993.205078,4752.436035,5091.153809,5072.820313,4986.666504,4731.794922,5368.974121,5204.102539,0,3,69,,,,0,4,4,4,4,4,4,4,4,4,4,4,4,4,4,100,,,,,,,,,,,,,,,,,,,,,,,,,,,,,,,,,,,,,,,,,,,,,,,,,,,,,,,,,,,,,,,,,,,,,,,,,,,,,,,,,,,,,,,,,,,,,,,,,,,,,,,,,,,,,,,,,,,,,,,,,,,,,,,,,,,,,,
1702547748,1702547749,19,0,5058.717773,5055.384766,5102.94873,4970.128418,5121.666504,5174.102539,4927.307617,4693.461426,5007.94873,4987.307617,4927.307617,4701.666504,5267.820313,5138.205078,0,3,69,,,,0,4,4,4,4,4,4,4,4,4,4,4,4,4,4,100,,,,,,,,,,,,,,,,,,,,,,,,,,,,,,,,,,,,,,,,,,,,,,,,,,,,,,,,,,,,,,,,,,,,,,,,,,,,,,,,,,,,,,,,,,,,,,,,,,,,,,,,,,,,,,,,,,,,,,,,,,,,,,,,,,,,,,
